Time1=100ms:Average1=5:Objective=10X:Aperture=1: (11/21/2018 10:52:19 AM)
11/21/2018 10:52:19 AM
Reflectance
10X
Ap#: 1
Avg1: 5.000000
Avg2: 0.000000
Int.Time1:100.000000
Int.Time2:0.000000
420.190645	7.945471
420.624620	7.919059
421.058582	7.892601
421.492531	7.873997
421.926468	7.854812
422.360391	7.872976
422.794301	7.891949
423.228199	7.925351
423.662083	7.960859
424.095955	8.004423
424.529813	8.054645
424.963658	8.098527
425.397491	8.143390
425.831310	8.179548
426.265116	8.223467
426.698909	8.266406
427.132689	8.308416
427.566455	8.358842
428.000209	8.413353
428.433949	8.477334
428.867676	8.546347
429.301389	8.613285
429.735090	8.678734
430.168777	8.735631
430.602451	8.791491
431.036111	8.837681
431.469759	8.874933
431.903392	8.913281
432.337013	8.954414
432.770620	8.997265
433.204213	9.055602
433.637794	9.122072
434.071360	9.202462
434.504914	9.276071
434.938453	9.366548
435.371979	9.460756
435.805492	9.552947
436.238991	9.634462
436.672477	9.719866
437.105949	9.803132
437.539407	9.865462
437.972852	9.918400
438.406283	9.981648
438.839700	10.059449
439.273104	10.131659
439.706494	10.205865
440.139871	10.289274
440.573233	10.374350
441.006582	10.456702
441.439917	10.535666
441.873238	10.600743
442.306546	10.659665
442.739839	10.711228
443.173119	10.759729
443.606385	10.809436
444.039636	10.858469
444.472874	10.908237
444.906099	10.969542
445.339309	11.036627
445.772505	11.110761
446.205687	11.191599
446.638855	11.274178
447.072009	11.354567
447.505149	11.443649
447.938275	11.531954
448.371387	11.612342
448.804485	11.683545
449.237569	11.741032
449.670638	11.796844
450.103694	11.839145
450.536735	11.877732
450.969762	11.928640
451.402774	11.977414
451.835773	12.031282
452.268757	12.083331
452.701727	12.146813
453.134683	12.204399
453.567624	12.261533
454.000551	12.318353
454.433464	12.366102
454.866362	12.406362
455.299246	12.442136
455.732116	12.472831
456.164971	12.493820
456.597811	12.518191
457.030638	12.540400
457.463449	12.559732
457.896246	12.581370
458.329029	12.599405
458.761797	12.624115
459.194551	12.645528
459.627290	12.663235
460.060014	12.681912
460.492724	12.699491
460.925419	12.708678
461.358099	12.713360
461.790765	12.717695
462.223416	12.722770
462.656052	12.717801
463.088674	12.712521
463.521281	12.703928
463.953873	12.691196
464.386450	12.671226
464.819012	12.662117
465.251560	12.646333
465.684093	12.631006
466.116611	12.616270
466.549114	12.607883
466.981602	12.597416
467.414075	12.582126
467.846533	12.571862
468.278977	12.560234
468.711405	12.543147
469.143818	12.525560
469.576216	12.510792
470.008600	12.490992
470.440968	12.462624
470.873321	12.434807
471.305659	12.406930
471.737982	12.380590
472.170289	12.349596
472.602582	12.317589
473.034859	12.291605
473.467122	12.272637
473.899369	12.263148
474.331600	12.255996
474.763817	12.265079
475.196018	12.275093
475.628204	12.293577
476.060375	12.327089
476.492530	12.363736
476.924670	12.404193
477.356795	12.455020
477.788904	12.506472
478.220998	12.554701
478.653076	12.608846
479.085139	12.668238
479.517186	12.730414
479.949219	12.801184
480.381235	12.880447
480.813236	12.976161
481.245221	13.084189
481.677191	13.207377
482.109146	13.339099
482.541084	13.476220
482.973008	13.617371
483.404915	13.759611
483.836807	13.908185
484.268683	14.054264
484.700544	14.197917
485.132388	14.337155
485.564217	14.478972
485.996031	14.619409
486.427828	14.760346
486.859610	14.902717
487.291376	15.040215
487.723126	15.184095
488.154860	15.341300
488.586579	15.510013
489.018281	15.690605
489.449968	15.882398
489.881639	16.095621
490.313293	16.318816
490.744932	16.550542
491.176555	16.785955
491.608162	17.019996
492.039753	17.250840
492.471328	17.464876
492.902886	17.668059
493.334429	17.853575
493.765956	18.029004
494.197466	18.198792
494.628960	18.359895
495.060439	18.524962
495.491901	18.695919
495.923347	18.887057
496.354776	19.086175
496.786190	19.302024
497.217587	19.521068
497.648968	19.749887
498.080332	19.972793
498.511681	20.192700
498.943013	20.400174
499.374328	20.600823
499.805628	20.785420
500.236911	20.950234
500.668177	21.095961
501.099427	21.231405
501.530661	21.347060
501.961878	21.448042
502.393079	21.534142
502.824264	21.614945
503.255431	21.684486
503.686583	21.752370
504.117717	21.821406
504.548835	21.904391
504.979937	22.004745
505.411022	22.117860
505.842090	22.242452
506.273142	22.381644
506.704177	22.532643
507.135195	22.687115
507.566197	22.832468
507.997182	22.973666
508.428150	23.091136
508.859102	23.191166
509.290036	23.264165
509.720954	23.321262
510.151855	23.357251
510.582739	23.385554
511.013607	23.410577
511.444457	23.443172
511.875291	23.490017
512.306107	23.555343
512.736907	23.637507
513.167690	23.743372
513.598456	23.872700
514.029205	24.025374
514.459936	24.183783
514.890651	24.341277
515.321349	24.497044
515.752030	24.645455
516.182693	24.784389
516.613340	24.908864
517.043969	25.022343
517.474582	25.111609
517.905177	25.185077
518.335755	25.238802
518.766315	25.278065
519.196859	25.315083
519.627385	25.339476
520.057894	25.364675
520.488386	25.394245
520.918860	25.429372
521.349318	25.484938
521.779757	25.557763
522.210180	25.657257
522.640585	25.775808
523.070973	25.922336
523.501343	26.087741
523.931696	26.269826
524.362031	26.458959
524.792349	26.653992
525.222650	26.837759
525.652933	27.014316
526.083198	27.173205
526.513446	27.308836
526.943677	27.428487
527.373890	27.531882
527.804085	27.628567
528.234262	27.721171
528.664422	27.820802
529.094565	27.938877
529.524689	28.071870
529.954796	28.224725
530.384885	28.400490
530.814957	28.605406
531.245011	28.836637
531.675047	29.087619
532.105065	29.353975
532.535065	29.625871
532.965048	29.903613
533.395013	30.166551
533.824959	30.416446
534.254888	30.656153
534.684799	30.858350
535.114693	31.044660
535.544568	31.204039
535.974425	31.341446
536.404264	31.446095
536.834086	31.528597
537.263889	31.599613
537.693674	31.652521
538.123441	31.699963
538.553190	31.743995
538.982921	31.795060
539.412634	31.855716
539.842329	31.936756
540.272006	32.023653
540.701664	32.126192
541.131304	32.246133
541.560926	32.380470
541.990530	32.531112
542.420116	32.679269
542.849683	32.831472
543.279232	32.986144
543.708763	33.125328
544.138275	33.254691
544.567769	33.359108
544.997245	33.444416
545.426702	33.510094
545.856141	33.556517
546.285562	33.592254
546.714964	33.619577
547.144347	33.647590
547.573713	33.675434
548.003059	33.720830
548.432387	33.782793
548.861697	33.861564
549.290988	33.963029
549.720260	34.092136
550.149514	34.247523
550.578750	34.415576
551.007966	34.607148
551.437164	34.813354
551.866344	35.030897
552.295504	35.240535
552.724646	35.449346
553.153769	35.642823
553.582874	35.823686
554.011960	35.977020
554.441027	36.100267
554.870075	36.193179
555.299104	36.248868
555.728115	36.275594
556.157106	36.277400
556.586079	36.249426
557.015033	36.212932
557.443968	36.157647
557.872884	36.101582
558.301781	36.047662
558.730659	36.006304
559.159518	35.974740
559.588358	35.961278
560.017180	35.972735
560.445982	35.994308
560.874765	36.037936
561.303528	36.097322
561.732273	36.168274
562.160999	36.252417
562.589705	36.342972
563.018393	36.440193
563.447061	36.538776
563.875710	36.640356
564.304340	36.741971
564.732950	36.832828
565.161542	36.923967
565.590114	37.008873
566.018666	37.087466
566.447200	37.158407
566.875714	37.221278
567.304208	37.292469
567.732684	37.361765
568.161140	37.435554
568.589576	37.516834
569.017993	37.610330
569.446391	37.710710
569.874769	37.826834
570.303128	37.956444
570.731467	38.104192
571.159787	38.265188
571.588087	38.439827
572.016368	38.625561
572.444629	38.823191
572.872870	39.018903
573.301092	39.207900
573.729294	39.388876
574.157476	39.553273
574.585639	39.688348
575.013782	39.797522
575.441906	39.871541
575.870009	39.911201
576.298093	39.911797
576.726157	39.880836
577.154202	39.813545
577.582226	39.727227
578.010231	39.619198
578.438216	39.493902
578.866181	39.359962
579.294126	39.231704
579.722051	39.105388
580.149957	38.994762
580.577842	38.888688
581.005707	38.794526
581.433553	38.717655
581.861378	38.654686
582.289184	38.599338
582.716969	38.550699
583.144734	38.509827
583.572479	38.473172
584.000205	38.445343
584.427910	38.417732
584.855594	38.393649
585.283259	38.366189
585.710904	38.344006
586.138528	38.316605
586.566132	38.294071
586.993716	38.276435
587.421280	38.257767
587.848823	38.252737
588.276346	38.242558
588.703849	38.239628
589.131332	38.234498
589.558794	38.234310
589.986236	38.230240
590.413657	38.235592
590.841058	38.237594
591.268438	38.243529
591.695799	38.256440
592.123138	38.281671
592.550458	38.310546
592.977756	38.354598
593.405034	38.410853
593.832292	38.481256
594.259529	38.567383
594.686746	38.660698
595.113942	38.762825
595.541117	38.873580
595.968272	38.987932
596.395406	39.102764
596.822519	39.209530
597.249612	39.302527
597.676684	39.385339
598.103735	39.442878
598.530766	39.477294
598.957775	39.487255
599.384764	39.475401
599.811733	39.442655
600.238680	39.388621
600.665606	39.319516
601.092512	39.233307
601.519397	39.146901
601.946261	39.054782
602.373104	38.965416
602.799926	38.877148
603.226727	38.798869
603.653507	38.726302
604.080266	38.658124
604.507004	38.599137
604.933721	38.541594
605.360417	38.484567
605.787092	38.424482
606.213746	38.357773
606.640379	38.282947
607.066991	38.196703
607.493581	38.104607
607.920150	38.009839
608.346699	37.910823
608.773226	37.805513
609.199731	37.702806
609.626216	37.599643
610.052679	37.501173
610.479121	37.409247
610.905542	37.324496
611.331941	37.255320
611.758319	37.193444
612.184676	37.137807
612.611011	37.099258
613.037325	37.062493
613.463617	37.031087
613.889888	37.004869
614.316138	36.980472
614.742366	36.957032
615.168573	36.933050
615.594758	36.910902
616.020921	36.893074
616.447063	36.875220
616.873184	36.860031
617.299283	36.848484
617.725360	36.847565
618.151416	36.859094
618.577450	36.875731
619.003462	36.907123
619.429453	36.952673
619.855422	37.008914
620.281369	37.075956
620.707295	37.151996
621.133199	37.227233
621.559081	37.299841
621.984941	37.373042
622.410779	37.436236
622.836596	37.487436
623.262391	37.529080
623.688163	37.551970
624.113914	37.558123
624.539644	37.545797
624.965351	37.519429
625.391036	37.477039
625.816699	37.415535
626.242340	37.347495
626.667960	37.271572
627.093557	37.190163
627.519132	37.110348
627.944685	37.026608
628.370216	36.944554
628.795725	36.862636
629.221212	36.773635
629.646677	36.681299
630.072119	36.586778
630.497540	36.488469
630.922938	36.379110
631.348314	36.254390
631.773668	36.121706
632.198999	35.976533
632.624308	35.821593
633.049595	35.654283
633.474860	35.479982
633.900102	35.293118
634.325322	35.105753
634.750520	34.922592
635.175695	34.741740
635.600848	34.570973
636.025978	34.414388
636.451086	34.269352
636.876171	34.143640
637.301234	34.031696
637.726275	33.941099
638.151293	33.867772
638.576288	33.809856
639.001261	33.775427
639.426211	33.752883
639.851139	33.742080
640.276044	33.737521
640.700927	33.740215
641.125787	33.745699
641.550624	33.756388
641.975438	33.765495
642.400230	33.777165
642.824999	33.788471
643.249745	33.800140
643.674469	33.811352
644.099169	33.824391
644.523847	33.841374
644.948502	33.866599
645.373135	33.893758
645.797744	33.926681
646.222330	33.967400
646.646894	34.018063
647.071435	34.075148
647.495953	34.141394
647.920447	34.205436
648.344919	34.275976
648.769368	34.348917
649.193794	34.420216
649.618197	34.487455
650.042576	34.552481
650.466933	34.615890
650.891267	34.669038
651.315577	34.716358
651.739864	34.760617
652.164129	34.791930
652.588370	34.814309
653.012587	34.830237
653.436782	34.844694
653.860953	34.849876
654.285102	34.849436
654.709226	34.845036
655.133328	34.837868
655.557406	34.827003
655.981461	34.816761
656.405493	34.799958
656.829501	34.783027
657.253486	34.756482
657.677448	34.727564
658.101386	34.687447
658.525301	34.641435
658.949192	34.588024
659.373060	34.523115
659.796904	34.448118
660.220725	34.366143
660.644522	34.270341
661.068296	34.172880
661.492046	34.069112
661.915772	33.958223
662.339475	33.847811
662.763154	33.745062
663.186810	33.643318
663.610442	33.549904
664.034050	33.471244
664.457635	33.408716
664.881196	33.360093
665.304733	33.333483
665.728247	33.330385
666.151736	33.349491
666.575202	33.389731
666.998644	33.455256
667.422062	33.547510
667.845457	33.649427
668.268827	33.772022
668.692174	33.911470
669.115496	34.060271
669.538795	34.216280
669.962070	34.373786
670.385321	34.536147
670.808547	34.695762
671.231750	34.856225
671.654929	35.011937
672.078084	35.157417
672.501214	35.297674
672.924321	35.428249
673.347404	35.553858
673.770462	35.677665
674.193496	35.793747
674.616506	35.905889
675.039492	36.015412
675.462454	36.121968
675.885391	36.221099
676.308305	36.321861
676.731194	36.423300
677.154058	36.523988
677.576899	36.624097
677.999715	36.730410
678.422507	36.836418
678.845274	36.939568
679.268017	37.040733
679.690736	37.139671
680.113430	37.231455
680.536100	37.318792
680.958746	37.407308
681.381367	37.490671
681.803963	37.563972
682.226535	37.633405
682.649083	37.704359
683.071605	37.770169
683.494104	37.835812
683.916578	37.897240
684.339027	37.954288
684.761451	38.006865
685.183851	38.056927
685.606227	38.107330
686.028577	38.154262
686.450903	38.192283
686.873204	38.221388
687.295481	38.247874
687.717733	38.263687
688.139959	38.265997
688.562162	38.255509
688.984339	38.234466
689.406492	38.200686
689.828619	38.152916
690.250722	38.086778
690.672800	38.011059
691.094853	37.917379
691.516881	37.806390
691.938884	37.685076
692.360863	37.556415
692.782816	37.424641
693.204744	37.288698
693.626647	37.152346
694.048526	37.020107
694.470379	36.895058
694.892207	36.781892
695.314010	36.682981
695.735788	36.601165
696.157540	36.538338
696.579268	36.495618
697.000970	36.476934
697.422648	36.481001
697.844300	36.507444
698.265926	36.561236
698.687528	36.635855
699.109104	36.733457
699.530655	36.851285
699.952181	36.989210
