Time1=100ms:Average1=5:Objective=10X:Aperture=1: (11/21/2018 2:26:03 PM)
11/21/2018 2:26:03 PM
Reflectance
10X
Ap#: 1
Avg1: 5.000000
Avg2: 0.000000
Int.Time1:100.000000
Int.Time2:0.000000
420.190645	6.419638
420.624620	6.330759
421.058582	6.241691
421.492531	6.160100
421.926468	6.095478
422.360391	6.036123
422.794301	5.986811
423.228199	5.949903
423.662083	5.926480
424.095955	5.894690
424.529813	5.880201
424.963658	5.862549
425.397491	5.836438
425.831310	5.787698
426.265116	5.744631
426.698909	5.701091
427.132689	5.665120
427.566455	5.642203
428.000209	5.634444
428.433949	5.614200
428.867676	5.597320
429.301389	5.580652
429.735090	5.551733
430.168777	5.520794
430.602451	5.484847
431.036111	5.438856
431.469759	5.397186
431.903392	5.357335
432.337013	5.310650
432.770620	5.259273
433.204213	5.223582
433.637794	5.198209
434.071360	5.170311
434.504914	5.154278
434.938453	5.145497
435.371979	5.132875
435.805492	5.122802
436.238991	5.107598
436.672477	5.091430
437.105949	5.070946
437.539407	5.039171
437.972852	4.999333
438.406283	4.970503
438.839700	4.946670
439.273104	4.930723
439.706494	4.917884
440.139871	4.908182
440.573233	4.903878
441.006582	4.890029
441.439917	4.869213
441.873238	4.851798
442.306546	4.830198
442.739839	4.798467
443.173119	4.764748
443.606385	4.733438
444.039636	4.705481
444.472874	4.681267
444.906099	4.660500
445.339309	4.649730
445.772505	4.640134
446.205687	4.644302
446.638855	4.636435
447.072009	4.633424
447.505149	4.638148
447.938275	4.641377
448.371387	4.643525
448.804485	4.637317
449.237569	4.628612
449.670638	4.623306
450.103694	4.610432
450.536735	4.599028
450.969762	4.590084
451.402774	4.587271
451.835773	4.580597
452.268757	4.583980
452.701727	4.592822
453.134683	4.597561
453.567624	4.603702
454.000551	4.609958
454.433464	4.614395
454.866362	4.614744
455.299246	4.617074
455.732116	4.618280
456.164971	4.625789
456.597811	4.633828
457.030638	4.638697
457.463449	4.653928
457.896246	4.667353
458.329029	4.678022
458.761797	4.690672
459.194551	4.709307
459.627290	4.723795
460.060014	4.745475
460.492724	4.764808
460.925419	4.786724
461.358099	4.812064
461.790765	4.830691
462.223416	4.854397
462.656052	4.875890
463.088674	4.893379
463.521281	4.913148
463.953873	4.938242
464.386450	4.962258
464.819012	4.986939
465.251560	5.018491
465.684093	5.044563
466.116611	5.073988
466.549114	5.113437
466.981602	5.149452
467.414075	5.185264
467.846533	5.222730
468.278977	5.257935
468.711405	5.293663
469.143818	5.329822
469.576216	5.362168
470.008600	5.390777
470.440968	5.414278
470.873321	5.436406
471.305659	5.458724
471.737982	5.482341
472.170289	5.508638
472.602582	5.528789
473.034859	5.552985
473.467122	5.578498
473.899369	5.608131
474.331600	5.640023
474.763817	5.673728
475.196018	5.715686
475.628204	5.759123
476.060375	5.803138
476.492530	5.848271
476.924670	5.886561
477.356795	5.921018
477.788904	5.959919
478.220998	5.989403
478.653076	6.016264
479.085139	6.040621
479.517186	6.058453
479.949219	6.072129
480.381235	6.095195
480.813236	6.119740
481.245221	6.148311
481.677191	6.178710
482.109146	6.209580
482.541084	6.241813
482.973008	6.267915
483.404915	6.298870
483.836807	6.324146
484.268683	6.342989
484.700544	6.354769
485.132388	6.364180
485.564217	6.366447
485.996031	6.366598
486.427828	6.360727
486.859610	6.351478
487.291376	6.339051
487.723126	6.326825
488.154860	6.317486
488.586579	6.308012
489.018281	6.304466
489.449968	6.309137
489.881639	6.323543
490.313293	6.345927
490.744932	6.370446
491.176555	6.396488
491.608162	6.422747
492.039753	6.449137
492.471328	6.466133
492.902886	6.483995
493.334429	6.497769
493.765956	6.504475
494.197466	6.512137
494.628960	6.519367
495.060439	6.533746
495.491901	6.556362
495.923347	6.585030
496.354776	6.626426
496.786190	6.675741
497.217587	6.739022
497.648968	6.806587
498.080332	6.881873
498.511681	6.959663
498.943013	7.041447
499.374328	7.123167
499.805628	7.205230
500.236911	7.283884
500.668177	7.358815
501.099427	7.427882
501.530661	7.493210
501.961878	7.557027
502.393079	7.619787
502.824264	7.682643
503.255431	7.746979
503.686583	7.814792
504.117717	7.895597
504.548835	7.983210
504.979937	8.085906
505.411022	8.197763
505.842090	8.327906
506.273142	8.465718
506.704177	8.613996
507.135195	8.767193
507.566197	8.920435
507.997182	9.071629
508.428150	9.216607
508.859102	9.352876
509.290036	9.476287
509.720954	9.591973
510.151855	9.705123
510.582739	9.808451
511.013607	9.917824
511.444457	10.030911
511.875291	10.151714
512.306107	10.278421
512.736907	10.420675
513.167690	10.575186
513.598456	10.740868
514.029205	10.919490
514.459936	11.104021
514.890651	11.291473
515.321349	11.470487
515.752030	11.644274
516.182693	11.803274
516.613340	11.945511
517.043969	12.073431
517.474582	12.181536
517.905177	12.275036
518.335755	12.353501
518.766315	12.414040
519.196859	12.466085
519.627385	12.510553
520.057894	12.549376
520.488386	12.589285
520.918860	12.634617
521.349318	12.690376
521.779757	12.755073
522.210180	12.829034
522.640585	12.918467
523.070973	13.017706
523.501343	13.122660
523.931696	13.240980
524.362031	13.356360
524.792349	13.468414
525.222650	13.574380
525.652933	13.671487
526.083198	13.751579
526.513446	13.814556
526.943677	13.862906
527.373890	13.895496
527.804085	13.923654
528.234262	13.938315
528.664422	13.958315
529.094565	13.981821
529.524689	14.018099
529.954796	14.066378
530.384885	14.128734
530.814957	14.204741
531.245011	14.296703
531.675047	14.399731
532.105065	14.518227
532.535065	14.638021
532.965048	14.760922
533.395013	14.878501
533.824959	14.986602
534.254888	15.082306
534.684799	15.159361
535.114693	15.223974
535.544568	15.276224
535.974425	15.311825
536.404264	15.332393
536.834086	15.335400
537.263889	15.323442
537.693674	15.305098
538.123441	15.288859
538.553190	15.268739
538.982921	15.255254
539.412634	15.253981
539.842329	15.266097
540.272006	15.294001
540.701664	15.340088
541.131304	15.399060
541.560926	15.482805
541.990530	15.580584
542.420116	15.693875
542.849683	15.811667
543.279232	15.931855
543.708763	16.050571
544.138275	16.163479
544.567769	16.264457
544.997245	16.347594
545.426702	16.413821
545.856141	16.467486
546.285562	16.506665
546.714964	16.535767
547.144347	16.561106
547.573713	16.587525
548.003059	16.622880
548.432387	16.666838
548.861697	16.724627
549.290988	16.800327
549.720260	16.900144
550.149514	17.019432
550.578750	17.162689
551.007966	17.328053
551.437164	17.503558
551.866344	17.692333
552.295504	17.884907
552.724646	18.070593
553.153769	18.249045
553.582874	18.408800
554.011960	18.541196
554.441027	18.652370
554.870075	18.731415
555.299104	18.780149
555.728115	18.799180
556.157106	18.797234
556.586079	18.779618
557.015033	18.748230
557.443968	18.710368
557.872884	18.679967
558.301781	18.660964
558.730659	18.647987
559.159518	18.658149
559.588358	18.690622
560.017180	18.744015
560.445982	18.814657
560.874765	18.905182
561.303528	19.012717
561.732273	19.126063
562.160999	19.244872
562.589705	19.364843
563.018393	19.479171
563.447061	19.588282
563.875710	19.683851
564.304340	19.766166
564.732950	19.832937
565.161542	19.886151
565.590114	19.928497
566.018666	19.963169
566.447200	19.991360
566.875714	20.019303
567.304208	20.050334
567.732684	20.083487
568.161140	20.129365
568.589576	20.190399
569.017993	20.264967
569.446391	20.359162
569.874769	20.467260
570.303128	20.599522
570.731467	20.753156
571.159787	20.914420
571.588087	21.089328
572.016368	21.279011
572.444629	21.466756
572.872870	21.652644
573.301092	21.833646
573.729294	21.997819
574.157476	22.141624
574.585639	22.260452
575.013782	22.355393
575.441906	22.424036
575.870009	22.462817
576.298093	22.482420
576.726157	22.476815
577.154202	22.456953
577.582226	22.422728
578.010231	22.388826
578.438216	22.356614
578.866181	22.331644
579.294126	22.313736
579.722051	22.311714
580.149957	22.327154
580.577842	22.362236
581.005707	22.413037
581.433553	22.476892
581.861378	22.549887
582.289184	22.632631
582.716969	22.713961
583.144734	22.800279
583.572479	22.885781
584.000205	22.962722
584.427910	23.037769
584.855594	23.114097
585.283259	23.180692
585.710904	23.247420
586.138528	23.313601
586.566132	23.377305
586.993716	23.450229
587.421280	23.524354
587.848823	23.607234
588.276346	23.697701
588.703849	23.797473
589.131332	23.905386
589.558794	24.017519
589.986236	24.138854
590.413657	24.268140
590.841058	24.400913
591.268438	24.539505
591.695799	24.679674
592.123138	24.827076
592.550458	24.985001
592.977756	25.146532
593.405034	25.310584
593.832292	25.481547
594.259529	25.655625
594.686746	25.832048
595.113942	26.008886
595.541117	26.182102
595.968272	26.355287
596.395406	26.518401
596.822519	26.664003
597.249612	26.799244
597.676684	26.915465
598.103735	27.004566
598.530766	27.077447
598.957775	27.120793
599.384764	27.144075
599.811733	27.154608
600.238680	27.144544
600.665606	27.129649
601.092512	27.107375
601.519397	27.084691
601.946261	27.062930
602.373104	27.046933
602.799926	27.040835
603.226727	27.045972
603.653507	27.059266
604.080266	27.085103
604.507004	27.117182
604.933721	27.159820
605.360417	27.199583
605.787092	27.235808
606.213746	27.269855
606.640379	27.297342
607.066991	27.322282
607.493581	27.343043
607.920150	27.365481
608.346699	27.384476
608.773226	27.410028
609.199731	27.434726
609.626216	27.467880
610.052679	27.515083
610.479121	27.572547
610.905542	27.641246
611.331941	27.723983
611.758319	27.821023
612.184676	27.939295
612.611011	28.064136
613.037325	28.196038
613.463617	28.337174
613.889888	28.475785
614.316138	28.617171
614.742366	28.758233
615.168573	28.895077
615.594758	29.026474
616.020921	29.153257
616.447063	29.276790
616.873184	29.397502
617.299283	29.516121
617.725360	29.634605
618.151416	29.754604
618.577450	29.876028
619.003462	30.008961
619.429453	30.146900
619.855422	30.293015
620.281369	30.443384
620.707295	30.588551
621.133199	30.722889
621.559081	30.857721
621.984941	30.974045
622.410779	31.080795
622.836596	31.166539
623.262391	31.225437
623.688163	31.259391
624.113914	31.272922
624.539644	31.261509
624.965351	31.229327
625.391036	31.173329
625.816699	31.100793
626.242340	31.013799
626.667960	30.921247
627.093557	30.824078
627.519132	30.723643
627.944685	30.620524
628.370216	30.517285
628.795725	30.425620
629.221212	30.325963
629.646677	30.232742
630.072119	30.141686
630.497540	30.049051
630.922938	29.955786
631.348314	29.856037
631.773668	29.756350
632.198999	29.650294
632.624308	29.537954
633.049595	29.427848
633.474860	29.313881
633.900102	29.207681
634.325322	29.113376
634.750520	29.023557
635.175695	28.953127
635.600848	28.904421
636.025978	28.878274
636.451086	28.881079
636.876171	28.907415
637.301234	28.954247
637.726275	29.027684
638.151293	29.127102
638.576288	29.240250
639.001261	29.369578
639.426211	29.511488
639.851139	29.657987
640.276044	29.809243
640.700927	29.957245
641.125787	30.099481
641.550624	30.232522
641.975438	30.357019
642.400230	30.471998
642.824999	30.573793
643.249745	30.659607
643.674469	30.739035
644.099169	30.806129
644.523847	30.870266
644.948502	30.931781
645.373135	30.985509
645.797744	31.040796
646.222330	31.093618
646.646894	31.144306
647.071435	31.201367
647.495953	31.255822
647.920447	31.315756
648.344919	31.371829
648.769368	31.419171
649.193794	31.466173
649.618197	31.499092
650.042576	31.527381
650.466933	31.556958
650.891267	31.575655
651.315577	31.580689
651.739864	31.582254
652.164129	31.574405
652.588370	31.555485
653.012587	31.530888
653.436782	31.501193
653.860953	31.468076
654.285102	31.432687
654.709226	31.398574
655.133328	31.353130
655.557406	31.313477
655.981461	31.273937
656.405493	31.235310
656.829501	31.191770
657.253486	31.150480
657.677448	31.102446
658.101386	31.051477
658.525301	31.000167
658.949192	30.944302
659.373060	30.885274
659.796904	30.822042
660.220725	30.754156
660.644522	30.679302
661.068296	30.603024
661.492046	30.523426
661.915772	30.453311
662.339475	30.386314
662.763154	30.331681
663.186810	30.292568
663.610442	30.261601
664.034050	30.251813
664.457635	30.264111
664.881196	30.304046
665.304733	30.369816
665.728247	30.462508
666.151736	30.579835
666.575202	30.720071
666.998644	30.881921
667.422062	31.062995
667.845457	31.255177
668.268827	31.462516
668.692174	31.671763
669.115496	31.880939
669.538795	32.085742
669.962070	32.283742
670.385321	32.468677
670.808547	32.636822
671.231750	32.783011
671.654929	32.906383
672.078084	33.011086
672.501214	33.084691
672.924321	33.143908
673.347404	33.175115
673.770462	33.193321
674.193496	33.192149
674.616506	33.182135
675.039492	33.157505
675.462454	33.125150
675.885391	33.082888
676.308305	33.030335
676.731194	32.979460
677.154058	32.927682
677.576899	32.879330
677.999715	32.830065
678.422507	32.782686
678.845274	32.741347
679.268017	32.706356
679.690736	32.676632
680.113430	32.650466
680.536100	32.634796
680.958746	32.630336
681.381367	32.631779
681.803963	32.641861
682.226535	32.656473
682.649083	32.682868
683.071605	32.722295
683.494104	32.764946
683.916578	32.818817
684.339027	32.883390
684.761451	32.959182
685.183851	33.036785
685.606227	33.123911
686.028577	33.204496
686.450903	33.291892
686.873204	33.371627
687.295481	33.445621
687.717733	33.509585
688.139959	33.559380
688.562162	33.597100
688.984339	33.622866
689.406492	33.632222
689.828619	33.619301
690.250722	33.584919
690.672800	33.524357
691.094853	33.444083
691.516881	33.347309
691.938884	33.234431
692.360863	33.102382
692.782816	32.960256
693.204744	32.815031
693.626647	32.661793
694.048526	32.514037
694.470379	32.371496
694.892207	32.245064
695.314010	32.137061
695.735788	32.050290
696.157540	31.983216
696.579268	31.948109
697.000970	31.944116
697.422648	31.973728
697.844300	32.029593
698.265926	32.119976
698.687528	32.245490
699.109104	32.396734
699.530655	32.575299
699.952181	32.785272
