Time1=100ms:Average1=5:Objective=10X:Aperture=1: (11/21/2018 2:22:57 PM)
11/21/2018 2:22:57 PM
Reflectance
10X
Ap#: 1
Avg1: 5.000000
Avg2: 0.000000
Int.Time1:100.000000
Int.Time2:0.000000
420.190645	6.747322
420.624620	6.646416
421.058582	6.559869
421.492531	6.478478
421.926468	6.393588
422.360391	6.334985
422.794301	6.291104
423.228199	6.262451
423.662083	6.239140
424.095955	6.217926
424.529813	6.199384
424.963658	6.182990
425.397491	6.150119
425.831310	6.118037
426.265116	6.071849
426.698909	6.037119
427.132689	6.007546
427.566455	5.991527
428.000209	5.990645
428.433949	5.979429
428.867676	5.971542
429.301389	5.959400
429.735090	5.950252
430.168777	5.930810
430.602451	5.909453
431.036111	5.876444
431.469759	5.842506
431.903392	5.815974
432.337013	5.776739
432.770620	5.746478
433.204213	5.727169
433.637794	5.722618
434.071360	5.715051
434.504914	5.713200
434.938453	5.722558
435.371979	5.734787
435.805492	5.750186
436.238991	5.755450
436.672477	5.754260
437.105949	5.753139
437.539407	5.740255
437.972852	5.733020
438.406283	5.725562
438.839700	5.731926
439.273104	5.735527
439.706494	5.744378
440.139871	5.759750
440.573233	5.776485
441.006582	5.791947
441.439917	5.793458
441.873238	5.798546
442.306546	5.798935
442.739839	5.786490
443.173119	5.771959
443.606385	5.755627
444.039636	5.745943
444.472874	5.740289
444.906099	5.743434
445.339309	5.752791
445.772505	5.768726
446.205687	5.791532
446.638855	5.815686
447.072009	5.842255
447.505149	5.876826
447.938275	5.908059
448.371387	5.932497
448.804485	5.947928
449.237569	5.955752
449.670638	5.976160
450.103694	5.984024
450.536735	5.996266
450.969762	6.008174
451.402774	6.017629
451.835773	6.029272
452.268757	6.049019
452.701727	6.072516
453.134683	6.103111
453.567624	6.130604
454.000551	6.154596
454.433464	6.173106
454.866362	6.190232
455.299246	6.206293
455.732116	6.217049
456.164971	6.232420
456.597811	6.251359
457.030638	6.266325
457.463449	6.288152
457.896246	6.307996
458.329029	6.325542
458.761797	6.347194
459.194551	6.374224
459.627290	6.396020
460.060014	6.417850
460.492724	6.440979
460.925419	6.462871
461.358099	6.487889
461.790765	6.510584
462.223416	6.533029
462.656052	6.554117
463.088674	6.567467
463.521281	6.579719
463.953873	6.591866
464.386450	6.601942
464.819012	6.617193
465.251560	6.634658
465.684093	6.646913
466.116611	6.665335
466.549114	6.684318
466.981602	6.703425
467.414075	6.722449
467.846533	6.740264
468.278977	6.751252
468.711405	6.766532
469.143818	6.782700
469.576216	6.793169
470.008600	6.796685
470.440968	6.800049
470.873321	6.798178
471.305659	6.790851
471.737982	6.786841
472.170289	6.779140
472.602582	6.771662
473.034859	6.765446
473.467122	6.757781
473.899369	6.753640
474.331600	6.754330
474.763817	6.756564
475.196018	6.766641
475.628204	6.782940
476.060375	6.798847
476.492530	6.815206
476.924670	6.833834
477.356795	6.852583
477.788904	6.872863
478.220998	6.884888
478.653076	6.893829
479.085139	6.903226
479.517186	6.911376
479.949219	6.919788
480.381235	6.938685
480.813236	6.961709
481.245221	6.994877
481.677191	7.039296
482.109146	7.081515
482.541084	7.131323
482.973008	7.179850
483.404915	7.231965
483.836807	7.282391
484.268683	7.333041
484.700544	7.381876
485.132388	7.429341
485.564217	7.474186
485.996031	7.515415
486.427828	7.554985
486.859610	7.597292
487.291376	7.644563
487.723126	7.696704
488.154860	7.753829
488.586579	7.814699
489.018281	7.892544
489.449968	7.980536
489.881639	8.081948
490.313293	8.195438
490.744932	8.312058
491.176555	8.437855
491.608162	8.567706
492.039753	8.700731
492.471328	8.824482
492.902886	8.940090
493.334429	9.050980
493.765956	9.150538
494.197466	9.252429
494.628960	9.349980
495.060439	9.455534
495.491901	9.575552
495.923347	9.698979
496.354776	9.840730
496.786190	9.992783
497.217587	10.156588
497.648968	10.323381
498.080332	10.500335
498.511681	10.673237
498.943013	10.847413
499.374328	11.014155
499.805628	11.173289
500.236911	11.319931
500.668177	11.453609
501.099427	11.573984
501.530661	11.681257
501.961878	11.781031
502.393079	11.867012
502.824264	11.949578
503.255431	12.029040
503.686583	12.101940
504.117717	12.187572
504.548835	12.278250
504.979937	12.381358
505.411022	12.492966
505.842090	12.623835
506.273142	12.770453
506.704177	12.921099
507.135195	13.078574
507.566197	13.230290
507.997182	13.376172
508.428150	13.504481
508.859102	13.616196
509.290036	13.710276
509.720954	13.786412
510.151855	13.854562
510.582739	13.908971
511.013607	13.965979
511.444457	14.024806
511.875291	14.095800
512.306107	14.174979
512.736907	14.275335
513.167690	14.391833
513.598456	14.526647
514.029205	14.671119
514.459936	14.821914
514.890651	14.981553
515.321349	15.131929
515.752030	15.273262
516.182693	15.400054
516.613340	15.506801
517.043969	15.604105
517.474582	15.679051
517.905177	15.736385
518.335755	15.774847
518.766315	15.797299
519.196859	15.809332
519.627385	15.810376
520.057894	15.809144
520.488386	15.809576
520.918860	15.820172
521.349318	15.842511
521.779757	15.885890
522.210180	15.945716
522.640585	16.030084
523.070973	16.136961
523.501343	16.256642
523.931696	16.396376
524.362031	16.540603
524.792349	16.685355
525.222650	16.822029
525.652933	16.951751
526.083198	17.060336
526.513446	17.150020
526.943677	17.218232
527.373890	17.272314
527.804085	17.322678
528.234262	17.360254
528.664422	17.405509
529.094565	17.461036
529.524689	17.534820
529.954796	17.633497
530.384885	17.749845
530.814957	17.890784
531.245011	18.049137
531.675047	18.230710
532.105065	18.423978
532.535065	18.622241
532.965048	18.820822
533.395013	19.014507
533.824959	19.190670
534.254888	19.347770
534.684799	19.480067
535.114693	19.590074
535.544568	19.680091
535.974425	19.745888
536.404264	19.787203
536.834086	19.808470
537.263889	19.814870
537.693674	19.810903
538.123441	19.810809
538.553190	19.813086
538.982921	19.825421
539.412634	19.854425
539.842329	19.900153
540.272006	19.969683
540.701664	20.059299
541.131304	20.163359
541.560926	20.289226
541.990530	20.429025
542.420116	20.576229
542.849683	20.723144
543.279232	20.866597
543.708763	21.003648
544.138275	21.126903
544.567769	21.238302
544.997245	21.328432
545.426702	21.405480
545.856141	21.468831
546.285562	21.523525
546.714964	21.574191
547.144347	21.629133
547.573713	21.688064
548.003059	21.765350
548.432387	21.853746
548.861697	21.961340
549.290988	22.085840
549.720260	22.230617
550.149514	22.391642
550.578750	22.569242
551.007966	22.763963
551.437164	22.961017
551.866344	23.163452
552.295504	23.362253
552.724646	23.551048
553.153769	23.730511
553.582874	23.889733
554.011960	24.027169
554.441027	24.142210
554.870075	24.234382
555.299104	24.302793
555.728115	24.348108
556.157106	24.375260
556.586079	24.383824
557.015033	24.382094
557.443968	24.374136
557.872884	24.364253
558.301781	24.358904
558.730659	24.347976
559.159518	24.353586
559.588358	24.372607
560.017180	24.400376
560.445982	24.439484
560.874765	24.495771
561.303528	24.560875
561.732273	24.640111
562.160999	24.724676
562.589705	24.817794
563.018393	24.919526
563.447061	25.030574
563.875710	25.146606
564.304340	25.264941
564.732950	25.383888
565.161542	25.503342
565.590114	25.623210
566.018666	25.735809
566.447200	25.844776
566.875714	25.953452
567.304208	26.057256
567.732684	26.153669
568.161140	26.246184
568.589576	26.337490
569.017993	26.432183
569.446391	26.528959
569.874769	26.636170
570.303128	26.757127
570.731467	26.888415
571.159787	27.034718
571.588087	27.192820
572.016368	27.384296
572.444629	27.584944
572.872870	27.792579
573.301092	28.015632
573.729294	28.236975
574.157476	28.451802
574.585639	28.657017
575.013782	28.842022
575.441906	29.006368
575.870009	29.147533
576.298093	29.261040
576.726157	29.340014
577.154202	29.385772
577.582226	29.405274
578.010231	29.405884
578.438216	29.391056
578.866181	29.360807
579.294126	29.329283
579.722051	29.294884
580.149957	29.262296
580.577842	29.244013
581.005707	29.232582
581.433553	29.238621
581.861378	29.252915
582.289184	29.281970
582.716969	29.320895
583.144734	29.371245
583.572479	29.431447
584.000205	29.501620
584.427910	29.578946
584.855594	29.669077
585.283259	29.754554
585.710904	29.847997
586.138528	29.949485
586.566132	30.046062
586.993716	30.151602
587.421280	30.256243
587.848823	30.361929
588.276346	30.464893
588.703849	30.563607
589.131332	30.648705
589.558794	30.726661
589.986236	30.798257
590.413657	30.865081
590.841058	30.920841
591.268438	30.970375
591.695799	31.016707
592.123138	31.072220
592.550458	31.134917
592.977756	31.210426
593.405034	31.298904
593.832292	31.397366
594.259529	31.516395
594.686746	31.650036
595.113942	31.801187
595.541117	31.958526
595.968272	32.133741
596.395406	32.303747
596.822519	32.469446
597.249612	32.624808
597.676684	32.764129
598.103735	32.877598
598.530766	32.970983
598.957775	33.031482
599.384764	33.064357
599.811733	33.074446
600.238680	33.056984
600.665606	33.023051
601.092512	32.973837
601.519397	32.917968
601.946261	32.857918
602.373104	32.803720
602.799926	32.760778
603.226727	32.727021
603.653507	32.706067
604.080266	32.700827
604.507004	32.710762
604.933721	32.732512
605.360417	32.757575
605.787092	32.786787
606.213746	32.818747
606.640379	32.847379
607.066991	32.874889
607.493581	32.905360
607.920150	32.934518
608.346699	32.963591
608.773226	33.001573
609.199731	33.031290
609.626216	33.072924
610.052679	33.118372
610.479121	33.173879
610.905542	33.236898
611.331941	33.310583
611.758319	33.387486
612.184676	33.476403
612.611011	33.569152
613.037325	33.658372
613.463617	33.751472
613.889888	33.833267
614.316138	33.911054
614.742366	33.982684
615.168573	34.045498
615.594758	34.097247
616.020921	34.140608
616.447063	34.182398
616.873184	34.220976
617.299283	34.259271
617.725360	34.302043
618.151416	34.349193
618.577450	34.394846
619.003462	34.457772
619.429453	34.528541
619.855422	34.613831
620.281369	34.711165
620.707295	34.808357
621.133199	34.902310
621.559081	34.994255
621.984941	35.080115
622.410779	35.161056
622.836596	35.228543
623.262391	35.279061
623.688163	35.310430
624.113914	35.327387
624.539644	35.325665
624.965351	35.315012
625.391036	35.292581
625.816699	35.261804
626.242340	35.228857
626.667960	35.195175
627.093557	35.172758
627.519132	35.156150
627.944685	35.145906
628.370216	35.148602
628.795725	35.172736
629.221212	35.193999
629.646677	35.224851
630.072119	35.264133
630.497540	35.298656
630.922938	35.330853
631.348314	35.356588
631.773668	35.382292
632.198999	35.393766
632.624308	35.390329
633.049595	35.376624
633.474860	35.351595
633.900102	35.323424
634.325322	35.292301
634.750520	35.261562
635.175695	35.230626
635.600848	35.210824
636.025978	35.201740
636.451086	35.213193
636.876171	35.239814
637.301234	35.281440
637.726275	35.343089
638.151293	35.423879
638.576288	35.512754
639.001261	35.611766
639.426211	35.722764
639.851139	35.838199
640.276044	35.954498
640.700927	36.065980
641.125787	36.174067
641.550624	36.270509
641.975438	36.353592
642.400230	36.429795
642.824999	36.490545
643.249745	36.530276
643.674469	36.570485
644.099169	36.598781
644.523847	36.628559
644.948502	36.653140
645.373135	36.678485
645.797744	36.710200
646.222330	36.750241
646.646894	36.793008
647.071435	36.845194
647.495953	36.902407
647.920447	36.967725
648.344919	37.037491
648.769368	37.105022
649.193794	37.176025
649.618197	37.230436
650.042576	37.284211
650.466933	37.334978
650.891267	37.375766
651.315577	37.403644
651.739864	37.421305
652.164129	37.429446
652.588370	37.421596
653.012587	37.401490
653.436782	37.374083
653.860953	37.340684
654.285102	37.298100
654.709226	37.254810
655.133328	37.204605
655.557406	37.150517
655.981461	37.094486
656.405493	37.040773
656.829501	36.979229
657.253486	36.917409
657.677448	36.839870
658.101386	36.761096
658.525301	36.668909
658.949192	36.567483
659.373060	36.448700
659.796904	36.315750
660.220725	36.167875
660.644522	36.002482
661.068296	35.823959
661.492046	35.627514
661.915772	35.429163
662.339475	35.222893
662.763154	35.021244
663.186810	34.823644
663.610442	34.631688
664.034050	34.451720
664.457635	34.291010
664.881196	34.158620
665.304733	34.054590
665.728247	33.979836
666.151736	33.938636
666.575202	33.925440
666.998644	33.945866
667.422062	33.995212
667.845457	34.069206
668.268827	34.167854
668.692174	34.288359
669.115496	34.430207
669.538795	34.583496
669.962070	34.750520
670.385321	34.919981
670.808547	35.093542
671.231750	35.261623
671.654929	35.427217
672.078084	35.587346
672.501214	35.733649
672.924321	35.882963
673.347404	36.024165
673.770462	36.165524
674.193496	36.297749
674.616506	36.433681
675.039492	36.565031
675.462454	36.695755
675.885391	36.829933
676.308305	36.960549
676.731194	37.099006
677.154058	37.242528
677.576899	37.393477
677.999715	37.545299
678.422507	37.693434
678.845274	37.847424
679.268017	38.003646
679.690736	38.163179
680.113430	38.316949
680.536100	38.475200
680.958746	38.628831
681.381367	38.781040
681.803963	38.925917
682.226535	39.061885
682.649083	39.192436
683.071605	39.318275
683.494104	39.436751
683.916578	39.551281
684.339027	39.665480
684.761451	39.772737
685.183851	39.872940
685.606227	39.975937
686.028577	40.059330
686.450903	40.137664
686.873204	40.201680
687.295481	40.256031
687.717733	40.292097
688.139959	40.308560
688.562162	40.311283
688.984339	40.292324
689.406492	40.254875
689.828619	40.190241
690.250722	40.102619
690.672800	39.985232
691.094853	39.847293
691.516881	39.695291
691.938884	39.522524
692.360863	39.331556
692.782816	39.131425
693.204744	38.928998
693.626647	38.721831
694.048526	38.526160
694.470379	38.339798
694.892207	38.172609
695.314010	38.029602
695.735788	37.919311
696.157540	37.831325
696.579268	37.781179
697.000970	37.766931
697.422648	37.791063
697.844300	37.850696
698.265926	37.949195
698.687528	38.086197
699.109104	38.256643
699.530655	38.454155
699.952181	38.684555
