Time1=100ms:Average1=5:Objective=10X:Aperture=1: (11/28/2018 9:42:06 AM)
11/28/2018 9:42:06 AM
Reflectance
10X
Ap#: 1
Avg1: 5.000000
Avg2: 0.000000
Int.Time1:100.000000
Int.Time2:0.000000
420.190645	11.147106
420.624620	11.155417
421.058582	11.162222
421.492531	11.182003
421.926468	11.216620
422.360391	11.270815
422.794301	11.340378
423.228199	11.429716
423.662083	11.532022
424.095955	11.657466
424.529813	11.776468
424.963658	11.888256
425.397491	12.001362
425.831310	12.099374
426.265116	12.181458
426.698909	12.261690
427.132689	12.348654
427.566455	12.431356
428.000209	12.527275
428.433949	12.646832
428.867676	12.772794
429.301389	12.896943
429.735090	13.009549
430.168777	13.086889
430.602451	13.154640
431.036111	13.203655
431.469759	13.242856
431.903392	13.282704
432.337013	13.320229
432.770620	13.364496
433.204213	13.433247
433.637794	13.511584
434.071360	13.601466
434.504914	13.720901
434.938453	13.850641
435.371979	13.988739
435.805492	14.131238
436.238991	14.264741
436.672477	14.389838
437.105949	14.493916
437.539407	14.577605
437.972852	14.657750
438.406283	14.728949
438.839700	14.798029
439.273104	14.880555
439.706494	14.978751
440.139871	15.093827
440.573233	15.201573
441.006582	15.307540
441.439917	15.396324
441.873238	15.455977
442.306546	15.503102
442.739839	15.532772
443.173119	15.554359
443.606385	15.578755
444.039636	15.601700
444.472874	15.629478
444.906099	15.673167
445.339309	15.724015
445.772505	15.789432
446.205687	15.858978
446.638855	15.937640
447.072009	16.023630
447.505149	16.118783
447.938275	16.199353
448.371387	16.277588
448.804485	16.341393
449.237569	16.384775
449.670638	16.416447
450.103694	16.433805
450.536735	16.439039
450.969762	16.443821
451.402774	16.458536
451.835773	16.478532
452.268757	16.506186
452.701727	16.535790
453.134683	16.566028
453.567624	16.580858
454.000551	16.595237
454.433464	16.598638
454.866362	16.593552
455.299246	16.583694
455.732116	16.564332
456.164971	16.542464
456.597811	16.524471
457.030638	16.502465
457.463449	16.488331
457.896246	16.467726
458.329029	16.444784
458.761797	16.421682
459.194551	16.393762
459.627290	16.376124
460.060014	16.354547
460.492724	16.337741
460.925419	16.318754
461.358099	16.300120
461.790765	16.282430
462.223416	16.253990
462.656052	16.225095
463.088674	16.191597
463.521281	16.160672
463.953873	16.135785
464.386450	16.115938
464.819012	16.096289
465.251560	16.086466
465.684093	16.078548
466.116611	16.076319
466.549114	16.090084
466.981602	16.113468
467.414075	16.148176
467.846533	16.184303
468.278977	16.223734
468.711405	16.271490
469.143818	16.320421
469.576216	16.372237
470.008600	16.414952
470.440968	16.462329
470.873321	16.506649
471.305659	16.553806
471.737982	16.606196
472.170289	16.665534
472.602582	16.737414
473.034859	16.811177
473.467122	16.890140
473.899369	16.980266
474.331600	17.083774
474.763817	17.203521
475.196018	17.342522
475.628204	17.508193
476.060375	17.687908
476.492530	17.885210
476.924670	18.086848
477.356795	18.285376
477.788904	18.472452
478.220998	18.648647
478.653076	18.816595
479.085139	18.986777
479.517186	19.159205
479.949219	19.328033
480.381235	19.514070
480.813236	19.701434
481.245221	19.905871
481.677191	20.121485
482.109146	20.340044
482.541084	20.558791
482.973008	20.775744
483.404915	20.983169
483.836807	21.174488
484.268683	21.348160
484.700544	21.511883
485.132388	21.651041
485.564217	21.769747
485.996031	21.866650
486.427828	21.950524
486.859610	22.032798
487.291376	22.104243
487.723126	22.161176
488.154860	22.224578
488.586579	22.280266
489.018281	22.336568
489.449968	22.415344
489.881639	22.505036
490.313293	22.614199
490.744932	22.739473
491.176555	22.880386
491.608162	23.023746
492.039753	23.162427
492.471328	23.281355
492.902886	23.373771
493.334429	23.432270
493.765956	23.463083
494.197466	23.477258
494.628960	23.478695
495.060439	23.483849
495.491901	23.494874
495.923347	23.527804
496.354776	23.579400
496.786190	23.660471
497.217587	23.758931
497.648968	23.874371
498.080332	23.996044
498.511681	24.120318
498.943013	24.246822
499.374328	24.362645
499.805628	24.457177
500.236911	24.531711
500.668177	24.588142
501.099427	24.632401
501.530661	24.652148
501.961878	24.660742
502.393079	24.658860
502.824264	24.637394
503.255431	24.615455
503.686583	24.589965
504.117717	24.571596
504.548835	24.571680
504.979937	24.600282
505.411022	24.651330
505.842090	24.739530
506.273142	24.861520
506.704177	25.025828
507.135195	25.204802
507.566197	25.395790
507.997182	25.589416
508.428150	25.766409
508.859102	25.930788
509.290036	26.063081
509.720954	26.175442
510.151855	26.263341
510.582739	26.346061
511.013607	26.427113
511.444457	26.513106
511.875291	26.626543
512.306107	26.766653
512.736907	26.940662
513.167690	27.153272
513.598456	27.391384
514.029205	27.648979
514.459936	27.919741
514.890651	28.190660
515.321349	28.454739
515.752030	28.706532
516.182693	28.941417
516.613340	29.140965
517.043969	29.313161
517.474582	29.454749
517.905177	29.558921
518.335755	29.624754
518.766315	29.670669
519.196859	29.684693
519.627385	29.678749
520.057894	29.651432
520.488386	29.625668
520.918860	29.595521
521.349318	29.576548
521.779757	29.581686
522.210180	29.606041
522.640585	29.667662
523.070973	29.753630
523.501343	29.872929
523.931696	30.015483
524.362031	30.173557
524.792349	30.338127
525.222650	30.477026
525.652933	30.601953
526.083198	30.691449
526.513446	30.745786
526.943677	30.766116
527.373890	30.759660
527.804085	30.732212
528.234262	30.686986
528.664422	30.640997
529.094565	30.601169
529.524689	30.573556
529.954796	30.573378
530.384885	30.593377
530.814957	30.636182
531.245011	30.707357
531.675047	30.804432
532.105065	30.906422
532.535065	31.013100
532.965048	31.111778
533.395013	31.200925
533.824959	31.267194
534.254888	31.318671
534.684799	31.333554
535.114693	31.321181
535.544568	31.283621
535.974425	31.203683
536.404264	31.100493
536.834086	30.961800
537.263889	30.803264
537.693674	30.623837
538.123441	30.439985
538.553190	30.261945
538.982921	30.084916
539.412634	29.927884
539.842329	29.796358
540.272006	29.694286
540.701664	29.619429
541.131304	29.581665
541.560926	29.587425
541.990530	29.615908
542.420116	29.666815
542.849683	29.735065
543.279232	29.816467
543.708763	29.900014
544.138275	29.979289
544.567769	30.039293
544.997245	30.084914
545.426702	30.109535
545.856141	30.118033
546.285562	30.111242
546.714964	30.086923
547.144347	30.057794
547.573713	30.023686
548.003059	29.998718
548.432387	29.975729
548.861697	29.957118
549.290988	29.962891
549.720260	29.980291
550.149514	30.023263
550.578750	30.078099
551.007966	30.145222
551.437164	30.213383
551.866344	30.287433
552.295504	30.352360
552.724646	30.412000
553.153769	30.451132
553.582874	30.469000
554.011960	30.458506
554.441027	30.411729
554.870075	30.319606
555.299104	30.192017
555.728115	30.028033
556.157106	29.839448
556.586079	29.613930
557.015033	29.376503
557.443968	29.132190
557.872884	28.886333
558.301781	28.643861
558.730659	28.422762
559.159518	28.222624
559.588358	28.047230
560.017180	27.902838
560.445982	27.785907
560.874765	27.699561
561.303528	27.643350
561.732273	27.610341
562.160999	27.601398
562.589705	27.605181
563.018393	27.626721
563.447061	27.655135
563.875710	27.688073
564.304340	27.725081
564.732950	27.759663
565.161542	27.795216
565.590114	27.828601
566.018666	27.845924
566.447200	27.854083
566.875714	27.853634
567.304208	27.847053
567.732684	27.831088
568.161140	27.810773
568.589576	27.787763
569.017993	27.765968
569.446391	27.739980
569.874769	27.721293
570.303128	27.699299
570.731467	27.687828
571.159787	27.685480
571.588087	27.687915
572.016368	27.693341
572.444629	27.699603
572.872870	27.710430
573.301092	27.713558
573.729294	27.707276
574.157476	27.684783
574.585639	27.638362
575.013782	27.570496
575.441906	27.475829
575.870009	27.354289
576.298093	27.197797
576.726157	27.020887
577.154202	26.821799
577.582226	26.602306
578.010231	26.375601
578.438216	26.141278
578.866181	25.909233
579.294126	25.689497
579.722051	25.484654
580.149957	25.298794
580.577842	25.129028
581.005707	24.979730
581.433553	24.846122
581.861378	24.741352
582.289184	24.650689
582.716969	24.579779
583.144734	24.522742
583.572479	24.489920
584.000205	24.463868
584.427910	24.455273
584.855594	24.457512
585.283259	24.471475
585.710904	24.496994
586.138528	24.533451
586.566132	24.577030
586.993716	24.631924
587.421280	24.691731
587.848823	24.755810
588.276346	24.822773
588.703849	24.890431
589.131332	24.959916
589.558794	25.028453
589.986236	25.086703
590.413657	25.142832
590.841058	25.193577
591.268438	25.235577
591.695799	25.273407
592.123138	25.309767
592.550458	25.347437
592.977756	25.383091
593.405034	25.417892
593.832292	25.458509
594.259529	25.497769
594.686746	25.547716
595.113942	25.592473
595.541117	25.638798
595.968272	25.680783
596.395406	25.721383
596.822519	25.744510
597.249612	25.750587
597.676684	25.727829
598.103735	25.685698
598.530766	25.613630
598.957775	25.518769
599.384764	25.395258
599.811733	25.253682
600.238680	25.088772
600.665606	24.910254
601.092512	24.722295
601.519397	24.526801
601.946261	24.337562
602.373104	24.150979
602.799926	23.974558
603.226727	23.806873
603.653507	23.650648
604.080266	23.511196
604.507004	23.385470
604.933721	23.272377
605.360417	23.170382
605.787092	23.069823
606.213746	22.978912
606.640379	22.893442
607.066991	22.814187
607.493581	22.744366
607.920150	22.679549
608.346699	22.620482
608.773226	22.573766
609.199731	22.535999
609.626216	22.508461
610.052679	22.494151
610.479121	22.497399
610.905542	22.519386
611.331941	22.554569
611.758319	22.609441
612.184676	22.675713
612.611011	22.751366
613.037325	22.833131
613.463617	22.920789
613.889888	23.005360
614.316138	23.090483
614.742366	23.171906
615.168573	23.243595
615.594758	23.306988
616.020921	23.365805
616.447063	23.418306
616.873184	23.462805
617.299283	23.502435
617.725360	23.537671
618.151416	23.572217
618.577450	23.603789
619.003462	23.637937
619.429453	23.670977
619.855422	23.702323
620.281369	23.731445
620.707295	23.758922
621.133199	23.777225
621.559081	23.787130
621.984941	23.781974
622.410779	23.761030
622.836596	23.718667
623.262391	23.660508
623.688163	23.583921
624.113914	23.489043
624.539644	23.373645
624.965351	23.240738
625.391036	23.093617
625.816699	22.940933
626.242340	22.781009
626.667960	22.619217
627.093557	22.462811
627.519132	22.308906
627.944685	22.166930
628.370216	22.035910
628.795725	21.917096
629.221212	21.804221
629.646677	21.708067
630.072119	21.618806
630.497540	21.538474
630.922938	21.468466
631.348314	21.401576
631.773668	21.339296
632.198999	21.284398
632.624308	21.235309
633.049595	21.197196
633.474860	21.166212
633.900102	21.142544
634.325322	21.133057
634.750520	21.139482
635.175695	21.162691
635.600848	21.203634
636.025978	21.266330
636.451086	21.345900
636.876171	21.446044
637.301234	21.565936
637.726275	21.707003
638.151293	21.863378
638.576288	22.036921
639.001261	22.214919
639.426211	22.400550
639.851139	22.587689
640.276044	22.774744
640.700927	22.958449
641.125787	23.133063
641.550624	23.297204
641.975438	23.446384
642.400230	23.582093
642.824999	23.699341
643.249745	23.803034
643.674469	23.891378
644.099169	23.968255
644.523847	24.032729
644.948502	24.089944
645.373135	24.140127
645.797744	24.183020
646.222330	24.215001
646.646894	24.244724
647.071435	24.267216
647.495953	24.281975
647.920447	24.292571
648.344919	24.292522
648.769368	24.286399
649.193794	24.272317
649.618197	24.249613
650.042576	24.217015
650.466933	24.176071
650.891267	24.123362
651.315577	24.065338
651.739864	23.998398
652.164129	23.930120
652.588370	23.859163
653.012587	23.787345
653.436782	23.712193
653.860953	23.640496
654.285102	23.575213
654.709226	23.513510
655.133328	23.462685
655.557406	23.420549
655.981461	23.389712
656.405493	23.368330
656.829501	23.352996
657.253486	23.340588
657.677448	23.329755
658.101386	23.319365
658.525301	23.300614
658.949192	23.282733
659.373060	23.256832
659.796904	23.221698
660.220725	23.182039
660.644522	23.140515
661.068296	23.085655
661.492046	23.027762
661.915772	22.966580
662.339475	22.900459
662.763154	22.834227
663.186810	22.770739
663.610442	22.711682
664.034050	22.662446
664.457635	22.626824
664.881196	22.601873
665.304733	22.591932
665.728247	22.599323
666.151736	22.623163
666.575202	22.670912
666.998644	22.736125
667.422062	22.811392
667.845457	22.901314
668.268827	22.999098
668.692174	23.104984
669.115496	23.213855
669.538795	23.323420
669.962070	23.431931
670.385321	23.533557
670.808547	23.632289
671.231750	23.721857
671.654929	23.806744
672.078084	23.875340
672.501214	23.936387
672.924321	23.987322
673.347404	24.026079
673.770462	24.049688
674.193496	24.073298
674.616506	24.089543
675.039492	24.098567
675.462454	24.108265
675.885391	24.116484
676.308305	24.128446
676.731194	24.140977
677.154058	24.152686
677.576899	24.163436
677.999715	24.176970
678.422507	24.190664
678.845274	24.203508
679.268017	24.214692
679.690736	24.222052
680.113430	24.229928
680.536100	24.236469
680.958746	24.240892
681.381367	24.242326
681.803963	24.242245
682.226535	24.242994
682.649083	24.242495
683.071605	24.245061
683.494104	24.252138
683.916578	24.261661
684.339027	24.276433
684.761451	24.294185
685.183851	24.317139
685.606227	24.346434
686.028577	24.376196
686.450903	24.411525
686.873204	24.448562
687.295481	24.480047
687.717733	24.509632
688.139959	24.535007
688.562162	24.552978
688.984339	24.563487
689.406492	24.559953
689.828619	24.545778
690.250722	24.517738
690.672800	24.475448
691.094853	24.420288
691.516881	24.349338
691.938884	24.267171
692.360863	24.172858
692.782816	24.069442
693.204744	23.959027
693.626647	23.846369
694.048526	23.731682
694.470379	23.624463
694.892207	23.521306
695.314010	23.422833
695.735788	23.335001
696.157540	23.259419
696.579268	23.197985
697.000970	23.149416
697.422648	23.117282
697.844300	23.102633
698.265926	23.107564
698.687528	23.126843
699.109104	23.163292
699.530655	23.210136
699.952181	23.272528
