PE UV       SUBTECH     SPECTRUM    ASCII       PEDS        4.00        
   -1
CICIMAUCR0261-3.Sample.ASC
24/07/01
14:00:31.00
24/07/01
14:00:31.00
Vinicio Soto Monge
C. resplendens. Sex M. Dorsal.
250,000000
1
Lambda 1050
1050L1511233
PerkinElmer UV WinLab 6.3.2.0749 / 2.02.05 Lambda 900 UV/VIS/NIR, Aug  7 2015 09:38:08

0
0
3350/servo 860,8/2
0
0
UV/VIS
1
1
1
DoubleDePol,CommonBeamDepol,RBeamAtt,SBeamAtt,60mm sphere, WB InGaAs Detector
0
0
0
0
Program
Program
3350/servo 860,8/2
3350/0,2 860,8/0,2
3350/0,2 860,8/0,2
0
15.00
 
 
 
0
 
860,8
319,2
860,8
Front
100
on
S:100 R:100
0
0
0
0
 
0
 
 
 
0
 
 
0
0
0
0
0
 
 
 
 
0
0


0
0
#HDR
-1
-1
#GR
nm
%R
1.0
0.0
2500,000000
-1,000000
2251
8
92,022100
5,605900
#DATA
250.000000	0.213381
251.000000	0.207251
252.000000	0.204803
253.000000	0.231181
254.000000	0.229757
255.000000	0.227434
256.000000	0.220778
257.000000	0.227732
258.000000	0.216510
259.000000	0.191272
260.000000	0.218079
261.000000	0.233352
262.000000	0.236528
263.000000	0.222187
264.000000	0.208971
265.000000	0.208641
266.000000	0.191538
267.000000	0.198174
268.000000	0.187936
269.000000	0.193314
270.000000	0.182397
271.000000	0.202387
272.000000	0.210049
273.000000	0.203897
274.000000	0.203052
275.000000	0.187133
276.000000	0.197988
277.000000	0.220009
278.000000	0.209424
279.000000	0.196204
280.000000	0.206297
281.000000	0.198673
282.000000	0.210389
283.000000	0.209991
284.000000	0.206150
285.000000	0.207259
286.000000	0.213011
287.000000	0.197729
288.000000	0.192712
289.000000	0.182900
290.000000	0.180724
291.000000	0.179741
292.000000	0.171670
293.000000	0.186408
294.000000	0.204601
295.000000	0.186113
296.000000	0.184823
297.000000	0.189553
298.000000	0.160433
299.000000	0.161695
300.000000	0.175871
301.000000	0.168157
302.000000	0.161924
303.000000	0.181662
304.000000	0.186467
305.000000	0.174428
306.000000	0.182690
307.000000	0.167022
308.000000	0.158362
309.000000	0.155268
310.000000	0.144782
311.000000	0.165368
312.000000	0.178745
313.000000	0.158270
314.000000	0.162542
315.000000	0.181653
316.000000	0.355690
317.000000	0.560326
318.000000	0.344302
319.000000	0.275059
320.000000	0.231002
321.000000	0.245998
322.000000	0.306429
323.000000	0.313083
324.000000	0.311994
325.000000	0.174966
326.000000	0.114980
327.000000	0.163518
328.000000	0.430572
329.000000	0.319379
330.000000	0.096888
331.000000	0.064467
332.000000	0.185088
333.000000	0.124363
334.000000	0.386458
335.000000	0.391486
336.000000	0.199215
337.000000	0.098820
338.000000	0.141501
339.000000	0.219266
340.000000	0.182820
341.000000	0.170196
342.000000	0.175864
343.000000	0.127014
344.000000	0.253702
345.000000	0.189681
346.000000	0.184211
347.000000	0.224270
348.000000	0.176721
349.000000	0.200080
350.000000	0.211945
351.000000	0.135834
352.000000	0.237243
353.000000	0.241416
354.000000	0.202177
355.000000	0.202997
356.000000	0.204935
357.000000	0.248290
358.000000	0.253562
359.000000	0.234107
360.000000	0.206578
361.000000	0.181434
362.000000	0.249598
363.000000	0.228379
364.000000	0.134038
365.000000	0.201437
366.000000	0.172319
367.000000	0.237528
368.000000	0.199357
369.000000	0.252007
370.000000	0.286620
371.000000	0.309918
372.000000	0.306358
373.000000	0.341000
374.000000	0.354346
375.000000	0.316192
376.000000	0.247044
377.000000	0.206020
378.000000	0.198813
379.000000	0.213010
380.000000	0.203266
381.000000	0.202467
382.000000	0.229575
383.000000	0.214812
384.000000	0.194388
385.000000	0.179476
386.000000	0.169049
387.000000	0.166958
388.000000	0.156335
389.000000	0.144789
390.000000	0.138400
391.000000	0.132795
392.000000	0.113060
393.000000	0.094603
394.000000	0.086963
395.000000	0.064218
396.000000	0.058343
397.000000	0.048762
398.000000	0.021211
399.000000	0.026023
400.000000	0.026905
401.000000	0.065388
402.000000	0.090608
403.000000	0.100208
404.000000	0.132705
405.000000	0.159047
406.000000	0.191873
407.000000	0.225385
408.000000	0.250773
409.000000	0.282117
410.000000	0.305501
411.000000	0.332917
412.000000	0.340642
413.000000	0.361061
414.000000	0.391953
415.000000	0.395456
416.000000	0.408092
417.000000	0.423575
418.000000	0.400033
419.000000	0.397837
420.000000	0.390350
421.000000	0.363860
422.000000	0.330378
423.000000	0.306859
424.000000	0.259642
425.000000	0.228490
426.000000	0.171500
427.000000	0.110372
428.000000	0.075100
429.000000	0.041731
430.000000	0.047184
431.000000	0.087780
432.000000	0.161105
433.000000	0.211153
434.000000	0.250396
435.000000	0.317598
436.000000	0.384422
437.000000	0.438436
438.000000	0.491176
439.000000	0.539243
440.000000	0.601522
441.000000	0.653472
442.000000	0.672984
443.000000	0.730415
444.000000	0.769888
445.000000	0.802045
446.000000	0.817892
447.000000	0.843261
448.000000	0.884003
449.000000	0.898753
450.000000	0.943811
451.000000	0.974066
452.000000	0.973974
453.000000	0.988879
454.000000	1.002835
455.000000	1.031910
456.000000	1.056794
457.000000	1.041504
458.000000	1.068260
459.000000	1.095682
460.000000	1.104049
461.000000	1.123402
462.000000	1.130383
463.000000	1.155143
464.000000	1.169672
465.000000	1.191216
466.000000	1.208005
467.000000	1.208119
468.000000	1.225864
469.000000	1.257045
470.000000	1.279263
471.000000	1.290420
472.000000	1.321488
473.000000	1.324612
474.000000	1.351129
475.000000	1.379742
476.000000	1.371936
477.000000	1.375385
478.000000	1.368479
479.000000	1.342848
480.000000	1.314555
481.000000	1.271911
482.000000	1.243187
483.000000	1.135857
484.000000	1.066152
485.000000	0.937761
486.000000	0.799290
487.000000	0.673653
488.000000	0.534349
489.000000	0.393751
490.000000	0.251020
491.000000	0.101492
492.000000	0.114861
493.000000	0.251938
494.000000	0.378055
495.000000	0.507572
496.000000	0.630095
497.000000	0.722962
498.000000	0.832425
499.000000	0.896842
500.000000	0.975982
501.000000	1.022012
502.000000	1.011007
503.000000	1.031170
504.000000	1.038636
505.000000	1.050171
506.000000	1.027942
507.000000	1.033751
508.000000	1.013688
509.000000	0.987917
510.000000	0.973053
511.000000	0.971311
512.000000	0.971709
513.000000	0.974086
514.000000	0.980261
515.000000	0.975309
516.000000	0.945345
517.000000	0.974717
518.000000	0.960684
519.000000	0.982430
520.000000	0.984456
521.000000	0.977248
522.000000	0.967010
523.000000	0.962170
524.000000	0.953716
525.000000	0.975296
526.000000	0.984394
527.000000	0.964967
528.000000	0.947236
529.000000	0.920802
530.000000	0.931889
531.000000	0.910409
532.000000	0.852087
533.000000	0.814718
534.000000	0.758419
535.000000	0.674255
536.000000	0.576808
537.000000	0.464510
538.000000	0.348225
539.000000	0.232296
540.000000	0.130374
541.000000	0.073685
542.000000	0.181398
543.000000	0.286189
544.000000	0.385317
545.000000	0.503497
546.000000	0.600814
547.000000	0.701049
548.000000	0.795538
549.000000	0.874425
550.000000	0.975076
551.000000	1.031214
552.000000	1.105682
553.000000	1.175466
554.000000	1.258028
555.000000	1.298837
556.000000	1.350118
557.000000	1.434192
558.000000	1.496594
559.000000	1.561501
560.000000	1.588585
561.000000	1.646398
562.000000	1.684884
563.000000	1.740855
564.000000	1.780600
565.000000	1.787551
566.000000	1.810522
567.000000	1.836962
568.000000	1.862515
569.000000	1.886827
570.000000	1.921201
571.000000	1.949016
572.000000	1.968078
573.000000	2.020863
574.000000	2.049504
575.000000	2.110086
576.000000	2.132366
577.000000	2.155068
578.000000	2.229777
579.000000	2.250437
580.000000	2.287720
581.000000	2.329236
582.000000	2.347484
583.000000	2.341346
584.000000	2.386928
585.000000	2.439320
586.000000	2.500176
587.000000	2.542544
588.000000	2.591523
589.000000	2.625733
590.000000	2.645344
591.000000	2.698532
592.000000	2.759190
593.000000	2.823188
594.000000	2.863908
595.000000	2.941349
596.000000	3.017758
597.000000	3.074422
598.000000	3.118889
599.000000	3.194083
600.000000	3.269013
601.000000	3.327402
602.000000	3.399038
603.000000	3.492278
604.000000	3.585791
605.000000	3.665956
606.000000	3.747113
607.000000	3.839725
608.000000	3.935057
609.000000	4.017034
610.000000	4.096497
611.000000	4.185394
612.000000	4.252820
613.000000	4.332505
614.000000	4.444655
615.000000	4.524561
616.000000	4.580100
617.000000	4.677296
618.000000	4.784730
619.000000	4.863495
620.000000	4.934475
621.000000	5.023547
622.000000	5.102079
623.000000	5.147678
624.000000	5.184664
625.000000	5.186943
626.000000	5.179978
627.000000	5.186227
628.000000	5.174038
629.000000	5.121289
630.000000	5.011453
631.000000	4.907312
632.000000	4.792422
633.000000	4.678416
634.000000	4.561307
635.000000	4.407016
636.000000	4.239344
637.000000	4.082290
638.000000	3.901203
639.000000	3.668723
640.000000	3.464528
641.000000	3.227480
642.000000	2.933175
643.000000	2.644171
644.000000	2.327035
645.000000	1.992674
646.000000	1.639637
647.000000	1.276019
648.000000	0.907896
649.000000	0.527534
650.000000	0.175076
651.000000	0.158142
652.000000	0.487243
653.000000	0.815430
654.000000	1.097687
655.000000	1.345919
656.000000	1.570034
657.000000	1.766331
658.000000	1.963628
659.000000	2.131976
660.000000	2.288143
661.000000	2.419806
662.000000	2.528566
663.000000	2.626838
664.000000	2.675008
665.000000	2.704312
666.000000	2.752031
667.000000	2.729619
668.000000	2.711143
669.000000	2.670406
670.000000	2.597041
671.000000	2.487678
672.000000	2.369727
673.000000	2.249944
674.000000	2.142062
675.000000	2.009541
676.000000	1.862543
677.000000	1.726803
678.000000	1.583872
679.000000	1.413648
680.000000	1.239987
681.000000	1.078452
682.000000	0.884185
683.000000	0.728766
684.000000	0.579498
685.000000	0.396698
686.000000	0.250735
687.000000	0.148435
688.000000	0.248423
689.000000	0.412069
690.000000	0.575926
691.000000	0.727545
692.000000	0.896877
693.000000	1.037098
694.000000	1.137271
695.000000	1.241410
696.000000	1.320016
697.000000	1.362409
698.000000	1.368579
699.000000	1.359841
700.000000	1.355460
701.000000	1.363230
702.000000	1.329368
703.000000	1.277821
704.000000	1.224086
705.000000	1.171431
706.000000	1.150982
707.000000	1.058364
708.000000	0.991561
709.000000	0.955251
710.000000	0.831644
711.000000	0.777254
712.000000	0.718943
713.000000	0.652223
714.000000	0.578287
715.000000	0.485676
716.000000	0.346064
717.000000	0.258003
718.000000	0.173526
719.000000	0.059458
720.000000	0.084303
721.000000	0.180412
722.000000	0.253452
723.000000	0.323481
724.000000	0.407654
725.000000	0.511541
726.000000	0.515963
727.000000	0.555857
728.000000	0.598406
729.000000	0.574457
730.000000	0.651459
731.000000	0.577095
732.000000	0.615687
733.000000	0.650156
734.000000	0.548107
735.000000	0.430118
736.000000	0.362985
737.000000	0.289569
738.000000	0.171501
739.000000	0.150172
740.000000	0.125538
741.000000	0.207673
742.000000	0.325452
743.000000	0.587357
744.000000	0.631214
745.000000	0.766841
746.000000	0.915355
747.000000	1.069614
748.000000	1.254057
749.000000	1.318395
750.000000	1.413049
751.000000	1.510307
752.000000	1.603470
753.000000	1.541696
754.000000	1.599626
755.000000	1.603879
756.000000	1.689334
757.000000	1.705596
758.000000	1.621360
759.000000	1.680422
760.000000	1.703366
761.000000	1.712137
762.000000	1.621810
763.000000	1.652152
764.000000	1.635108
765.000000	1.587701
766.000000	1.583589
767.000000	1.627785
768.000000	1.673265
769.000000	1.638752
770.000000	1.839509
771.000000	1.855333
772.000000	1.867292
773.000000	2.137637
774.000000	2.156750
775.000000	2.458021
776.000000	2.465713
777.000000	2.597991
778.000000	2.796415
779.000000	2.889156
780.000000	3.055242
781.000000	3.305811
782.000000	3.484336
783.000000	3.599534
784.000000	3.801887
785.000000	3.936351
786.000000	4.028772
787.000000	3.998035
788.000000	4.165549
789.000000	4.183845
790.000000	4.403774
791.000000	4.312481
792.000000	4.447703
793.000000	4.439614
794.000000	4.438777
795.000000	4.422596
796.000000	4.214512
797.000000	4.235178
798.000000	4.110045
799.000000	4.031322
800.000000	3.989881
801.000000	3.832269
802.000000	3.645178
803.000000	3.582947
804.000000	3.355412
805.000000	3.452630
806.000000	3.199226
807.000000	3.111028
808.000000	3.038136
809.000000	3.076087
810.000000	3.047456
811.000000	2.878876
812.000000	3.055149
813.000000	3.018010
814.000000	3.060520
815.000000	3.106126
816.000000	3.211916
817.000000	3.404260
818.000000	3.483924
819.000000	3.586143
820.000000	3.681265
821.000000	4.005422
822.000000	4.062373
823.000000	4.110996
824.000000	4.302868
825.000000	4.428699
826.000000	4.605086
827.000000	4.871724
828.000000	5.044498
829.000000	5.015024
830.000000	5.396471
831.000000	5.343865
832.000000	5.394084
833.000000	5.519063
834.000000	5.427787
835.000000	5.443091
836.000000	5.533534
837.000000	5.820892
838.000000	5.748650
839.000000	5.536653
840.000000	5.589610
841.000000	5.436599
842.000000	5.436588
843.000000	5.511768
844.000000	5.266961
845.000000	5.080989
846.000000	5.200721
847.000000	4.994143
848.000000	4.812078
849.000000	4.845355
850.000000	4.543145
851.000000	4.676867
852.000000	4.620732
853.000000	4.457752
854.000000	4.560101
855.000000	4.296727
856.000000	3.826026
857.000000	3.957875
858.000000	4.021350
859.000000	3.971396
860.000000	3.938688
861.000000	3.905104
862.000000	3.881782
863.000000	3.850446
864.000000	3.808761
865.000000	3.780179
866.000000	3.753043
867.000000	3.720325
868.000000	3.697129
869.000000	3.673501
870.000000	3.658297
871.000000	3.679202
872.000000	3.694678
873.000000	3.679641
874.000000	3.644432
875.000000	3.629489
876.000000	3.598482
877.000000	3.570886
878.000000	3.533172
879.000000	3.481505
880.000000	3.448226
881.000000	3.409592
882.000000	3.376737
883.000000	3.342457
884.000000	3.290178
885.000000	3.247672
886.000000	3.210804
887.000000	3.180713
888.000000	3.134373
889.000000	3.103329
890.000000	3.078661
891.000000	3.033285
892.000000	3.010590
893.000000	2.981396
894.000000	2.933449
895.000000	2.901171
896.000000	2.878130
897.000000	2.850238
898.000000	2.824454
899.000000	2.803849
900.000000	2.775189
901.000000	2.752042
902.000000	2.738848
903.000000	2.720354
904.000000	2.704462
905.000000	2.696934
906.000000	2.679558
907.000000	2.670017
908.000000	2.645917
909.000000	2.623715
910.000000	2.601273
911.000000	2.574649
912.000000	2.562909
913.000000	2.557044
914.000000	2.531263
915.000000	2.501019
916.000000	2.479742
917.000000	2.442219
918.000000	2.415397
919.000000	2.397054
920.000000	2.353482
921.000000	2.314229
922.000000	2.280046
923.000000	2.249405
924.000000	2.222283
925.000000	2.187408
926.000000	2.148654
927.000000	2.117187
928.000000	2.080584
929.000000	2.048906
930.000000	2.013969
931.000000	1.987666
932.000000	1.949888
933.000000	1.905839
934.000000	1.868223
935.000000	1.836797
936.000000	1.806114
937.000000	1.780738
938.000000	1.752928
939.000000	1.720863
940.000000	1.697038
941.000000	1.664234
942.000000	1.637566
943.000000	1.622221
944.000000	1.595019
945.000000	1.572057
946.000000	1.554233
947.000000	1.526336
948.000000	1.504360
949.000000	1.478391
950.000000	1.448567
951.000000	1.425921
952.000000	1.407523
953.000000	1.378738
954.000000	1.358024
955.000000	1.332185
956.000000	1.301685
957.000000	1.280086
958.000000	1.238055
959.000000	1.196768
960.000000	1.154337
961.000000	1.123948
962.000000	1.095100
963.000000	1.052448
964.000000	1.006070
965.000000	0.964892
966.000000	0.934046
967.000000	0.902281
968.000000	0.868757
969.000000	0.846905
970.000000	0.820326
971.000000	0.783224
972.000000	0.765794
973.000000	0.748324
974.000000	0.730925
975.000000	0.722043
976.000000	0.702091
977.000000	0.686757
978.000000	0.686189
979.000000	0.676084
980.000000	0.674096
981.000000	0.674888
982.000000	0.681855
983.000000	0.684053
984.000000	0.685356
985.000000	0.683877
986.000000	0.695724
987.000000	0.698340
988.000000	0.702561
989.000000	0.715644
990.000000	0.723826
991.000000	0.727701
992.000000	0.732277
993.000000	0.745117
994.000000	0.746224
995.000000	0.745486
996.000000	0.742309
997.000000	0.749168
998.000000	0.767643
999.000000	0.762249
1000.000000	0.760420
1001.000000	0.751864
1002.000000	0.746188
1003.000000	0.749487
1004.000000	0.744282
1005.000000	0.733019
1006.000000	0.721557
1007.000000	0.721314
1008.000000	0.710883
1009.000000	0.713423
1010.000000	0.708065
1011.000000	0.692340
1012.000000	0.696920
1013.000000	0.691410
1014.000000	0.683947
1015.000000	0.686570
1016.000000	0.689266
1017.000000	0.692613
1018.000000	0.681475
1019.000000	0.695722
1020.000000	0.703866
1021.000000	0.703203
1022.000000	0.709240
1023.000000	0.724274
1024.000000	0.725652
1025.000000	0.731986
1026.000000	0.731392
1027.000000	0.740836
1028.000000	0.738584
1029.000000	0.747073
1030.000000	0.749763
1031.000000	0.753978
1032.000000	0.758271
1033.000000	0.757267
1034.000000	0.763192
1035.000000	0.756601
1036.000000	0.752563
1037.000000	0.765157
1038.000000	0.771255
1039.000000	0.774797
1040.000000	0.782035
1041.000000	0.776447
1042.000000	0.780324
1043.000000	0.783756
1044.000000	0.791722
1045.000000	0.767085
1046.000000	0.771305
1047.000000	0.772538
1048.000000	0.800627
1049.000000	0.782053
1050.000000	0.787712
1051.000000	0.789008
1052.000000	0.785301
1053.000000	0.793728
1054.000000	0.788236
1055.000000	0.795752
1056.000000	0.810818
1057.000000	0.796475
1058.000000	0.794204
1059.000000	0.792936
1060.000000	0.814029
1061.000000	0.819140
1062.000000	0.811899
1063.000000	0.813084
1064.000000	0.819426
1065.000000	0.816470
1066.000000	0.817730
1067.000000	0.824989
1068.000000	0.816937
1069.000000	0.824175
1070.000000	0.843286
1071.000000	0.836761
1072.000000	0.828500
1073.000000	0.848846
1074.000000	0.858662
1075.000000	0.846208
1076.000000	0.843101
1077.000000	0.850461
1078.000000	0.861001
1079.000000	0.843390
1080.000000	0.862888
1081.000000	0.857959
1082.000000	0.854115
1083.000000	0.874748
1084.000000	0.863130
1085.000000	0.874848
1086.000000	0.876412
1087.000000	0.881446
1088.000000	0.864762
1089.000000	0.871366
1090.000000	0.870940
1091.000000	0.864340
1092.000000	0.868152
1093.000000	0.860571
1094.000000	0.869174
1095.000000	0.880282
1096.000000	0.884387
1097.000000	0.874896
1098.000000	0.871127
1099.000000	0.884978
1100.000000	0.878983
1101.000000	0.885351
1102.000000	0.874495
1103.000000	0.880666
1104.000000	0.874677
1105.000000	0.877480
1106.000000	0.879022
1107.000000	0.878067
1108.000000	0.882342
1109.000000	0.876615
1110.000000	0.882809
1111.000000	0.884820
1112.000000	0.886660
1113.000000	0.880326
1114.000000	0.899919
1115.000000	0.893073
1116.000000	0.891760
1117.000000	0.888970
1118.000000	0.882059
1119.000000	0.892713
1120.000000	0.891687
1121.000000	0.891835
1122.000000	0.894570
1123.000000	0.905658
1124.000000	0.897888
1125.000000	0.897289
1126.000000	0.890061
1127.000000	0.886098
1128.000000	0.901404
1129.000000	0.900287
1130.000000	0.904528
1131.000000	0.904194
1132.000000	0.901009
1133.000000	0.894725
1134.000000	0.891172
1135.000000	0.910604
1136.000000	0.907759
1137.000000	0.918050
1138.000000	0.922849
1139.000000	0.929292
1140.000000	0.928270
1141.000000	0.920703
1142.000000	0.922608
1143.000000	0.928099
1144.000000	0.932451
1145.000000	0.937936
1146.000000	0.938013
1147.000000	0.939376
1148.000000	0.949184
1149.000000	0.946343
1150.000000	0.945544
1151.000000	0.948802
1152.000000	0.946283
1153.000000	0.943209
1154.000000	0.933899
1155.000000	0.935885
1156.000000	0.926759
1157.000000	0.926639
1158.000000	0.934157
1159.000000	0.931258
1160.000000	0.922060
1161.000000	0.932501
1162.000000	0.941943
1163.000000	0.939398
1164.000000	0.934885
1165.000000	0.936903
1166.000000	0.939966
1167.000000	0.941278
1168.000000	0.935642
1169.000000	0.941077
1170.000000	0.940947
1171.000000	0.953665
1172.000000	0.959932
1173.000000	0.964328
1174.000000	0.964054
1175.000000	0.967862
1176.000000	0.980500
1177.000000	0.990563
1178.000000	1.003089
1179.000000	1.013746
1180.000000	1.017953
1181.000000	1.032379
1182.000000	1.033498
1183.000000	1.040171
1184.000000	1.051783
1185.000000	1.056014
1186.000000	1.053751
1187.000000	1.054255
1188.000000	1.046945
1189.000000	1.045781
1190.000000	1.042922
1191.000000	1.027997
1192.000000	1.029035
1193.000000	1.027516
1194.000000	1.032506
1195.000000	1.039110
1196.000000	1.041095
1197.000000	1.040197
1198.000000	1.038046
1199.000000	1.039293
1200.000000	1.032567
1201.000000	1.033932
1202.000000	1.033433
1203.000000	1.028741
1204.000000	1.036070
1205.000000	1.038296
1206.000000	1.034923
1207.000000	1.030047
1208.000000	1.022933
1209.000000	1.021060
1210.000000	1.016589
1211.000000	1.014399
1212.000000	1.003428
1213.000000	0.999829
1214.000000	0.998365
1215.000000	0.995516
1216.000000	0.981868
1217.000000	0.966555
1218.000000	0.965435
1219.000000	0.966619
1220.000000	0.962938
1221.000000	0.953287
1222.000000	0.950516
1223.000000	0.948232
1224.000000	0.938374
1225.000000	0.929672
1226.000000	0.923174
1227.000000	0.922467
1228.000000	0.927596
1229.000000	0.930831
1230.000000	0.928232
1231.000000	0.926928
1232.000000	0.925681
1233.000000	0.921322
1234.000000	0.928268
1235.000000	0.928636
1236.000000	0.926114
1237.000000	0.931663
1238.000000	0.932169
1239.000000	0.933127
1240.000000	0.932953
1241.000000	0.930623
1242.000000	0.938529
1243.000000	0.938023
1244.000000	0.936788
1245.000000	0.936536
1246.000000	0.938635
1247.000000	0.944733
1248.000000	0.954702
1249.000000	0.954793
1250.000000	0.961686
1251.000000	0.960488
1252.000000	0.961786
1253.000000	0.970703
1254.000000	0.959165
1255.000000	0.954122
1256.000000	0.964103
1257.000000	0.968311
1258.000000	0.966294
1259.000000	0.968373
1260.000000	0.971607
1261.000000	0.974959
1262.000000	0.973595
1263.000000	0.971980
1264.000000	0.971151
1265.000000	0.974093
1266.000000	0.977143
1267.000000	0.968767
1268.000000	0.970418
1269.000000	0.975576
1270.000000	0.979824
1271.000000	0.975358
1272.000000	0.963438
1273.000000	0.963043
1274.000000	0.969661
1275.000000	0.970906
1276.000000	0.964776
1277.000000	0.964986
1278.000000	0.969142
1279.000000	0.966064
1280.000000	0.967730
1281.000000	0.965124
1282.000000	0.959007
1283.000000	0.961473
1284.000000	0.967968
1285.000000	0.957666
1286.000000	0.955810
1287.000000	0.953718
1288.000000	0.960899
1289.000000	0.962350
1290.000000	0.954832
1291.000000	0.963132
1292.000000	0.962454
1293.000000	0.961081
1294.000000	0.969802
1295.000000	0.967012
1296.000000	0.968218
1297.000000	0.974724
1298.000000	0.983252
1299.000000	0.981593
1300.000000	0.982017
1301.000000	0.981172
1302.000000	0.975268
1303.000000	0.976991
1304.000000	0.981017
1305.000000	0.981338
1306.000000	0.974912
1307.000000	0.976252
1308.000000	0.980351
1309.000000	0.992017
1310.000000	0.987293
1311.000000	0.994080
1312.000000	0.988798
1313.000000	0.983629
1314.000000	0.987524
1315.000000	0.986425
1316.000000	0.983834
1317.000000	0.993615
1318.000000	0.997033
1319.000000	1.006682
1320.000000	1.007680
1321.000000	1.005880
1322.000000	0.996794
1323.000000	1.009343
1324.000000	1.017980
1325.000000	1.017949
1326.000000	1.025468
1327.000000	1.029459
1328.000000	1.025660
1329.000000	1.033934
1330.000000	1.036180
1331.000000	1.052948
1332.000000	1.056859
1333.000000	1.046556
1334.000000	1.051485
1335.000000	1.045924
1336.000000	1.066705
1337.000000	1.060371
1338.000000	1.073381
1339.000000	1.086488
1340.000000	1.092368
1341.000000	1.079072
1342.000000	1.086115
1343.000000	1.081363
1344.000000	1.064752
1345.000000	1.066559
1346.000000	1.064624
1347.000000	1.076581
1348.000000	1.073549
1349.000000	1.065604
1350.000000	1.061740
1351.000000	1.059421
1352.000000	1.088281
1353.000000	1.061081
1354.000000	1.052402
1355.000000	1.054011
1356.000000	1.050881
1357.000000	1.044191
1358.000000	1.043377
1359.000000	1.008708
1360.000000	1.034002
1361.000000	1.039215
1362.000000	1.037620
1363.000000	1.034994
1364.000000	1.045928
1365.000000	1.036347
1366.000000	1.049832
1367.000000	1.049713
1368.000000	1.045889
1369.000000	1.038701
1370.000000	1.053216
1371.000000	1.048188
1372.000000	1.048200
1373.000000	1.049728
1374.000000	1.063081
1375.000000	1.057799
1376.000000	1.069937
1377.000000	1.066772
1378.000000	1.055556
1379.000000	1.040022
1380.000000	1.059040
1381.000000	1.064609
1382.000000	1.073167
1383.000000	1.088074
1384.000000	1.093959
1385.000000	1.090449
1386.000000	1.089227
1387.000000	1.098412
1388.000000	1.081586
1389.000000	1.089061
1390.000000	1.060284
1391.000000	1.058911
1392.000000	1.080862
1393.000000	1.042517
1394.000000	1.036446
1395.000000	1.038661
1396.000000	1.023228
1397.000000	1.015058
1398.000000	1.000547
1399.000000	0.984737
1400.000000	0.989244
1401.000000	1.009661
1402.000000	0.975764
1403.000000	0.970337
1404.000000	0.944170
1405.000000	0.925894
1406.000000	0.907583
1407.000000	0.902524
1408.000000	0.892600
1409.000000	0.863421
1410.000000	0.846640
1411.000000	0.831222
1412.000000	0.806182
1413.000000	0.783777
1414.000000	0.780716
1415.000000	0.765931
1416.000000	0.766588
1417.000000	0.736859
1418.000000	0.724513
1419.000000	0.729114
1420.000000	0.713526
1421.000000	0.682857
1422.000000	0.672663
1423.000000	0.654572
1424.000000	0.657636
1425.000000	0.648383
1426.000000	0.634470
1427.000000	0.630141
1428.000000	0.618469
1429.000000	0.603127
1430.000000	0.593247
1431.000000	0.593772
1432.000000	0.587857
1433.000000	0.573961
1434.000000	0.553889
1435.000000	0.545977
1436.000000	0.537541
1437.000000	0.530338
1438.000000	0.514286
1439.000000	0.518414
1440.000000	0.517185
1441.000000	0.506877
1442.000000	0.496064
1443.000000	0.491911
1444.000000	0.488313
1445.000000	0.488765
1446.000000	0.481802
1447.000000	0.470467
1448.000000	0.459671
1449.000000	0.459739
1450.000000	0.448718
1451.000000	0.439536
1452.000000	0.449828
1453.000000	0.446525
1454.000000	0.438256
1455.000000	0.427647
1456.000000	0.433749
1457.000000	0.431671
1458.000000	0.421871
1459.000000	0.408842
1460.000000	0.408522
1461.000000	0.411780
1462.000000	0.407266
1463.000000	0.397090
1464.000000	0.398877
1465.000000	0.400136
1466.000000	0.393742
1467.000000	0.391251
1468.000000	0.393795
1469.000000	0.387437
1470.000000	0.382072
1471.000000	0.381715
1472.000000	0.368722
1473.000000	0.369425
1474.000000	0.367478
1475.000000	0.362884
1476.000000	0.380170
1477.000000	0.384444
1478.000000	0.380687
1479.000000	0.380353
1480.000000	0.371465
1481.000000	0.361100
1482.000000	0.370473
1483.000000	0.370638
1484.000000	0.364891
1485.000000	0.371168
1486.000000	0.375193
1487.000000	0.367871
1488.000000	0.361082
1489.000000	0.364073
1490.000000	0.371759
1491.000000	0.368551
1492.000000	0.371704
1493.000000	0.373474
1494.000000	0.375994
1495.000000	0.377930
1496.000000	0.381505
1497.000000	0.386165
1498.000000	0.388294
1499.000000	0.390810
1500.000000	0.387627
1501.000000	0.388090
1502.000000	0.387035
1503.000000	0.388309
1504.000000	0.397637
1505.000000	0.398963
1506.000000	0.401513
1507.000000	0.413763
1508.000000	0.419226
1509.000000	0.416313
1510.000000	0.413619
1511.000000	0.419442
1512.000000	0.423270
1513.000000	0.422385
1514.000000	0.426560
1515.000000	0.434750
1516.000000	0.441899
1517.000000	0.438916
1518.000000	0.442650
1519.000000	0.439434
1520.000000	0.434840
1521.000000	0.442009
1522.000000	0.447721
1523.000000	0.455447
1524.000000	0.456086
1525.000000	0.452216
1526.000000	0.452749
1527.000000	0.456938
1528.000000	0.461102
1529.000000	0.461135
1530.000000	0.461860
1531.000000	0.464387
1532.000000	0.469816
1533.000000	0.463329
1534.000000	0.461526
1535.000000	0.462687
1536.000000	0.464037
1537.000000	0.462329
1538.000000	0.452228
1539.000000	0.456704
1540.000000	0.456875
1541.000000	0.453235
1542.000000	0.453952
1543.000000	0.450026
1544.000000	0.447529
1545.000000	0.451438
1546.000000	0.453352
1547.000000	0.449619
1548.000000	0.453775
1549.000000	0.456573
1550.000000	0.457429
1551.000000	0.458490
1552.000000	0.458196
1553.000000	0.464530
1554.000000	0.465714
1555.000000	0.461023
1556.000000	0.461828
1557.000000	0.456170
1558.000000	0.464788
1559.000000	0.459388
1560.000000	0.457105
1561.000000	0.470044
1562.000000	0.451920
1563.000000	0.442418
1564.000000	0.451648
1565.000000	0.449040
1566.000000	0.452453
1567.000000	0.450785
1568.000000	0.442316
1569.000000	0.440242
1570.000000	0.438479
1571.000000	0.444958
1572.000000	0.455845
1573.000000	0.459387
1574.000000	0.453117
1575.000000	0.450723
1576.000000	0.447475
1577.000000	0.444256
1578.000000	0.457076
1579.000000	0.449225
1580.000000	0.456821
1581.000000	0.461046
1582.000000	0.458858
1583.000000	0.455551
1584.000000	0.472592
1585.000000	0.486470
1586.000000	0.476248
1587.000000	0.469855
1588.000000	0.481468
1589.000000	0.494146
1590.000000	0.483834
1591.000000	0.495375
1592.000000	0.503085
1593.000000	0.503401
1594.000000	0.490218
1595.000000	0.487577
1596.000000	0.503934
1597.000000	0.525339
1598.000000	0.521164
1599.000000	0.527942
1600.000000	0.541386
1601.000000	0.532699
1602.000000	0.532511
1603.000000	0.544327
1604.000000	0.550650
1605.000000	0.542998
1606.000000	0.573146
1607.000000	0.568401
1608.000000	0.563560
1609.000000	0.577534
1610.000000	0.584608
1611.000000	0.586847
1612.000000	0.583064
1613.000000	0.584362
1614.000000	0.597250
1615.000000	0.603333
1616.000000	0.599927
1617.000000	0.604603
1618.000000	0.594976
1619.000000	0.613316
1620.000000	0.602433
1621.000000	0.604433
1622.000000	0.609670
1623.000000	0.621769
1624.000000	0.620118
1625.000000	0.612712
1626.000000	0.634325
1627.000000	0.617126
1628.000000	0.630377
1629.000000	0.630460
1630.000000	0.631473
1631.000000	0.622869
1632.000000	0.633779
1633.000000	0.616056
1634.000000	0.618463
1635.000000	0.628660
1636.000000	0.636254
1637.000000	0.639828
1638.000000	0.637410
1639.000000	0.627788
1640.000000	0.626737
1641.000000	0.627055
1642.000000	0.615607
1643.000000	0.633276
1644.000000	0.627111
1645.000000	0.620947
1646.000000	0.603659
1647.000000	0.613213
1648.000000	0.608783
1649.000000	0.621501
1650.000000	0.598557
1651.000000	0.611342
1652.000000	0.613620
1653.000000	0.597987
1654.000000	0.599445
1655.000000	0.602167
1656.000000	0.596468
1657.000000	0.580339
1658.000000	0.592631
1659.000000	0.574417
1660.000000	0.565802
1661.000000	0.553094
1662.000000	0.552442
1663.000000	0.549704
1664.000000	0.542806
1665.000000	0.529429
1666.000000	0.523000
1667.000000	0.509583
1668.000000	0.513503
1669.000000	0.501129
1670.000000	0.481913
1671.000000	0.478851
1672.000000	0.479970
1673.000000	0.461688
1674.000000	0.451410
1675.000000	0.458690
1676.000000	0.439769
1677.000000	0.432274
1678.000000	0.429236
1679.000000	0.419621
1680.000000	0.405471
1681.000000	0.388200
1682.000000	0.369286
1683.000000	0.350609
1684.000000	0.362959
1685.000000	0.344677
1686.000000	0.348565
1687.000000	0.347153
1688.000000	0.346441
1689.000000	0.348560
1690.000000	0.343583
1691.000000	0.342714
1692.000000	0.344046
1693.000000	0.351136
1694.000000	0.358225
1695.000000	0.351707
1696.000000	0.355232
1697.000000	0.368005
1698.000000	0.366871
1699.000000	0.362187
1700.000000	0.369481
1701.000000	0.385224
1702.000000	0.388199
1703.000000	0.386664
1704.000000	0.383236
1705.000000	0.392888
1706.000000	0.386159
1707.000000	0.384820
1708.000000	0.383295
1709.000000	0.367636
1710.000000	0.378108
1711.000000	0.367905
1712.000000	0.369854
1713.000000	0.362713
1714.000000	0.357849
1715.000000	0.343098
1716.000000	0.331128
1717.000000	0.319176
1718.000000	0.328813
1719.000000	0.317400
1720.000000	0.312383
1721.000000	0.305204
1722.000000	0.311879
1723.000000	0.309299
1724.000000	0.313089
1725.000000	0.319061
1726.000000	0.309954
1727.000000	0.311953
1728.000000	0.328790
1729.000000	0.322355
1730.000000	0.322516
1731.000000	0.323067
1732.000000	0.319490
1733.000000	0.333022
1734.000000	0.333709
1735.000000	0.344102
1736.000000	0.355388
1737.000000	0.359685
1738.000000	0.360032
1739.000000	0.361219
1740.000000	0.371215
1741.000000	0.385027
1742.000000	0.391036
1743.000000	0.400792
1744.000000	0.401194
1745.000000	0.412556
1746.000000	0.422242
1747.000000	0.424524
1748.000000	0.432413
1749.000000	0.428611
1750.000000	0.439028
1751.000000	0.429908
1752.000000	0.430337
1753.000000	0.429319
1754.000000	0.428164
1755.000000	0.427797
1756.000000	0.425630
1757.000000	0.430408
1758.000000	0.436029
1759.000000	0.434123
1760.000000	0.427692
1761.000000	0.432508
1762.000000	0.431547
1763.000000	0.425159
1764.000000	0.424718
1765.000000	0.429236
1766.000000	0.425905
1767.000000	0.429311
1768.000000	0.438442
1769.000000	0.445413
1770.000000	0.446599
1771.000000	0.448099
1772.000000	0.446879
1773.000000	0.447870
1774.000000	0.448821
1775.000000	0.457290
1776.000000	0.461756
1777.000000	0.456935
1778.000000	0.463910
1779.000000	0.470665
1780.000000	0.466816
1781.000000	0.469521
1782.000000	0.469489
1783.000000	0.464989
1784.000000	0.466875
1785.000000	0.472567
1786.000000	0.471131
1787.000000	0.475264
1788.000000	0.476408
1789.000000	0.477203
1790.000000	0.478601
1791.000000	0.481118
1792.000000	0.475027
1793.000000	0.473535
1794.000000	0.477887
1795.000000	0.478271
1796.000000	0.481865
1797.000000	0.489244
1798.000000	0.490119
1799.000000	0.487490
1800.000000	0.483759
1801.000000	0.478477
1802.000000	0.484049
1803.000000	0.486381
1804.000000	0.490906
1805.000000	0.496195
1806.000000	0.492834
1807.000000	0.486509
1808.000000	0.479669
1809.000000	0.481563
1810.000000	0.486909
1811.000000	0.492518
1812.000000	0.498275
1813.000000	0.495133
1814.000000	0.494666
1815.000000	0.496595
1816.000000	0.494036
1817.000000	0.487759
1818.000000	0.476929
1819.000000	0.478477
1820.000000	0.494769
1821.000000	0.503294
1822.000000	0.499606
1823.000000	0.492143
1824.000000	0.489485
1825.000000	0.485063
1826.000000	0.475559
1827.000000	0.479691
1828.000000	0.493886
1829.000000	0.501239
1830.000000	0.497332
1831.000000	0.499365
1832.000000	0.495707
1833.000000	0.484753
1834.000000	0.473147
1835.000000	0.474733
1836.000000	0.476315
1837.000000	0.474381
1838.000000	0.478155
1839.000000	0.484085
1840.000000	0.493942
1841.000000	0.495094
1842.000000	0.510742
1843.000000	0.508890
1844.000000	0.501244
1845.000000	0.472126
1846.000000	0.474788
1847.000000	0.497058
1848.000000	0.509137
1849.000000	0.528150
1850.000000	0.527629
1851.000000	0.512354
1852.000000	0.508954
1853.000000	0.513405
1854.000000	0.503359
1855.000000	0.518946
1856.000000	0.517017
1857.000000	0.495253
1858.000000	0.499318
1859.000000	0.508150
1860.000000	0.514446
1861.000000	0.523134
1862.000000	0.526689
1863.000000	0.504847
1864.000000	0.485816
1865.000000	0.465522
1866.000000	0.455931
1867.000000	0.439780
1868.000000	0.420332
1869.000000	0.403071
1870.000000	0.420958
1871.000000	0.423392
1872.000000	0.414228
1873.000000	0.412314
1874.000000	0.420494
1875.000000	0.418270
1876.000000	0.420989
1877.000000	0.411303
1878.000000	0.392362
1879.000000	0.375865
1880.000000	0.378862
1881.000000	0.337292
1882.000000	0.320957
1883.000000	0.300736
1884.000000	0.300547
1885.000000	0.288026
1886.000000	0.287240
1887.000000	0.265661
1888.000000	0.251613
1889.000000	0.248839
1890.000000	0.228178
1891.000000	0.218178
1892.000000	0.231146
1893.000000	0.241746
1894.000000	0.244838
1895.000000	0.248646
1896.000000	0.275787
1897.000000	0.285379
1898.000000	0.295009
1899.000000	0.283665
1900.000000	0.290480
1901.000000	0.298677
1902.000000	0.293609
1903.000000	0.316088
1904.000000	0.314796
1905.000000	0.301483
1906.000000	0.309082
1907.000000	0.314643
1908.000000	0.313691
1909.000000	0.320710
1910.000000	0.335858
1911.000000	0.338884
1912.000000	0.327963
1913.000000	0.310156
1914.000000	0.316087
1915.000000	0.318349
1916.000000	0.305589
1917.000000	0.318408
1918.000000	0.331982
1919.000000	0.325630
1920.000000	0.314785
1921.000000	0.321779
1922.000000	0.311718
1923.000000	0.301498
1924.000000	0.291840
1925.000000	0.304210
1926.000000	0.304519
1927.000000	0.296498
1928.000000	0.302227
1929.000000	0.302024
1930.000000	0.301117
1931.000000	0.297424
1932.000000	0.294591
1933.000000	0.283584
1934.000000	0.301633
1935.000000	0.319408
1936.000000	0.294107
1937.000000	0.306448
1938.000000	0.306828
1939.000000	0.308090
1940.000000	0.311241
1941.000000	0.319449
1942.000000	0.309429
1943.000000	0.329235
1944.000000	0.333748
1945.000000	0.341063
1946.000000	0.324914
1947.000000	0.316876
1948.000000	0.317785
1949.000000	0.324855
1950.000000	0.351218
1951.000000	0.351422
1952.000000	0.354816
1953.000000	0.344041
1954.000000	0.360305
1955.000000	0.361032
1956.000000	0.353903
1957.000000	0.357374
1958.000000	0.355183
1959.000000	0.376927
1960.000000	0.378666
1961.000000	0.378094
1962.000000	0.391378
1963.000000	0.391290
1964.000000	0.391630
1965.000000	0.380391
1966.000000	0.391730
1967.000000	0.393943
1968.000000	0.390864
1969.000000	0.402750
1970.000000	0.403536
1971.000000	0.411087
1972.000000	0.418466
1973.000000	0.415840
1974.000000	0.411837
1975.000000	0.417840
1976.000000	0.410321
1977.000000	0.412028
1978.000000	0.422745
1979.000000	0.413872
1980.000000	0.426936
1981.000000	0.419632
1982.000000	0.421086
1983.000000	0.423670
1984.000000	0.411765
1985.000000	0.431760
1986.000000	0.426978
1987.000000	0.422526
1988.000000	0.428285
1989.000000	0.430790
1990.000000	0.416793
1991.000000	0.413803
1992.000000	0.430588
1993.000000	0.432936
1994.000000	0.419074
1995.000000	0.420272
1996.000000	0.419508
1997.000000	0.416903
1998.000000	0.430362
1999.000000	0.429872
