PE UV       SUBTECH     SPECTRUM    ASCII       PEDS        4.00        
   -1
CICIMAUCR0245-3.Sample.ASC
24/06/21
11:59:24.00
24/06/21
11:59:24.00
Vinicio Soto Monge
C. resplendens. Sex M. Dorsal
250,000000
1
Lambda 1050
1050L1511233
PerkinElmer UV WinLab 6.3.2.0749 / 2.02.05 Lambda 900 UV/VIS/NIR, Aug  7 2015 09:38:08

0
0
3350/servo 860,8/2
0
0
UV/VIS
1
1
1
DoubleDePol,CommonBeamDepol,RBeamAtt,SBeamAtt,60mm sphere, WB InGaAs Detector
0
0
0
0
Program
Program
3350/servo 860,8/2
3350/0,2 860,8/0,2
3350/0,2 860,8/0,2
0
15.00
 
 
 
0
 
860,8
319,2
860,8
Front
100
on
S:100 R:100
0
0
0
0
 
0
 
 
 
0
 
 
0
0
0
0
0
 
 
 
 
0
0


0
0
#HDR
-1
-1
#GR
nm
%R
1.0
0.0
2500,000000
-1,000000
2251
8
89,701100
5,421800
#DATA
250.000000	0.317096
251.000000	0.303099
252.000000	0.298208
253.000000	0.310026
254.000000	0.284971
255.000000	0.272668
256.000000	0.287697
257.000000	0.291858
258.000000	0.276460
259.000000	0.270004
260.000000	0.306455
261.000000	0.294257
262.000000	0.274944
263.000000	0.263393
264.000000	0.277099
265.000000	0.270286
266.000000	0.260502
267.000000	0.234311
268.000000	0.246065
269.000000	0.245234
270.000000	0.267464
271.000000	0.260076
272.000000	0.255690
273.000000	0.263343
274.000000	0.268489
275.000000	0.259312
276.000000	0.287397
277.000000	0.258749
278.000000	0.234258
279.000000	0.226092
280.000000	0.234805
281.000000	0.246436
282.000000	0.246893
283.000000	0.240223
284.000000	0.251021
285.000000	0.222322
286.000000	0.217088
287.000000	0.222983
288.000000	0.234082
289.000000	0.231439
290.000000	0.245594
291.000000	0.215394
292.000000	0.215457
293.000000	0.200144
294.000000	0.208701
295.000000	0.198260
296.000000	0.187350
297.000000	0.200840
298.000000	0.221061
299.000000	0.215064
300.000000	0.216619
301.000000	0.182375
302.000000	0.183718
303.000000	0.174434
304.000000	0.196905
305.000000	0.206340
306.000000	0.206407
307.000000	0.196460
308.000000	0.198416
309.000000	0.215568
310.000000	0.212658
311.000000	0.182012
312.000000	0.181665
313.000000	0.182984
314.000000	0.199798
315.000000	0.214339
316.000000	0.415696
317.000000	0.610487
318.000000	0.493712
319.000000	0.524323
320.000000	0.488824
321.000000	0.343898
322.000000	0.420260
323.000000	0.532838
324.000000	0.414520
325.000000	0.438969
326.000000	0.699012
327.000000	0.721213
328.000000	0.487319
329.000000	0.328030
330.000000	0.280315
331.000000	0.257841
332.000000	0.299915
333.000000	0.343601
334.000000	0.228989
335.000000	0.270807
336.000000	0.345969
337.000000	0.285058
338.000000	0.275296
339.000000	0.350871
340.000000	0.316760
341.000000	0.244136
342.000000	0.240825
343.000000	0.249874
344.000000	0.258299
345.000000	0.223686
346.000000	0.210584
347.000000	0.243684
348.000000	0.226359
349.000000	0.190246
350.000000	0.198689
351.000000	0.224364
352.000000	0.236770
353.000000	0.230137
354.000000	0.245916
355.000000	0.231754
356.000000	0.235940
357.000000	0.248352
358.000000	0.242258
359.000000	0.184143
360.000000	0.169137
361.000000	0.181849
362.000000	0.146523
363.000000	0.129322
364.000000	0.170585
365.000000	0.148536
366.000000	0.184361
367.000000	0.192327
368.000000	0.140281
369.000000	0.135350
370.000000	0.126721
371.000000	0.120311
372.000000	0.156923
373.000000	0.107691
374.000000	0.137905
375.000000	0.140480
376.000000	0.135011
377.000000	0.195852
378.000000	0.205740
379.000000	0.213616
380.000000	0.202189
381.000000	0.208897
382.000000	0.209016
383.000000	0.207084
384.000000	0.214068
385.000000	0.225402
386.000000	0.226375
387.000000	0.231406
388.000000	0.242450
389.000000	0.262844
390.000000	0.265731
391.000000	0.271768
392.000000	0.296665
393.000000	0.300578
394.000000	0.320311
395.000000	0.337518
396.000000	0.341287
397.000000	0.361557
398.000000	0.376752
399.000000	0.396828
400.000000	0.415918
401.000000	0.427697
402.000000	0.456382
403.000000	0.467291
404.000000	0.488770
405.000000	0.519784
406.000000	0.532798
407.000000	0.555464
408.000000	0.572152
409.000000	0.575594
410.000000	0.593148
411.000000	0.597904
412.000000	0.622023
413.000000	0.618922
414.000000	0.629586
415.000000	0.609707
416.000000	0.621871
417.000000	0.607471
418.000000	0.591497
419.000000	0.577131
420.000000	0.536995
421.000000	0.530845
422.000000	0.509890
423.000000	0.482804
424.000000	0.457362
425.000000	0.423704
426.000000	0.405993
427.000000	0.392097
428.000000	0.347027
429.000000	0.338929
430.000000	0.329120
431.000000	0.339265
432.000000	0.345180
433.000000	0.310725
434.000000	0.355579
435.000000	0.358011
436.000000	0.378547
437.000000	0.399038
438.000000	0.396810
439.000000	0.408576
440.000000	0.414102
441.000000	0.477956
442.000000	0.488431
443.000000	0.476173
444.000000	0.501232
445.000000	0.510707
446.000000	0.553175
447.000000	0.555417
448.000000	0.563930
449.000000	0.559161
450.000000	0.574705
451.000000	0.592069
452.000000	0.609503
453.000000	0.597932
454.000000	0.613866
455.000000	0.627017
456.000000	0.634605
457.000000	0.650648
458.000000	0.673344
459.000000	0.676185
460.000000	0.701264
461.000000	0.712076
462.000000	0.725184
463.000000	0.715947
464.000000	0.722897
465.000000	0.745022
466.000000	0.752730
467.000000	0.777606
468.000000	0.751006
469.000000	0.773430
470.000000	0.739806
471.000000	0.732955
472.000000	0.705556
473.000000	0.697482
474.000000	0.645874
475.000000	0.635469
476.000000	0.622518
477.000000	0.587706
478.000000	0.593776
479.000000	0.576627
480.000000	0.576373
481.000000	0.594982
482.000000	0.644207
483.000000	0.696760
484.000000	0.762812
485.000000	0.867594
486.000000	0.921227
487.000000	1.008485
488.000000	1.078184
489.000000	1.099916
490.000000	1.129394
491.000000	1.137332
492.000000	1.132840
493.000000	1.064122
494.000000	1.030741
495.000000	0.960270
496.000000	0.876411
497.000000	0.846475
498.000000	0.755146
499.000000	0.709881
500.000000	0.653331
501.000000	0.621608
502.000000	0.613510
503.000000	0.591520
504.000000	0.612320
505.000000	0.638763
506.000000	0.642296
507.000000	0.695109
508.000000	0.722045
509.000000	0.748964
510.000000	0.822808
511.000000	0.891259
512.000000	0.966788
513.000000	1.062909
514.000000	1.163102
515.000000	1.279988
516.000000	1.413079
517.000000	1.546845
518.000000	1.744395
519.000000	1.905676
520.000000	2.125786
521.000000	2.342717
522.000000	2.553157
523.000000	2.758351
524.000000	2.954755
525.000000	3.138938
526.000000	3.247802
527.000000	3.339860
528.000000	3.405998
529.000000	3.423715
530.000000	3.391309
531.000000	3.346350
532.000000	3.260007
533.000000	3.105977
534.000000	2.940308
535.000000	2.768487
536.000000	2.588847
537.000000	2.405641
538.000000	2.202937
539.000000	2.033486
540.000000	1.868600
541.000000	1.688368
542.000000	1.535824
543.000000	1.374883
544.000000	1.221492
545.000000	1.085536
546.000000	0.998145
547.000000	0.900226
548.000000	0.813804
549.000000	0.784319
550.000000	0.721889
551.000000	0.677919
552.000000	0.641562
553.000000	0.649630
554.000000	0.627000
555.000000	0.621507
556.000000	0.611146
557.000000	0.613558
558.000000	0.632055
559.000000	0.666651
560.000000	0.722834
561.000000	0.739732
562.000000	0.754821
563.000000	0.778361
564.000000	0.778384
565.000000	0.839727
566.000000	0.848961
567.000000	0.872742
568.000000	0.916150
569.000000	0.959136
570.000000	0.981156
571.000000	1.039550
572.000000	1.071246
573.000000	1.143847
574.000000	1.193261
575.000000	1.283907
576.000000	1.325450
577.000000	1.392431
578.000000	1.445359
579.000000	1.497682
580.000000	1.524815
581.000000	1.535461
582.000000	1.579309
583.000000	1.597015
584.000000	1.610857
585.000000	1.643374
586.000000	1.616206
587.000000	1.638201
588.000000	1.674371
589.000000	1.676914
590.000000	1.673365
591.000000	1.680800
592.000000	1.721588
593.000000	1.786151
594.000000	1.812723
595.000000	1.846114
596.000000	1.876621
597.000000	1.912783
598.000000	1.970245
599.000000	2.034281
600.000000	2.119621
601.000000	2.216331
602.000000	2.295109
603.000000	2.366010
604.000000	2.423288
605.000000	2.443805
606.000000	2.535860
607.000000	2.623399
608.000000	2.668688
609.000000	2.746998
610.000000	2.821249
611.000000	2.860681
612.000000	2.918890
613.000000	2.953354
614.000000	2.998694
615.000000	3.054399
616.000000	3.126760
617.000000	3.201243
618.000000	3.254416
619.000000	3.299587
620.000000	3.354989
621.000000	3.423767
622.000000	3.486933
623.000000	3.549216
624.000000	3.629067
625.000000	3.703555
626.000000	3.807463
627.000000	3.906481
628.000000	3.990419
629.000000	4.091585
630.000000	4.198929
631.000000	4.320127
632.000000	4.419974
633.000000	4.504091
634.000000	4.576793
635.000000	4.650670
636.000000	4.684513
637.000000	4.681003
638.000000	4.625380
639.000000	4.529454
640.000000	4.369768
641.000000	4.158796
642.000000	3.901126
643.000000	3.595696
644.000000	3.263897
645.000000	2.902264
646.000000	2.572269
647.000000	2.258315
648.000000	1.966072
649.000000	1.747890
650.000000	1.648948
651.000000	1.650683
652.000000	1.686986
653.000000	1.772715
654.000000	1.870500
655.000000	1.958520
656.000000	2.027975
657.000000	2.094592
658.000000	2.152991
659.000000	2.174287
660.000000	2.202805
661.000000	2.277947
662.000000	2.318657
663.000000	2.350238
664.000000	2.387715
665.000000	2.381591
666.000000	2.364507
667.000000	2.299492
668.000000	2.201378
669.000000	2.107193
670.000000	1.977838
671.000000	1.779143
672.000000	1.608924
673.000000	1.437741
674.000000	1.236818
675.000000	1.038810
676.000000	0.893914
677.000000	0.836716
678.000000	0.826752
679.000000	0.829951
680.000000	0.873744
681.000000	0.893868
682.000000	0.895885
683.000000	0.920430
684.000000	0.933983
685.000000	0.928298
686.000000	0.895158
687.000000	0.926989
688.000000	0.947230
689.000000	0.897450
690.000000	0.893687
691.000000	0.863082
692.000000	0.850301
693.000000	0.852472
694.000000	0.857967
695.000000	0.863814
696.000000	0.861037
697.000000	0.866129
698.000000	0.953401
699.000000	0.983032
700.000000	1.013954
701.000000	1.100028
702.000000	1.111156
703.000000	1.056185
704.000000	1.065937
705.000000	1.061764
706.000000	1.066138
707.000000	1.012345
708.000000	1.041096
709.000000	0.991931
710.000000	1.005186
711.000000	1.006127
712.000000	1.029050
713.000000	1.013804
714.000000	1.037815
715.000000	1.055095
716.000000	1.069985
717.000000	1.047698
718.000000	1.087443
719.000000	1.131065
720.000000	1.180892
721.000000	1.229090
722.000000	1.255711
723.000000	1.220002
724.000000	1.268565
725.000000	1.338134
726.000000	1.328171
727.000000	1.297718
728.000000	1.375101
729.000000	1.400543
730.000000	1.316504
731.000000	1.269042
732.000000	1.296055
733.000000	1.179676
734.000000	1.145531
735.000000	1.067397
736.000000	0.916312
737.000000	0.978769
738.000000	0.957816
739.000000	0.822571
740.000000	0.766521
741.000000	0.735256
742.000000	0.708408
743.000000	0.749176
744.000000	0.732216
745.000000	0.750335
746.000000	0.780097
747.000000	0.774783
748.000000	0.756980
749.000000	0.775969
750.000000	0.825792
751.000000	0.854655
752.000000	0.785947
753.000000	0.782770
754.000000	0.801221
755.000000	0.727032
756.000000	0.896480
757.000000	0.797566
758.000000	0.872474
759.000000	0.872499
760.000000	0.938116
761.000000	0.974850
762.000000	1.043425
763.000000	1.208167
764.000000	1.152665
765.000000	1.280914
766.000000	1.313222
767.000000	1.392954
768.000000	1.393385
769.000000	1.476216
770.000000	1.624781
771.000000	1.544956
772.000000	1.520979
773.000000	1.604971
774.000000	1.676549
775.000000	1.710578
776.000000	1.713350
777.000000	1.649288
778.000000	1.770798
779.000000	1.726461
780.000000	1.684009
781.000000	1.683440
782.000000	1.560257
783.000000	1.734101
784.000000	1.775692
785.000000	1.536652
786.000000	1.526658
787.000000	1.429680
788.000000	1.286242
789.000000	1.412066
790.000000	1.253361
791.000000	1.156764
792.000000	1.166931
793.000000	1.130741
794.000000	1.081545
795.000000	1.006702
796.000000	0.897784
797.000000	1.041158
798.000000	0.964911
799.000000	0.993352
800.000000	0.959539
801.000000	1.167535
802.000000	1.258228
803.000000	1.189256
804.000000	1.294633
805.000000	1.616625
806.000000	1.618487
807.000000	1.608375
808.000000	1.870051
809.000000	1.921442
810.000000	1.959122
811.000000	2.061588
812.000000	2.106630
813.000000	2.015621
814.000000	2.132230
815.000000	2.144062
816.000000	2.290976
817.000000	2.181912
818.000000	2.240157
819.000000	2.225369
820.000000	2.197901
821.000000	2.197021
822.000000	2.177357
823.000000	2.094578
824.000000	2.167004
825.000000	2.227405
826.000000	2.313885
827.000000	2.126989
828.000000	2.007924
829.000000	2.037212
830.000000	2.074398
831.000000	2.278908
832.000000	2.286816
833.000000	2.332383
834.000000	2.180390
835.000000	2.293851
836.000000	2.260319
837.000000	2.194603
838.000000	2.382915
839.000000	2.289288
840.000000	2.308340
841.000000	2.464680
842.000000	2.674337
843.000000	2.722621
844.000000	2.702872
845.000000	2.861678
846.000000	2.910267
847.000000	2.691446
848.000000	2.613148
849.000000	2.938359
850.000000	2.301270
851.000000	2.329209
852.000000	2.227033
853.000000	2.306335
854.000000	2.132782
855.000000	1.811862
856.000000	1.877889
857.000000	2.306971
858.000000	1.996619
859.000000	1.975980
860.000000	1.956303
861.000000	1.928747
862.000000	1.918158
863.000000	1.908200
864.000000	1.893363
865.000000	1.880911
866.000000	1.855276
867.000000	1.844020
868.000000	1.849865
869.000000	1.851493
870.000000	1.843901
871.000000	1.812983
872.000000	1.728915
873.000000	1.661374
874.000000	1.629916
875.000000	1.620657
876.000000	1.579827
877.000000	1.542536
878.000000	1.520230
879.000000	1.493037
880.000000	1.466948
881.000000	1.453912
882.000000	1.428038
883.000000	1.413086
884.000000	1.389455
885.000000	1.380932
886.000000	1.358368
887.000000	1.345012
888.000000	1.323541
889.000000	1.302491
890.000000	1.289752
891.000000	1.266539
892.000000	1.248208
893.000000	1.243060
894.000000	1.243139
895.000000	1.241219
896.000000	1.230742
897.000000	1.227430
898.000000	1.213333
899.000000	1.205301
900.000000	1.220036
901.000000	1.224584
902.000000	1.226627
903.000000	1.228189
904.000000	1.219501
905.000000	1.215594
906.000000	1.209205
907.000000	1.214495
908.000000	1.207200
909.000000	1.205994
910.000000	1.192167
911.000000	1.180985
912.000000	1.182554
913.000000	1.183096
914.000000	1.169937
915.000000	1.173452
916.000000	1.167097
917.000000	1.175020
918.000000	1.181690
919.000000	1.184255
920.000000	1.191205
921.000000	1.193607
922.000000	1.196835
923.000000	1.219180
924.000000	1.221787
925.000000	1.220879
926.000000	1.225866
927.000000	1.234115
928.000000	1.251329
929.000000	1.271453
930.000000	1.278999
931.000000	1.277349
932.000000	1.294554
933.000000	1.311576
934.000000	1.328457
935.000000	1.339861
936.000000	1.355912
937.000000	1.379589
938.000000	1.399367
939.000000	1.414964
940.000000	1.422474
941.000000	1.440683
942.000000	1.464174
943.000000	1.478434
944.000000	1.501111
945.000000	1.526574
946.000000	1.555175
947.000000	1.568743
948.000000	1.581264
949.000000	1.611289
950.000000	1.641894
951.000000	1.661495
952.000000	1.675905
953.000000	1.692194
954.000000	1.709115
955.000000	1.724921
956.000000	1.738597
957.000000	1.764451
958.000000	1.782503
959.000000	1.784532
960.000000	1.798972
961.000000	1.817751
962.000000	1.830352
963.000000	1.837613
964.000000	1.842679
965.000000	1.843512
966.000000	1.848555
967.000000	1.858312
968.000000	1.851704
969.000000	1.848196
970.000000	1.845851
971.000000	1.837742
972.000000	1.842226
973.000000	1.849738
974.000000	1.842512
975.000000	1.839025
976.000000	1.833899
977.000000	1.830532
978.000000	1.845798
979.000000	1.840450
980.000000	1.831767
981.000000	1.835755
982.000000	1.843807
983.000000	1.840639
984.000000	1.829906
985.000000	1.834406
986.000000	1.841379
987.000000	1.845259
988.000000	1.855207
989.000000	1.854567
990.000000	1.868652
991.000000	1.875969
992.000000	1.887066
993.000000	1.903714
994.000000	1.919442
995.000000	1.923647
996.000000	1.935141
997.000000	1.952647
998.000000	1.962844
999.000000	1.973987
1000.000000	1.984512
1001.000000	1.999604
1002.000000	2.010134
1003.000000	2.023265
1004.000000	2.034703
1005.000000	2.036839
1006.000000	2.039580
1007.000000	2.049608
1008.000000	2.053967
1009.000000	2.053357
1010.000000	2.060783
1011.000000	2.064886
1012.000000	2.074417
1013.000000	2.083716
1014.000000	2.090569
1015.000000	2.103361
1016.000000	2.116118
1017.000000	2.104444
1018.000000	2.103458
1019.000000	2.123430
1020.000000	2.132551
1021.000000	2.138814
1022.000000	2.156396
1023.000000	2.161687
1024.000000	2.157624
1025.000000	2.169911
1026.000000	2.184580
1027.000000	2.201100
1028.000000	2.205431
1029.000000	2.205634
1030.000000	2.206301
1031.000000	2.219776
1032.000000	2.232550
1033.000000	2.230545
1034.000000	2.236802
1035.000000	2.247431
1036.000000	2.260048
1037.000000	2.258625
1038.000000	2.262520
1039.000000	2.270647
1040.000000	2.276360
1041.000000	2.279909
1042.000000	2.285667
1043.000000	2.291054
1044.000000	2.304087
1045.000000	2.308892
1046.000000	2.320159
1047.000000	2.315603
1048.000000	2.333373
1049.000000	2.332715
1050.000000	2.331846
1051.000000	2.357521
1052.000000	2.353050
1053.000000	2.366320
1054.000000	2.362700
1055.000000	2.365263
1056.000000	2.359907
1057.000000	2.378431
1058.000000	2.375573
1059.000000	2.387433
1060.000000	2.392219
1061.000000	2.402668
1062.000000	2.398573
1063.000000	2.404144
1064.000000	2.402524
1065.000000	2.404584
1066.000000	2.420401
1067.000000	2.427895
1068.000000	2.405160
1069.000000	2.422486
1070.000000	2.421481
1071.000000	2.413636
1072.000000	2.428935
1073.000000	2.427991
1074.000000	2.424677
1075.000000	2.424668
1076.000000	2.431615
1077.000000	2.443556
1078.000000	2.440526
1079.000000	2.454144
1080.000000	2.461835
1081.000000	2.465881
1082.000000	2.462068
1083.000000	2.464082
1084.000000	2.467227
1085.000000	2.466035
1086.000000	2.485277
1087.000000	2.488274
1088.000000	2.496634
1089.000000	2.499481
1090.000000	2.496136
1091.000000	2.511057
1092.000000	2.510976
1093.000000	2.521105
1094.000000	2.518097
1095.000000	2.532778
1096.000000	2.537204
1097.000000	2.544575
1098.000000	2.554913
1099.000000	2.548906
1100.000000	2.565001
1101.000000	2.569401
1102.000000	2.577926
1103.000000	2.571310
1104.000000	2.585755
1105.000000	2.583371
1106.000000	2.581551
1107.000000	2.588254
1108.000000	2.591658
1109.000000	2.599007
1110.000000	2.602403
1111.000000	2.613828
1112.000000	2.610144
1113.000000	2.610096
1114.000000	2.611208
1115.000000	2.611124
1116.000000	2.611796
1117.000000	2.620842
1118.000000	2.611361
1119.000000	2.615579
1120.000000	2.592802
1121.000000	2.599303
1122.000000	2.587735
1123.000000	2.578698
1124.000000	2.578377
1125.000000	2.574229
1126.000000	2.570060
1127.000000	2.552220
1128.000000	2.533566
1129.000000	2.506111
1130.000000	2.484970
1131.000000	2.459674
1132.000000	2.436221
1133.000000	2.415034
1134.000000	2.376812
1135.000000	2.350123
1136.000000	2.325955
1137.000000	2.299745
1138.000000	2.273989
1139.000000	2.242364
1140.000000	2.211389
1141.000000	2.186066
1142.000000	2.163089
1143.000000	2.147455
1144.000000	2.127660
1145.000000	2.124961
1146.000000	2.111002
1147.000000	2.103112
1148.000000	2.109105
1149.000000	2.114338
1150.000000	2.118102
1151.000000	2.121019
1152.000000	2.109992
1153.000000	2.092715
1154.000000	2.093380
1155.000000	2.063290
1156.000000	2.041531
1157.000000	2.021191
1158.000000	2.004284
1159.000000	1.980675
1160.000000	1.962391
1161.000000	1.936515
1162.000000	1.924901
1163.000000	1.900192
1164.000000	1.875090
1165.000000	1.852240
1166.000000	1.833509
1167.000000	1.809632
1168.000000	1.793261
1169.000000	1.771948
1170.000000	1.754807
1171.000000	1.736861
1172.000000	1.728997
1173.000000	1.702463
1174.000000	1.684758
1175.000000	1.676256
1176.000000	1.654588
1177.000000	1.638574
1178.000000	1.613836
1179.000000	1.591493
1180.000000	1.557653
1181.000000	1.527974
1182.000000	1.502749
1183.000000	1.491587
1184.000000	1.474293
1185.000000	1.465392
1186.000000	1.462259
1187.000000	1.473777
1188.000000	1.501183
1189.000000	1.518614
1190.000000	1.546117
1191.000000	1.566593
1192.000000	1.592071
1193.000000	1.608486
1194.000000	1.632540
1195.000000	1.648581
1196.000000	1.653014
1197.000000	1.656675
1198.000000	1.664474
1199.000000	1.666338
1200.000000	1.661445
1201.000000	1.662005
1202.000000	1.668185
1203.000000	1.672080
1204.000000	1.671343
1205.000000	1.671263
1206.000000	1.674642
1207.000000	1.673048
1208.000000	1.679578
1209.000000	1.687686
1210.000000	1.696261
1211.000000	1.706312
1212.000000	1.712297
1213.000000	1.717897
1214.000000	1.730578
1215.000000	1.743709
1216.000000	1.757852
1217.000000	1.762996
1218.000000	1.770320
1219.000000	1.791728
1220.000000	1.807178
1221.000000	1.814545
1222.000000	1.829852
1223.000000	1.838681
1224.000000	1.855421
1225.000000	1.871284
1226.000000	1.885593
1227.000000	1.893330
1228.000000	1.907938
1229.000000	1.928095
1230.000000	1.939261
1231.000000	1.951202
1232.000000	1.966125
1233.000000	1.981205
1234.000000	1.988848
1235.000000	2.001168
1236.000000	2.016495
1237.000000	2.030269
1238.000000	2.035053
1239.000000	2.047071
1240.000000	2.063265
1241.000000	2.068678
1242.000000	2.077896
1243.000000	2.089406
1244.000000	2.094568
1245.000000	2.108250
1246.000000	2.119222
1247.000000	2.120307
1248.000000	2.123986
1249.000000	2.134479
1250.000000	2.142288
1251.000000	2.156091
1252.000000	2.159497
1253.000000	2.158062
1254.000000	2.159537
1255.000000	2.170353
1256.000000	2.187824
1257.000000	2.193833
1258.000000	2.188794
1259.000000	2.194869
1260.000000	2.202618
1261.000000	2.203867
1262.000000	2.208999
1263.000000	2.213611
1264.000000	2.215972
1265.000000	2.225180
1266.000000	2.237836
1267.000000	2.238035
1268.000000	2.243773
1269.000000	2.247587
1270.000000	2.254800
1271.000000	2.257616
1272.000000	2.269048
1273.000000	2.267412
1274.000000	2.270273
1275.000000	2.279162
1276.000000	2.291961
1277.000000	2.291643
1278.000000	2.293926
1279.000000	2.299293
1280.000000	2.318766
1281.000000	2.327092
1282.000000	2.330155
1283.000000	2.337687
1284.000000	2.347703
1285.000000	2.350458
1286.000000	2.363793
1287.000000	2.360611
1288.000000	2.361064
1289.000000	2.367248
1290.000000	2.379850
1291.000000	2.377198
1292.000000	2.364408
1293.000000	2.371468
1294.000000	2.370960
1295.000000	2.367590
1296.000000	2.376439
1297.000000	2.382872
1298.000000	2.375857
1299.000000	2.381127
1300.000000	2.378185
1301.000000	2.378058
1302.000000	2.374533
1303.000000	2.371057
1304.000000	2.369453
1305.000000	2.367511
1306.000000	2.367154
1307.000000	2.355472
1308.000000	2.350093
1309.000000	2.345525
1310.000000	2.333253
1311.000000	2.337765
1312.000000	2.335264
1313.000000	2.326734
1314.000000	2.333804
1315.000000	2.334499
1316.000000	2.317581
1317.000000	2.303337
1318.000000	2.292821
1319.000000	2.271348
1320.000000	2.282626
1321.000000	2.271008
1322.000000	2.261603
1323.000000	2.249638
1324.000000	2.236718
1325.000000	2.231054
1326.000000	2.217693
1327.000000	2.200008
1328.000000	2.202634
1329.000000	2.185665
1330.000000	2.161083
1331.000000	2.149420
1332.000000	2.141433
1333.000000	2.132994
1334.000000	2.117106
1335.000000	2.087381
1336.000000	2.080215
1337.000000	2.066548
1338.000000	2.058729
1339.000000	2.038341
1340.000000	2.030057
1341.000000	1.999133
1342.000000	1.972709
1343.000000	1.973631
1344.000000	1.944276
1345.000000	1.929354
1346.000000	1.912018
1347.000000	1.887046
1348.000000	1.869895
1349.000000	1.835840
1350.000000	1.825595
1351.000000	1.796177
1352.000000	1.779825
1353.000000	1.727139
1354.000000	1.715431
1355.000000	1.680997
1356.000000	1.685347
1357.000000	1.677168
1358.000000	1.666377
1359.000000	1.680747
1360.000000	1.659146
1361.000000	1.664799
1362.000000	1.653981
1363.000000	1.651881
1364.000000	1.647751
1365.000000	1.638973
1366.000000	1.609803
1367.000000	1.586964
1368.000000	1.583815
1369.000000	1.571027
1370.000000	1.553790
1371.000000	1.530506
1372.000000	1.516096
1373.000000	1.495170
1374.000000	1.469202
1375.000000	1.471113
1376.000000	1.452020
1377.000000	1.443431
1378.000000	1.428551
1379.000000	1.406468
1380.000000	1.415292
1381.000000	1.405099
1382.000000	1.386395
1383.000000	1.373478
1384.000000	1.347975
1385.000000	1.320954
1386.000000	1.273658
1387.000000	1.273338
1388.000000	1.251021
1389.000000	1.247609
1390.000000	1.210470
1391.000000	1.213371
1392.000000	1.213251
1393.000000	1.199984
1394.000000	1.192983
1395.000000	1.193168
1396.000000	1.201526
1397.000000	1.181899
1398.000000	1.163358
1399.000000	1.139109
1400.000000	1.154363
1401.000000	1.141280
1402.000000	1.106300
1403.000000	1.093104
1404.000000	1.044730
1405.000000	1.054268
1406.000000	1.035831
1407.000000	1.025053
1408.000000	1.006146
1409.000000	0.991291
1410.000000	0.983265
1411.000000	0.976863
1412.000000	0.961607
1413.000000	0.943832
1414.000000	0.948809
1415.000000	0.946670
1416.000000	0.923686
1417.000000	0.903329
1418.000000	0.904476
1419.000000	0.894632
1420.000000	0.892605
1421.000000	0.884462
1422.000000	0.881893
1423.000000	0.862056
1424.000000	0.866940
1425.000000	0.860720
1426.000000	0.843134
1427.000000	0.828184
1428.000000	0.828624
1429.000000	0.829486
1430.000000	0.831732
1431.000000	0.814006
1432.000000	0.814402
1433.000000	0.814276
1434.000000	0.813435
1435.000000	0.803864
1436.000000	0.799632
1437.000000	0.816985
1438.000000	0.798882
1439.000000	0.804070
1440.000000	0.812181
1441.000000	0.798545
1442.000000	0.793843
1443.000000	0.794640
1444.000000	0.779812
1445.000000	0.785145
1446.000000	0.793031
1447.000000	0.789557
1448.000000	0.786917
1449.000000	0.789919
1450.000000	0.770893
1451.000000	0.770862
1452.000000	0.768561
1453.000000	0.774988
1454.000000	0.774097
1455.000000	0.767189
1456.000000	0.770093
1457.000000	0.762058
1458.000000	0.766745
1459.000000	0.750569
1460.000000	0.753697
1461.000000	0.756829
1462.000000	0.750583
1463.000000	0.743504
1464.000000	0.745228
1465.000000	0.739604
1466.000000	0.740254
1467.000000	0.748133
1468.000000	0.731471
1469.000000	0.733249
1470.000000	0.736608
1471.000000	0.733631
1472.000000	0.727313
1473.000000	0.722763
1474.000000	0.723426
1475.000000	0.712672
1476.000000	0.714565
1477.000000	0.714304
1478.000000	0.704943
1479.000000	0.697674
1480.000000	0.705858
1481.000000	0.704827
1482.000000	0.703611
1483.000000	0.694306
1484.000000	0.685216
1485.000000	0.690649
1486.000000	0.681483
1487.000000	0.687323
1488.000000	0.690758
1489.000000	0.680592
1490.000000	0.680682
1491.000000	0.684139
1492.000000	0.679539
1493.000000	0.678655
1494.000000	0.666491
1495.000000	0.661124
1496.000000	0.659546
1497.000000	0.666663
1498.000000	0.675071
1499.000000	0.670097
1500.000000	0.673133
1501.000000	0.670633
1502.000000	0.664793
1503.000000	0.662077
1504.000000	0.661758
1505.000000	0.667255
1506.000000	0.656741
1507.000000	0.645277
1508.000000	0.652384
1509.000000	0.669211
1510.000000	0.673058
1511.000000	0.664870
1512.000000	0.661175
1513.000000	0.664805
1514.000000	0.669802
1515.000000	0.670194
1516.000000	0.670576
1517.000000	0.671590
1518.000000	0.674427
1519.000000	0.672887
1520.000000	0.675111
1521.000000	0.676242
1522.000000	0.674097
1523.000000	0.683668
1524.000000	0.682999
1525.000000	0.685848
1526.000000	0.691617
1527.000000	0.687620
1528.000000	0.697438
1529.000000	0.697032
1530.000000	0.691062
1531.000000	0.693632
1532.000000	0.705379
1533.000000	0.708193
1534.000000	0.705082
1535.000000	0.707609
1536.000000	0.706789
1537.000000	0.707441
1538.000000	0.714358
1539.000000	0.726937
1540.000000	0.738215
1541.000000	0.737054
1542.000000	0.738791
1543.000000	0.744213
1544.000000	0.754536
1545.000000	0.766025
1546.000000	0.766914
1547.000000	0.768374
1548.000000	0.780606
1549.000000	0.782495
1550.000000	0.779980
1551.000000	0.790069
1552.000000	0.796529
1553.000000	0.794963
1554.000000	0.786825
1555.000000	0.800039
1556.000000	0.810893
1557.000000	0.802077
1558.000000	0.796013
1559.000000	0.803685
1560.000000	0.812814
1561.000000	0.799753
1562.000000	0.796582
1563.000000	0.801382
1564.000000	0.799389
1565.000000	0.805531
1566.000000	0.805680
1567.000000	0.806870
1568.000000	0.806472
1569.000000	0.797675
1570.000000	0.804877
1571.000000	0.808495
1572.000000	0.812500
1573.000000	0.801507
1574.000000	0.802740
1575.000000	0.808867
1576.000000	0.816077
1577.000000	0.815018
1578.000000	0.812736
1579.000000	0.810075
1580.000000	0.808983
1581.000000	0.813566
1582.000000	0.808549
1583.000000	0.810593
1584.000000	0.808401
1585.000000	0.805792
1586.000000	0.814281
1587.000000	0.811467
1588.000000	0.813911
1589.000000	0.817619
1590.000000	0.812754
1591.000000	0.812379
1592.000000	0.806784
1593.000000	0.801127
1594.000000	0.809422
1595.000000	0.805725
1596.000000	0.805276
1597.000000	0.802600
1598.000000	0.805055
1599.000000	0.803568
1600.000000	0.802470
1601.000000	0.806107
1602.000000	0.812492
1603.000000	0.811014
1604.000000	0.820999
1605.000000	0.825776
1606.000000	0.814304
1607.000000	0.823466
1608.000000	0.818341
1609.000000	0.819344
1610.000000	0.823742
1611.000000	0.811504
1612.000000	0.813932
1613.000000	0.829594
1614.000000	0.817347
1615.000000	0.827376
1616.000000	0.824656
1617.000000	0.838189
1618.000000	0.837785
1619.000000	0.846653
1620.000000	0.851023
1621.000000	0.839265
1622.000000	0.844824
1623.000000	0.865252
1624.000000	0.861523
1625.000000	0.878893
1626.000000	0.870897
1627.000000	0.872685
1628.000000	0.868417
1629.000000	0.888854
1630.000000	0.897859
1631.000000	0.904209
1632.000000	0.909353
1633.000000	0.906642
1634.000000	0.904177
1635.000000	0.895997
1636.000000	0.905254
1637.000000	0.914667
1638.000000	0.916949
1639.000000	0.925739
1640.000000	0.935989
1641.000000	0.938311
1642.000000	0.935505
1643.000000	0.945528
1644.000000	0.936624
1645.000000	0.950361
1646.000000	0.954328
1647.000000	0.962506
1648.000000	0.965388
1649.000000	0.964182
1650.000000	0.967878
1651.000000	0.975543
1652.000000	0.977153
1653.000000	0.979174
1654.000000	0.974089
1655.000000	0.994215
1656.000000	0.991828
1657.000000	0.982839
1658.000000	0.984596
1659.000000	0.993311
1660.000000	0.990060
1661.000000	0.992555
1662.000000	0.995364
1663.000000	0.989655
1664.000000	0.993332
1665.000000	0.985355
1666.000000	0.995099
1667.000000	0.997768
1668.000000	1.011602
1669.000000	0.995883
1670.000000	1.015256
1671.000000	1.011150
1672.000000	0.980346
1673.000000	0.986071
1674.000000	0.969436
1675.000000	0.983668
1676.000000	0.974537
1677.000000	0.962498
1678.000000	0.960642
1679.000000	0.943876
1680.000000	0.943324
1681.000000	0.914010
1682.000000	0.895729
1683.000000	0.883990
1684.000000	0.871491
1685.000000	0.863251
1686.000000	0.844636
1687.000000	0.852185
1688.000000	0.850097
1689.000000	0.836410
1690.000000	0.826156
1691.000000	0.831631
1692.000000	0.800557
1693.000000	0.790258
1694.000000	0.776431
1695.000000	0.769172
1696.000000	0.766736
1697.000000	0.758434
1698.000000	0.738533
1699.000000	0.720679
1700.000000	0.725263
1701.000000	0.726749
1702.000000	0.711285
1703.000000	0.698362
1704.000000	0.695301
1705.000000	0.692840
1706.000000	0.693409
1707.000000	0.663844
1708.000000	0.659995
1709.000000	0.647056
1710.000000	0.639581
1711.000000	0.636412
1712.000000	0.637013
1713.000000	0.616081
1714.000000	0.614286
1715.000000	0.615038
1716.000000	0.601185
1717.000000	0.587287
1718.000000	0.570825
1719.000000	0.570398
1720.000000	0.556241
1721.000000	0.547440
1722.000000	0.542690
1723.000000	0.542849
1724.000000	0.534920
1725.000000	0.526501
1726.000000	0.503846
1727.000000	0.498998
1728.000000	0.491083
1729.000000	0.489045
1730.000000	0.471322
1731.000000	0.471964
1732.000000	0.480863
1733.000000	0.480319
1734.000000	0.488176
1735.000000	0.504585
1736.000000	0.520459
1737.000000	0.531250
1738.000000	0.546614
1739.000000	0.565206
1740.000000	0.568987
1741.000000	0.590797
1742.000000	0.599506
1743.000000	0.605119
1744.000000	0.616884
1745.000000	0.618972
1746.000000	0.615921
1747.000000	0.614302
1748.000000	0.615149
1749.000000	0.626622
1750.000000	0.626804
1751.000000	0.612901
1752.000000	0.599035
1753.000000	0.601595
1754.000000	0.603078
1755.000000	0.599757
1756.000000	0.590418
1757.000000	0.579807
1758.000000	0.566494
1759.000000	0.571369
1760.000000	0.572899
1761.000000	0.559154
1762.000000	0.557135
1763.000000	0.563769
1764.000000	0.568037
1765.000000	0.571152
1766.000000	0.579697
1767.000000	0.589450
1768.000000	0.600443
1769.000000	0.616105
1770.000000	0.632867
1771.000000	0.640625
1772.000000	0.656580
1773.000000	0.667771
1774.000000	0.676165
1775.000000	0.678896
1776.000000	0.687817
1777.000000	0.696659
1778.000000	0.710337
1779.000000	0.718483
1780.000000	0.724196
1781.000000	0.729318
1782.000000	0.737354
1783.000000	0.746562
1784.000000	0.757818
1785.000000	0.762385
1786.000000	0.766120
1787.000000	0.770185
1788.000000	0.774943
1789.000000	0.781809
1790.000000	0.781008
1791.000000	0.787908
1792.000000	0.798690
1793.000000	0.801815
1794.000000	0.805820
1795.000000	0.809836
1796.000000	0.804094
1797.000000	0.802790
1798.000000	0.806858
1799.000000	0.811805
1800.000000	0.818577
1801.000000	0.829024
1802.000000	0.826371
1803.000000	0.826832
1804.000000	0.837321
1805.000000	0.833017
1806.000000	0.840835
1807.000000	0.853681
1808.000000	0.850868
1809.000000	0.848651
1810.000000	0.849729
1811.000000	0.858996
1812.000000	0.869698
1813.000000	0.864452
1814.000000	0.859987
1815.000000	0.864155
1816.000000	0.868280
1817.000000	0.860956
1818.000000	0.856547
1819.000000	0.862700
1820.000000	0.875735
1821.000000	0.892288
1822.000000	0.903473
1823.000000	0.900931
1824.000000	0.893424
1825.000000	0.890682
1826.000000	0.897846
1827.000000	0.894770
1828.000000	0.906022
1829.000000	0.918581
1830.000000	0.924500
1831.000000	0.933051
1832.000000	0.936651
1833.000000	0.915294
1834.000000	0.917166
1835.000000	0.923194
1836.000000	0.935393
1837.000000	0.944140
1838.000000	0.941156
1839.000000	0.943359
1840.000000	0.943743
1841.000000	0.953383
1842.000000	0.969180
1843.000000	0.972330
1844.000000	0.968855
1845.000000	0.960610
1846.000000	0.954428
1847.000000	0.960525
1848.000000	0.980496
1849.000000	0.995366
1850.000000	0.995061
1851.000000	0.986640
1852.000000	0.990405
1853.000000	0.985117
1854.000000	0.990275
1855.000000	0.985045
1856.000000	0.982274
1857.000000	0.975405
1858.000000	0.984676
1859.000000	0.989949
1860.000000	0.994672
1861.000000	0.999179
1862.000000	1.006813
1863.000000	0.991394
1864.000000	0.965933
1865.000000	0.957838
1866.000000	0.941201
1867.000000	0.935601
1868.000000	0.933617
1869.000000	0.915678
1870.000000	0.908770
1871.000000	0.916313
1872.000000	0.923125
1873.000000	0.917862
1874.000000	0.907408
1875.000000	0.888009
1876.000000	0.874807
1877.000000	0.839652
1878.000000	0.825261
1879.000000	0.791680
1880.000000	0.745916
1881.000000	0.735803
1882.000000	0.696782
1883.000000	0.697333
1884.000000	0.682843
1885.000000	0.663524
1886.000000	0.655386
1887.000000	0.629006
1888.000000	0.620757
1889.000000	0.602406
1890.000000	0.602453
1891.000000	0.599325
1892.000000	0.580420
1893.000000	0.581760
1894.000000	0.581203
1895.000000	0.557933
1896.000000	0.533126
1897.000000	0.514401
1898.000000	0.521656
1899.000000	0.516676
1900.000000	0.522573
1901.000000	0.517076
1902.000000	0.511429
1903.000000	0.484526
1904.000000	0.481566
1905.000000	0.490326
1906.000000	0.487349
1907.000000	0.484681
1908.000000	0.474343
1909.000000	0.447804
1910.000000	0.442071
1911.000000	0.440512
1912.000000	0.436949
1913.000000	0.453082
1914.000000	0.454971
1915.000000	0.430640
1916.000000	0.432515
1917.000000	0.416694
1918.000000	0.412529
1919.000000	0.412217
1920.000000	0.418717
1921.000000	0.415023
1922.000000	0.415268
1923.000000	0.431079
1924.000000	0.419682
1925.000000	0.401201
1926.000000	0.414326
1927.000000	0.409719
1928.000000	0.409121
1929.000000	0.411262
1930.000000	0.414270
1931.000000	0.408758
1932.000000	0.404309
1933.000000	0.390848
1934.000000	0.396868
1935.000000	0.392284
1936.000000	0.408824
1937.000000	0.398175
1938.000000	0.399494
1939.000000	0.407836
1940.000000	0.416169
1941.000000	0.404508
1942.000000	0.401709
1943.000000	0.417312
1944.000000	0.402872
1945.000000	0.398603
1946.000000	0.417085
1947.000000	0.395588
1948.000000	0.406191
1949.000000	0.404698
1950.000000	0.426134
1951.000000	0.411574
1952.000000	0.399738
1953.000000	0.419969
1954.000000	0.427838
1955.000000	0.417541
1956.000000	0.425818
1957.000000	0.423517
1958.000000	0.426253
1959.000000	0.422428
1960.000000	0.421191
1961.000000	0.418246
1962.000000	0.434692
1963.000000	0.439921
1964.000000	0.439415
1965.000000	0.444768
1966.000000	0.448025
1967.000000	0.444921
1968.000000	0.447573
1969.000000	0.450961
1970.000000	0.467414
1971.000000	0.449131
1972.000000	0.456684
1973.000000	0.470605
1974.000000	0.472535
1975.000000	0.471697
1976.000000	0.472534
1977.000000	0.482079
1978.000000	0.482655
1979.000000	0.474515
1980.000000	0.490374
1981.000000	0.497991
1982.000000	0.498866
1983.000000	0.499605
1984.000000	0.492243
1985.000000	0.497596
1986.000000	0.510904
1987.000000	0.501512
1988.000000	0.499509
1989.000000	0.510025
1990.000000	0.509488
1991.000000	0.509356
1992.000000	0.525035
1993.000000	0.515826
1994.000000	0.515007
1995.000000	0.519310
1996.000000	0.513733
1997.000000	0.504107
1998.000000	0.516517
1999.000000	0.511565
