PE UV       SUBTECH     SPECTRUM    ASCII       PEDS        4.00        
   -1
CICIMAUCR0240-3.Sample.ASC
24/06/20
12:39:27.00
24/06/20
12:39:27.00
Vinicio Soto Monge
C. resplendens. Sex M. Dorsal.
250,000000
1
Lambda 1050
1050L1511233
PerkinElmer UV WinLab 6.3.2.0749 / 2.02.05 Lambda 900 UV/VIS/NIR, Aug  7 2015 09:38:08

0
0
3350/servo 860,8/2
0
0
UV/VIS
1
1
1
DoubleDePol,CommonBeamDepol,RBeamAtt,SBeamAtt,60mm sphere, WB InGaAs Detector
0
0
0
0
Program
Program
3350/servo 860,8/2
3350/0,2 860,8/0,2
3350/0,2 860,8/0,2
0
15.00
 
 
 
0
 
860,8
319,2
860,8
Front
100
on
S:100 R:100
0
0
0
0
 
0
 
 
 
0
 
 
0
0
0
0
0
 
 
 
 
0
0


0
0
#HDR
-1
-1
#GR
nm
%R
1.0
0.0
2500,000000
-1,000000
2251
8
89,336400
5,668900
#DATA
250.000000	0.176731
251.000000	0.150029
252.000000	0.168263
253.000000	0.157458
254.000000	0.173264
255.000000	0.163931
256.000000	0.176779
257.000000	0.123646
258.000000	0.136803
259.000000	0.103189
260.000000	0.140201
261.000000	0.133399
262.000000	0.146318
263.000000	0.130335
264.000000	0.139929
265.000000	0.123676
266.000000	0.137840
267.000000	0.138842
268.000000	0.119266
269.000000	0.118988
270.000000	0.127304
271.000000	0.122229
272.000000	0.102404
273.000000	0.113107
274.000000	0.110752
275.000000	0.121570
276.000000	0.124685
277.000000	0.127614
278.000000	0.107620
279.000000	0.120847
280.000000	0.111201
281.000000	0.098461
282.000000	0.117280
283.000000	0.126686
284.000000	0.135702
285.000000	0.140279
286.000000	0.145867
287.000000	0.112987
288.000000	0.090918
289.000000	0.077648
290.000000	0.075383
291.000000	0.112551
292.000000	0.122533
293.000000	0.110531
294.000000	0.104663
295.000000	0.072094
296.000000	0.081896
297.000000	0.102522
298.000000	0.100864
299.000000	0.111979
300.000000	0.098570
301.000000	0.091961
302.000000	0.092119
303.000000	0.079886
304.000000	0.078036
305.000000	0.098694
306.000000	0.096107
307.000000	0.106329
308.000000	0.102756
309.000000	0.071609
310.000000	0.069704
311.000000	0.038617
312.000000	0.070100
313.000000	0.062531
314.000000	0.069446
315.000000	0.102009
316.000000	0.227144
317.000000	0.199606
318.000000	0.195557
319.000000	0.130596
320.000000	0.062688
321.000000	0.241059
322.000000	0.167509
323.000000	0.144336
324.000000	0.158144
325.000000	0.199408
326.000000	0.065782
327.000000	0.064143
328.000000	0.075094
329.000000	0.061004
330.000000	0.025344
331.000000	0.056574
332.000000	0.090297
333.000000	0.091421
334.000000	0.053210
335.000000	0.120812
336.000000	0.059409
337.000000	0.112909
338.000000	0.082497
339.000000	0.148812
340.000000	0.158607
341.000000	0.145250
342.000000	0.132721
343.000000	0.113583
344.000000	0.158403
345.000000	0.064900
346.000000	0.041290
347.000000	0.053508
348.000000	0.071168
349.000000	0.090829
350.000000	0.128195
351.000000	0.155823
352.000000	0.192646
353.000000	0.222682
354.000000	0.116571
355.000000	0.126326
356.000000	0.051879
357.000000	0.031296
358.000000	0.108250
359.000000	0.087811
360.000000	0.050011
361.000000	0.040657
362.000000	0.020729
363.000000	0.045478
364.000000	0.084677
365.000000	0.128675
366.000000	0.090163
367.000000	0.076408
368.000000	0.104957
369.000000	0.125241
370.000000	0.193039
371.000000	0.124384
372.000000	0.108039
373.000000	0.173790
374.000000	0.044287
375.000000	0.103214
376.000000	0.053398
377.000000	0.033439
378.000000	0.014872
379.000000	0.015020
380.000000	0.025675
381.000000	0.009425
382.000000	0.016134
383.000000	0.031386
384.000000	0.023461
385.000000	0.018955
386.000000	0.024297
387.000000	0.020512
388.000000	0.020964
389.000000	0.029519
390.000000	0.025946
391.000000	0.023303
392.000000	0.024845
393.000000	0.027137
394.000000	0.040201
395.000000	0.062477
396.000000	0.070860
397.000000	0.070454
398.000000	0.072351
399.000000	0.106071
400.000000	0.129048
401.000000	0.138212
402.000000	0.177522
403.000000	0.198568
404.000000	0.205074
405.000000	0.228354
406.000000	0.266373
407.000000	0.300683
408.000000	0.335578
409.000000	0.352041
410.000000	0.387716
411.000000	0.410249
412.000000	0.430801
413.000000	0.458575
414.000000	0.493264
415.000000	0.509950
416.000000	0.504470
417.000000	0.546462
418.000000	0.559310
419.000000	0.557826
420.000000	0.567575
421.000000	0.609975
422.000000	0.596493
423.000000	0.586056
424.000000	0.569885
425.000000	0.565098
426.000000	0.569467
427.000000	0.571068
428.000000	0.555894
429.000000	0.519336
430.000000	0.507319
431.000000	0.486855
432.000000	0.459142
433.000000	0.429186
434.000000	0.419792
435.000000	0.401107
436.000000	0.373492
437.000000	0.356135
438.000000	0.325361
439.000000	0.304141
440.000000	0.289755
441.000000	0.276771
442.000000	0.252840
443.000000	0.247730
444.000000	0.231315
445.000000	0.213104
446.000000	0.177169
447.000000	0.167474
448.000000	0.113907
449.000000	0.126482
450.000000	0.145616
451.000000	0.121655
452.000000	0.124273
453.000000	0.111629
454.000000	0.113960
455.000000	0.097743
456.000000	0.105697
457.000000	0.113855
458.000000	0.117819
459.000000	0.147107
460.000000	0.162990
461.000000	0.176855
462.000000	0.214564
463.000000	0.253853
464.000000	0.288176
465.000000	0.321790
466.000000	0.381522
467.000000	0.420911
468.000000	0.492350
469.000000	0.546987
470.000000	0.591226
471.000000	0.649969
472.000000	0.699544
473.000000	0.744563
474.000000	0.790864
475.000000	0.845352
476.000000	0.889950
477.000000	0.922332
478.000000	0.923173
479.000000	0.939037
480.000000	0.950854
481.000000	0.945135
482.000000	0.957458
483.000000	0.914838
484.000000	0.876833
485.000000	0.782694
486.000000	0.737249
487.000000	0.673052
488.000000	0.591861
489.000000	0.523309
490.000000	0.472742
491.000000	0.449553
492.000000	0.450989
493.000000	0.431169
494.000000	0.447534
495.000000	0.481303
496.000000	0.507725
497.000000	0.510363
498.000000	0.490557
499.000000	0.496803
500.000000	0.469436
501.000000	0.438758
502.000000	0.363620
503.000000	0.326852
504.000000	0.250582
505.000000	0.169693
506.000000	0.128709
507.000000	0.134196
508.000000	0.122463
509.000000	0.225977
510.000000	0.286206
511.000000	0.347415
512.000000	0.422006
513.000000	0.472412
514.000000	0.526896
515.000000	0.585921
516.000000	0.616560
517.000000	0.642504
518.000000	0.677043
519.000000	0.704987
520.000000	0.717320
521.000000	0.715404
522.000000	0.726148
523.000000	0.735473
524.000000	0.724770
525.000000	0.731330
526.000000	0.712684
527.000000	0.711904
528.000000	0.705180
529.000000	0.699310
530.000000	0.709941
531.000000	0.722273
532.000000	0.724251
533.000000	0.754765
534.000000	0.779077
535.000000	0.792990
536.000000	0.820207
537.000000	0.806540
538.000000	0.816500
539.000000	0.820955
540.000000	0.800188
541.000000	0.771657
542.000000	0.753599
543.000000	0.753752
544.000000	0.739519
545.000000	0.698199
546.000000	0.661189
547.000000	0.616418
548.000000	0.622255
549.000000	0.575380
550.000000	0.541300
551.000000	0.535176
552.000000	0.502619
553.000000	0.479568
554.000000	0.466842
555.000000	0.444223
556.000000	0.429130
557.000000	0.424709
558.000000	0.419141
559.000000	0.402547
560.000000	0.414730
561.000000	0.424005
562.000000	0.438097
563.000000	0.421263
564.000000	0.452218
565.000000	0.460357
566.000000	0.468826
567.000000	0.480922
568.000000	0.513334
569.000000	0.537557
570.000000	0.562875
571.000000	0.568978
572.000000	0.576192
573.000000	0.612062
574.000000	0.618954
575.000000	0.609901
576.000000	0.604076
577.000000	0.600587
578.000000	0.597850
579.000000	0.587554
580.000000	0.567308
581.000000	0.533023
582.000000	0.522544
583.000000	0.513955
584.000000	0.485017
585.000000	0.501986
586.000000	0.492265
587.000000	0.465674
588.000000	0.472333
589.000000	0.493181
590.000000	0.484678
591.000000	0.494364
592.000000	0.495825
593.000000	0.498044
594.000000	0.511439
595.000000	0.566243
596.000000	0.625112
597.000000	0.649594
598.000000	0.696115
599.000000	0.742001
600.000000	0.775332
601.000000	0.801010
602.000000	0.860533
603.000000	0.885277
604.000000	0.892050
605.000000	0.901281
606.000000	0.930882
607.000000	0.941986
608.000000	0.949023
609.000000	0.972993
610.000000	0.994601
611.000000	0.977857
612.000000	0.966437
613.000000	0.951868
614.000000	0.967059
615.000000	0.987234
616.000000	0.968648
617.000000	0.969901
618.000000	1.021836
619.000000	1.028290
620.000000	1.041810
621.000000	1.088307
622.000000	1.118317
623.000000	1.158437
624.000000	1.228775
625.000000	1.229102
626.000000	1.218192
627.000000	1.240114
628.000000	1.226605
629.000000	1.200069
630.000000	1.179568
631.000000	1.150837
632.000000	1.107038
633.000000	1.033305
634.000000	0.952498
635.000000	0.874365
636.000000	0.795158
637.000000	0.736975
638.000000	0.654979
639.000000	0.593646
640.000000	0.582559
641.000000	0.566920
642.000000	0.556726
643.000000	0.595157
644.000000	0.645259
645.000000	0.703522
646.000000	0.764870
647.000000	0.832486
648.000000	0.900762
649.000000	0.954237
650.000000	1.006400
651.000000	1.076917
652.000000	1.137861
653.000000	1.176495
654.000000	1.239508
655.000000	1.302709
656.000000	1.350361
657.000000	1.368595
658.000000	1.380833
659.000000	1.378433
660.000000	1.378591
661.000000	1.373636
662.000000	1.350762
663.000000	1.312191
664.000000	1.234127
665.000000	1.185607
666.000000	1.168994
667.000000	1.096803
668.000000	1.022112
669.000000	0.952536
670.000000	0.870967
671.000000	0.828023
672.000000	0.775785
673.000000	0.721702
674.000000	0.647960
675.000000	0.594338
676.000000	0.547606
677.000000	0.466296
678.000000	0.400677
679.000000	0.364618
680.000000	0.327787
681.000000	0.282385
682.000000	0.243367
683.000000	0.212839
684.000000	0.219837
685.000000	0.215913
686.000000	0.185270
687.000000	0.193645
688.000000	0.226702
689.000000	0.236192
690.000000	0.252677
691.000000	0.277645
692.000000	0.332485
693.000000	0.353219
694.000000	0.381063
695.000000	0.372698
696.000000	0.405600
697.000000	0.431659
698.000000	0.438509
699.000000	0.487443
700.000000	0.505227
701.000000	0.499628
702.000000	0.535462
703.000000	0.528541
704.000000	0.530073
705.000000	0.531226
706.000000	0.544164
707.000000	0.556147
708.000000	0.527379
709.000000	0.554383
710.000000	0.548197
711.000000	0.553618
712.000000	0.544982
713.000000	0.556322
714.000000	0.546479
715.000000	0.505155
716.000000	0.519572
717.000000	0.504211
718.000000	0.492017
719.000000	0.510202
720.000000	0.523813
721.000000	0.486306
722.000000	0.475983
723.000000	0.474446
724.000000	0.490256
725.000000	0.439448
726.000000	0.460961
727.000000	0.485061
728.000000	0.548475
729.000000	0.562900
730.000000	0.506642
731.000000	0.514589
732.000000	0.566336
733.000000	0.557128
734.000000	0.596903
735.000000	0.621441
736.000000	0.667150
737.000000	0.614097
738.000000	0.705196
739.000000	0.618853
740.000000	0.626528
741.000000	0.640860
742.000000	0.741358
743.000000	0.717719
744.000000	0.655706
745.000000	0.730581
746.000000	0.746731
747.000000	0.666499
748.000000	0.667374
749.000000	0.735064
750.000000	0.685660
751.000000	0.700731
752.000000	0.696864
753.000000	0.623629
754.000000	0.632664
755.000000	0.693247
756.000000	0.595577
757.000000	0.693661
758.000000	0.696063
759.000000	0.659830
760.000000	0.691146
761.000000	0.726375
762.000000	0.722290
763.000000	0.730742
764.000000	0.699464
765.000000	0.742853
766.000000	0.819465
767.000000	0.765927
768.000000	0.732513
769.000000	0.762508
770.000000	0.726420
771.000000	0.775315
772.000000	0.782540
773.000000	0.723459
774.000000	0.781829
775.000000	0.865934
776.000000	0.736745
777.000000	0.886263
778.000000	0.842529
779.000000	0.758523
780.000000	0.907466
781.000000	0.903426
782.000000	0.846623
783.000000	0.990558
784.000000	0.828213
785.000000	0.693073
786.000000	0.893759
787.000000	0.841213
788.000000	0.759565
789.000000	0.751755
790.000000	0.706480
791.000000	0.821684
792.000000	0.563956
793.000000	0.629731
794.000000	0.714951
795.000000	0.586882
796.000000	0.681117
797.000000	0.609292
798.000000	0.660411
799.000000	0.529304
800.000000	0.640504
801.000000	0.709919
802.000000	0.541868
803.000000	0.548102
804.000000	0.607500
805.000000	0.553176
806.000000	0.580035
807.000000	0.491158
808.000000	0.542582
809.000000	0.434171
810.000000	0.492673
811.000000	0.526320
812.000000	0.534615
813.000000	0.620130
814.000000	0.548908
815.000000	0.475450
816.000000	0.464239
817.000000	0.619003
818.000000	0.620258
819.000000	0.723912
820.000000	0.667342
821.000000	0.777468
822.000000	0.679971
823.000000	0.691514
824.000000	0.828486
825.000000	0.639496
826.000000	0.721242
827.000000	0.721338
828.000000	0.638386
829.000000	0.549746
830.000000	0.785505
831.000000	0.634614
832.000000	0.686865
833.000000	0.588371
834.000000	0.717759
835.000000	0.609792
836.000000	0.718773
837.000000	0.700452
838.000000	0.716261
839.000000	0.575279
840.000000	0.607383
841.000000	0.688130
842.000000	0.677375
843.000000	0.465786
844.000000	0.622454
845.000000	0.435225
846.000000	0.721575
847.000000	0.508267
848.000000	0.544843
849.000000	0.576354
850.000000	0.569654
851.000000	0.646121
852.000000	0.504996
853.000000	0.318995
854.000000	0.021009
855.000000	0.348650
856.000000	0.595211
857.000000	0.275316
858.000000	0.401801
859.000000	0.392310
860.000000	0.386186
861.000000	0.376413
862.000000	0.377700
863.000000	0.373895
864.000000	0.368111
865.000000	0.360415
866.000000	0.356200
867.000000	0.347842
868.000000	0.330871
869.000000	0.307901
870.000000	0.301073
871.000000	0.290847
872.000000	0.242799
873.000000	0.211575
874.000000	0.185916
875.000000	0.152275
876.000000	0.122088
877.000000	0.107143
878.000000	0.125545
879.000000	0.133045
880.000000	0.143861
881.000000	0.132085
882.000000	0.155596
883.000000	0.161810
884.000000	0.165407
885.000000	0.162096
886.000000	0.172352
887.000000	0.164551
888.000000	0.151422
889.000000	0.136576
890.000000	0.150601
891.000000	0.153783
892.000000	0.173056
893.000000	0.182899
894.000000	0.176050
895.000000	0.204738
896.000000	0.194191
897.000000	0.170558
898.000000	0.146436
899.000000	0.119602
900.000000	0.100357
901.000000	0.076101
902.000000	0.065530
903.000000	0.050481
904.000000	0.032014
905.000000	0.046851
906.000000	0.073300
907.000000	0.091775
908.000000	0.096785
909.000000	0.115120
910.000000	0.131950
911.000000	0.134736
912.000000	0.145307
913.000000	0.154889
914.000000	0.159005
915.000000	0.170629
916.000000	0.174303
917.000000	0.180996
918.000000	0.179593
919.000000	0.185540
920.000000	0.218018
921.000000	0.227913
922.000000	0.238708
923.000000	0.264481
924.000000	0.293551
925.000000	0.309758
926.000000	0.317534
927.000000	0.336546
928.000000	0.349450
929.000000	0.355218
930.000000	0.362718
931.000000	0.359041
932.000000	0.347654
933.000000	0.352996
934.000000	0.356158
935.000000	0.347306
936.000000	0.348627
937.000000	0.347290
938.000000	0.347005
939.000000	0.365060
940.000000	0.370042
941.000000	0.380699
942.000000	0.392949
943.000000	0.403358
944.000000	0.418223
945.000000	0.419448
946.000000	0.428990
947.000000	0.444700
948.000000	0.443291
949.000000	0.449170
950.000000	0.458374
951.000000	0.462125
952.000000	0.473712
953.000000	0.478236
954.000000	0.478219
955.000000	0.474997
956.000000	0.473159
957.000000	0.496339
958.000000	0.497519
959.000000	0.498548
960.000000	0.514477
961.000000	0.528023
962.000000	0.549202
963.000000	0.566093
964.000000	0.593359
965.000000	0.616726
966.000000	0.631207
967.000000	0.658660
968.000000	0.679442
969.000000	0.699078
970.000000	0.717358
971.000000	0.732245
972.000000	0.755703
973.000000	0.773092
974.000000	0.779270
975.000000	0.791521
976.000000	0.807667
977.000000	0.821728
978.000000	0.828477
979.000000	0.835325
980.000000	0.853753
981.000000	0.867383
982.000000	0.885429
983.000000	0.891326
984.000000	0.910026
985.000000	0.933877
986.000000	0.951284
987.000000	0.958166
988.000000	0.972813
989.000000	0.994053
990.000000	0.995763
991.000000	0.993242
992.000000	0.999361
993.000000	1.006997
994.000000	1.015377
995.000000	1.033690
996.000000	1.028276
997.000000	1.010045
998.000000	1.002753
999.000000	1.012427
1000.000000	1.013761
1001.000000	1.000207
1002.000000	0.995477
1003.000000	0.984411
1004.000000	0.980257
1005.000000	0.986805
1006.000000	0.976306
1007.000000	0.976279
1008.000000	0.976878
1009.000000	0.965091
1010.000000	0.966440
1011.000000	0.968675
1012.000000	0.976477
1013.000000	0.973165
1014.000000	0.977998
1015.000000	0.980797
1016.000000	0.977863
1017.000000	0.982549
1018.000000	0.992277
1019.000000	0.986382
1020.000000	0.988078
1021.000000	0.989810
1022.000000	0.987566
1023.000000	1.004202
1024.000000	1.000920
1025.000000	0.995372
1026.000000	1.013254
1027.000000	1.023239
1028.000000	1.016354
1029.000000	1.053635
1030.000000	1.071161
1031.000000	1.081655
1032.000000	1.095994
1033.000000	1.115412
1034.000000	1.131958
1035.000000	1.151993
1036.000000	1.148346
1037.000000	1.171240
1038.000000	1.192297
1039.000000	1.196775
1040.000000	1.199001
1041.000000	1.226666
1042.000000	1.222485
1043.000000	1.241690
1044.000000	1.247980
1045.000000	1.257369
1046.000000	1.263260
1047.000000	1.267232
1048.000000	1.283350
1049.000000	1.293513
1050.000000	1.294283
1051.000000	1.304132
1052.000000	1.310036
1053.000000	1.309735
1054.000000	1.320689
1055.000000	1.309394
1056.000000	1.327680
1057.000000	1.321525
1058.000000	1.317729
1059.000000	1.324478
1060.000000	1.321930
1061.000000	1.323323
1062.000000	1.323324
1063.000000	1.318278
1064.000000	1.314174
1065.000000	1.300223
1066.000000	1.305573
1067.000000	1.298653
1068.000000	1.300018
1069.000000	1.278891
1070.000000	1.277081
1071.000000	1.276261
1072.000000	1.262987
1073.000000	1.267594
1074.000000	1.260473
1075.000000	1.261573
1076.000000	1.239591
1077.000000	1.247298
1078.000000	1.247993
1079.000000	1.253580
1080.000000	1.242906
1081.000000	1.253554
1082.000000	1.255032
1083.000000	1.252097
1084.000000	1.256787
1085.000000	1.262882
1086.000000	1.260960
1087.000000	1.263139
1088.000000	1.265770
1089.000000	1.271746
1090.000000	1.260961
1091.000000	1.256556
1092.000000	1.266620
1093.000000	1.270753
1094.000000	1.273682
1095.000000	1.283173
1096.000000	1.291450
1097.000000	1.291178
1098.000000	1.305023
1099.000000	1.302741
1100.000000	1.302107
1101.000000	1.314809
1102.000000	1.308439
1103.000000	1.312384
1104.000000	1.310212
1105.000000	1.327580
1106.000000	1.312052
1107.000000	1.312718
1108.000000	1.318147
1109.000000	1.317254
1110.000000	1.326139
1111.000000	1.322629
1112.000000	1.323035
1113.000000	1.319586
1114.000000	1.314442
1115.000000	1.318517
1116.000000	1.316016
1117.000000	1.320443
1118.000000	1.314394
1119.000000	1.305252
1120.000000	1.301521
1121.000000	1.302725
1122.000000	1.304848
1123.000000	1.296075
1124.000000	1.283705
1125.000000	1.276803
1126.000000	1.274367
1127.000000	1.281663
1128.000000	1.281876
1129.000000	1.264487
1130.000000	1.260867
1131.000000	1.251900
1132.000000	1.259170
1133.000000	1.255082
1134.000000	1.247425
1135.000000	1.239134
1136.000000	1.256705
1137.000000	1.245287
1138.000000	1.252342
1139.000000	1.261815
1140.000000	1.261641
1141.000000	1.259629
1142.000000	1.253295
1143.000000	1.261270
1144.000000	1.269260
1145.000000	1.269861
1146.000000	1.281601
1147.000000	1.274387
1148.000000	1.278259
1149.000000	1.292939
1150.000000	1.291022
1151.000000	1.304482
1152.000000	1.301990
1153.000000	1.294682
1154.000000	1.302185
1155.000000	1.302580
1156.000000	1.299142
1157.000000	1.291876
1158.000000	1.293896
1159.000000	1.298456
1160.000000	1.291734
1161.000000	1.290502
1162.000000	1.295535
1163.000000	1.293986
1164.000000	1.282908
1165.000000	1.275634
1166.000000	1.279243
1167.000000	1.271786
1168.000000	1.265031
1169.000000	1.256872
1170.000000	1.267039
1171.000000	1.263469
1172.000000	1.258978
1173.000000	1.245184
1174.000000	1.245545
1175.000000	1.246594
1176.000000	1.237335
1177.000000	1.230290
1178.000000	1.218410
1179.000000	1.217228
1180.000000	1.214234
1181.000000	1.215573
1182.000000	1.207432
1183.000000	1.202291
1184.000000	1.203939
1185.000000	1.201898
1186.000000	1.205278
1187.000000	1.213205
1188.000000	1.218127
1189.000000	1.220278
1190.000000	1.217352
1191.000000	1.211385
1192.000000	1.224227
1193.000000	1.231267
1194.000000	1.234992
1195.000000	1.230300
1196.000000	1.227043
1197.000000	1.234323
1198.000000	1.241418
1199.000000	1.244044
1200.000000	1.249619
1201.000000	1.259729
1202.000000	1.259523
1203.000000	1.265523
1204.000000	1.278508
1205.000000	1.285568
1206.000000	1.289439
1207.000000	1.293989
1208.000000	1.310195
1209.000000	1.318374
1210.000000	1.310901
1211.000000	1.314827
1212.000000	1.322702
1213.000000	1.336663
1214.000000	1.346940
1215.000000	1.352124
1216.000000	1.361416
1217.000000	1.369387
1218.000000	1.367749
1219.000000	1.366414
1220.000000	1.376628
1221.000000	1.376833
1222.000000	1.377793
1223.000000	1.387602
1224.000000	1.389102
1225.000000	1.391788
1226.000000	1.389708
1227.000000	1.387701
1228.000000	1.389808
1229.000000	1.398002
1230.000000	1.399796
1231.000000	1.396954
1232.000000	1.400566
1233.000000	1.413073
1234.000000	1.415223
1235.000000	1.404935
1236.000000	1.402673
1237.000000	1.408162
1238.000000	1.417762
1239.000000	1.424485
1240.000000	1.418007
1241.000000	1.410620
1242.000000	1.416418
1243.000000	1.416572
1244.000000	1.414648
1245.000000	1.416034
1246.000000	1.413073
1247.000000	1.407277
1248.000000	1.419060
1249.000000	1.419383
1250.000000	1.404215
1251.000000	1.407860
1252.000000	1.405973
1253.000000	1.395663
1254.000000	1.399867
1255.000000	1.400049
1256.000000	1.391632
1257.000000	1.389638
1258.000000	1.387558
1259.000000	1.381920
1260.000000	1.385656
1261.000000	1.381673
1262.000000	1.372137
1263.000000	1.367409
1264.000000	1.385995
1265.000000	1.384066
1266.000000	1.382411
1267.000000	1.371869
1268.000000	1.365999
1269.000000	1.367331
1270.000000	1.379372
1271.000000	1.386383
1272.000000	1.383531
1273.000000	1.386912
1274.000000	1.393444
1275.000000	1.390748
1276.000000	1.401790
1277.000000	1.403551
1278.000000	1.403747
1279.000000	1.403055
1280.000000	1.400555
1281.000000	1.400657
1282.000000	1.407097
1283.000000	1.413805
1284.000000	1.417408
1285.000000	1.418952
1286.000000	1.434368
1287.000000	1.440307
1288.000000	1.437547
1289.000000	1.438488
1290.000000	1.445632
1291.000000	1.450570
1292.000000	1.455288
1293.000000	1.448303
1294.000000	1.450876
1295.000000	1.459969
1296.000000	1.455700
1297.000000	1.453689
1298.000000	1.458005
1299.000000	1.464647
1300.000000	1.461293
1301.000000	1.461361
1302.000000	1.455298
1303.000000	1.459816
1304.000000	1.461464
1305.000000	1.464043
1306.000000	1.447827
1307.000000	1.461441
1308.000000	1.457010
1309.000000	1.448839
1310.000000	1.447829
1311.000000	1.452474
1312.000000	1.449486
1313.000000	1.450907
1314.000000	1.445857
1315.000000	1.449737
1316.000000	1.445615
1317.000000	1.430892
1318.000000	1.442036
1319.000000	1.431471
1320.000000	1.430098
1321.000000	1.422817
1322.000000	1.415126
1323.000000	1.412393
1324.000000	1.405438
1325.000000	1.409452
1326.000000	1.408924
1327.000000	1.409007
1328.000000	1.393864
1329.000000	1.390493
1330.000000	1.383905
1331.000000	1.391665
1332.000000	1.384612
1333.000000	1.376168
1334.000000	1.379613
1335.000000	1.383742
1336.000000	1.379491
1337.000000	1.370870
1338.000000	1.357930
1339.000000	1.350685
1340.000000	1.342668
1341.000000	1.327597
1342.000000	1.340864
1343.000000	1.327528
1344.000000	1.326267
1345.000000	1.312925
1346.000000	1.319303
1347.000000	1.306379
1348.000000	1.292066
1349.000000	1.273165
1350.000000	1.268777
1351.000000	1.258666
1352.000000	1.254641
1353.000000	1.234426
1354.000000	1.243312
1355.000000	1.240047
1356.000000	1.237680
1357.000000	1.238646
1358.000000	1.232787
1359.000000	1.230547
1360.000000	1.232296
1361.000000	1.226728
1362.000000	1.233340
1363.000000	1.229235
1364.000000	1.220676
1365.000000	1.207288
1366.000000	1.224431
1367.000000	1.212775
1368.000000	1.206876
1369.000000	1.234533
1370.000000	1.215194
1371.000000	1.208512
1372.000000	1.207389
1373.000000	1.204035
1374.000000	1.217970
1375.000000	1.206264
1376.000000	1.208818
1377.000000	1.197610
1378.000000	1.191520
1379.000000	1.184708
1380.000000	1.175408
1381.000000	1.168115
1382.000000	1.152506
1383.000000	1.153666
1384.000000	1.112069
1385.000000	1.158627
1386.000000	1.147237
1387.000000	1.133301
1388.000000	1.109237
1389.000000	1.116323
1390.000000	1.112203
1391.000000	1.103709
1392.000000	1.086665
1393.000000	1.092248
1394.000000	1.092692
1395.000000	1.079798
1396.000000	1.050948
1397.000000	1.047985
1398.000000	1.049990
1399.000000	1.046791
1400.000000	1.027670
1401.000000	1.011763
1402.000000	1.010842
1403.000000	0.991190
1404.000000	1.012336
1405.000000	0.968035
1406.000000	0.975754
1407.000000	0.947358
1408.000000	0.933194
1409.000000	0.921842
1410.000000	0.906252
1411.000000	0.909981
1412.000000	0.890991
1413.000000	0.895185
1414.000000	0.874962
1415.000000	0.855489
1416.000000	0.849549
1417.000000	0.843330
1418.000000	0.837959
1419.000000	0.821172
1420.000000	0.826089
1421.000000	0.826217
1422.000000	0.811635
1423.000000	0.815452
1424.000000	0.811599
1425.000000	0.808966
1426.000000	0.797608
1427.000000	0.800614
1428.000000	0.783777
1429.000000	0.787173
1430.000000	0.799108
1431.000000	0.780680
1432.000000	0.778197
1433.000000	0.775523
1434.000000	0.777537
1435.000000	0.766960
1436.000000	0.764542
1437.000000	0.757111
1438.000000	0.761321
1439.000000	0.756540
1440.000000	0.759144
1441.000000	0.764768
1442.000000	0.754077
1443.000000	0.755543
1444.000000	0.750474
1445.000000	0.745584
1446.000000	0.751141
1447.000000	0.750812
1448.000000	0.751433
1449.000000	0.750644
1450.000000	0.750372
1451.000000	0.738982
1452.000000	0.738513
1453.000000	0.742069
1454.000000	0.748822
1455.000000	0.749871
1456.000000	0.743367
1457.000000	0.727966
1458.000000	0.729571
1459.000000	0.735198
1460.000000	0.726144
1461.000000	0.720819
1462.000000	0.730930
1463.000000	0.723409
1464.000000	0.725085
1465.000000	0.721497
1466.000000	0.722806
1467.000000	0.717540
1468.000000	0.712251
1469.000000	0.715854
1470.000000	0.717267
1471.000000	0.705060
1472.000000	0.704896
1473.000000	0.715335
1474.000000	0.719637
1475.000000	0.704390
1476.000000	0.694621
1477.000000	0.700193
1478.000000	0.693046
1479.000000	0.686626
1480.000000	0.686789
1481.000000	0.682606
1482.000000	0.690520
1483.000000	0.691414
1484.000000	0.693465
1485.000000	0.696942
1486.000000	0.689558
1487.000000	0.683861
1488.000000	0.680467
1489.000000	0.682183
1490.000000	0.688351
1491.000000	0.686007
1492.000000	0.682104
1493.000000	0.686343
1494.000000	0.689483
1495.000000	0.689636
1496.000000	0.688559
1497.000000	0.682196
1498.000000	0.675665
1499.000000	0.671968
1500.000000	0.677994
1501.000000	0.689287
1502.000000	0.679644
1503.000000	0.678243
1504.000000	0.691444
1505.000000	0.682390
1506.000000	0.670735
1507.000000	0.671951
1508.000000	0.672379
1509.000000	0.681530
1510.000000	0.684911
1511.000000	0.677709
1512.000000	0.667079
1513.000000	0.675567
1514.000000	0.688121
1515.000000	0.684735
1516.000000	0.676356
1517.000000	0.670842
1518.000000	0.679561
1519.000000	0.689982
1520.000000	0.688441
1521.000000	0.686597
1522.000000	0.691520
1523.000000	0.699366
1524.000000	0.693566
1525.000000	0.694918
1526.000000	0.691035
1527.000000	0.686900
1528.000000	0.693952
1529.000000	0.689226
1530.000000	0.692674
1531.000000	0.700931
1532.000000	0.700726
1533.000000	0.695488
1534.000000	0.696008
1535.000000	0.696299
1536.000000	0.713666
1537.000000	0.716159
1538.000000	0.708358
1539.000000	0.715046
1540.000000	0.719209
1541.000000	0.721614
1542.000000	0.721456
1543.000000	0.726943
1544.000000	0.727998
1545.000000	0.727329
1546.000000	0.730435
1547.000000	0.729170
1548.000000	0.734065
1549.000000	0.747103
1550.000000	0.748931
1551.000000	0.740817
1552.000000	0.754495
1553.000000	0.757153
1554.000000	0.757214
1555.000000	0.756829
1556.000000	0.754483
1557.000000	0.758520
1558.000000	0.770734
1559.000000	0.763941
1560.000000	0.773874
1561.000000	0.766172
1562.000000	0.757706
1563.000000	0.768366
1564.000000	0.761739
1565.000000	0.757618
1566.000000	0.765743
1567.000000	0.760969
1568.000000	0.763691
1569.000000	0.763093
1570.000000	0.760609
1571.000000	0.759534
1572.000000	0.756741
1573.000000	0.758424
1574.000000	0.759327
1575.000000	0.759554
1576.000000	0.757790
1577.000000	0.763814
1578.000000	0.766462
1579.000000	0.754614
1580.000000	0.762932
1581.000000	0.771758
1582.000000	0.769035
1583.000000	0.766406
1584.000000	0.778566
1585.000000	0.767613
1586.000000	0.767414
1587.000000	0.778230
1588.000000	0.779045
1589.000000	0.781012
1590.000000	0.786213
1591.000000	0.789455
1592.000000	0.789071
1593.000000	0.782325
1594.000000	0.786098
1595.000000	0.785885
1596.000000	0.791129
1597.000000	0.791546
1598.000000	0.799600
1599.000000	0.798460
1600.000000	0.802127
1601.000000	0.802594
1602.000000	0.802333
1603.000000	0.802798
1604.000000	0.811949
1605.000000	0.820168
1606.000000	0.817326
1607.000000	0.835674
1608.000000	0.834429
1609.000000	0.822752
1610.000000	0.841096
1611.000000	0.833777
1612.000000	0.840349
1613.000000	0.844744
1614.000000	0.843758
1615.000000	0.841956
1616.000000	0.857909
1617.000000	0.860470
1618.000000	0.859375
1619.000000	0.852406
1620.000000	0.849146
1621.000000	0.849555
1622.000000	0.855212
1623.000000	0.853923
1624.000000	0.867211
1625.000000	0.878261
1626.000000	0.886889
1627.000000	0.875244
1628.000000	0.892454
1629.000000	0.900196
1630.000000	0.897244
1631.000000	0.891366
1632.000000	0.902344
1633.000000	0.896231
1634.000000	0.904357
1635.000000	0.910437
1636.000000	0.908812
1637.000000	0.907676
1638.000000	0.913571
1639.000000	0.913591
1640.000000	0.924984
1641.000000	0.922194
1642.000000	0.930524
1643.000000	0.926976
1644.000000	0.927888
1645.000000	0.945631
1646.000000	0.935374
1647.000000	0.939890
1648.000000	0.934276
1649.000000	0.938805
1650.000000	0.944604
1651.000000	0.950987
1652.000000	0.943965
1653.000000	0.947642
1654.000000	0.935367
1655.000000	0.955241
1656.000000	0.955133
1657.000000	0.935462
1658.000000	0.941584
1659.000000	0.934308
1660.000000	0.921411
1661.000000	0.923432
1662.000000	0.924142
1663.000000	0.908866
1664.000000	0.912358
1665.000000	0.899429
1666.000000	0.906979
1667.000000	0.894194
1668.000000	0.883474
1669.000000	0.880631
1670.000000	0.880179
1671.000000	0.859664
1672.000000	0.860466
1673.000000	0.858966
1674.000000	0.853498
1675.000000	0.841421
1676.000000	0.841432
1677.000000	0.850969
1678.000000	0.827315
1679.000000	0.809607
1680.000000	0.806571
1681.000000	0.796924
1682.000000	0.794931
1683.000000	0.788422
1684.000000	0.773862
1685.000000	0.779478
1686.000000	0.764342
1687.000000	0.757291
1688.000000	0.759280
1689.000000	0.769216
1690.000000	0.783705
1691.000000	0.782516
1692.000000	0.783273
1693.000000	0.798439
1694.000000	0.783480
1695.000000	0.785974
1696.000000	0.794784
1697.000000	0.783015
1698.000000	0.792131
1699.000000	0.798416
1700.000000	0.782466
1701.000000	0.783416
1702.000000	0.773809
1703.000000	0.772121
1704.000000	0.773961
1705.000000	0.768997
1706.000000	0.773339
1707.000000	0.750045
1708.000000	0.744506
1709.000000	0.728312
1710.000000	0.726362
1711.000000	0.718625
1712.000000	0.710223
1713.000000	0.695684
1714.000000	0.683922
1715.000000	0.668534
1716.000000	0.647499
1717.000000	0.635073
1718.000000	0.628272
1719.000000	0.607486
1720.000000	0.588812
1721.000000	0.581964
1722.000000	0.577317
1723.000000	0.573144
1724.000000	0.583339
1725.000000	0.570259
1726.000000	0.560507
1727.000000	0.569802
1728.000000	0.579034
1729.000000	0.584893
1730.000000	0.598042
1731.000000	0.599711
1732.000000	0.604177
1733.000000	0.595999
1734.000000	0.600234
1735.000000	0.616521
1736.000000	0.616227
1737.000000	0.629857
1738.000000	0.646858
1739.000000	0.652859
1740.000000	0.662720
1741.000000	0.667533
1742.000000	0.690539
1743.000000	0.695674
1744.000000	0.695190
1745.000000	0.696327
1746.000000	0.697196
1747.000000	0.700508
1748.000000	0.719313
1749.000000	0.721618
1750.000000	0.719052
1751.000000	0.720653
1752.000000	0.719515
1753.000000	0.715576
1754.000000	0.715477
1755.000000	0.717866
1756.000000	0.711290
1757.000000	0.705535
1758.000000	0.700172
1759.000000	0.711534
1760.000000	0.715355
1761.000000	0.708026
1762.000000	0.713597
1763.000000	0.716986
1764.000000	0.715454
1765.000000	0.720190
1766.000000	0.731600
1767.000000	0.747225
1768.000000	0.748206
1769.000000	0.748345
1770.000000	0.749423
1771.000000	0.761612
1772.000000	0.767362
1773.000000	0.772607
1774.000000	0.777715
1775.000000	0.783558
1776.000000	0.791736
1777.000000	0.790198
1778.000000	0.791278
1779.000000	0.804424
1780.000000	0.812686
1781.000000	0.813646
1782.000000	0.817997
1783.000000	0.822986
1784.000000	0.827240
1785.000000	0.836019
1786.000000	0.833757
1787.000000	0.829190
1788.000000	0.833493
1789.000000	0.840075
1790.000000	0.836183
1791.000000	0.838848
1792.000000	0.844828
1793.000000	0.840282
1794.000000	0.845175
1795.000000	0.849606
1796.000000	0.854743
1797.000000	0.852743
1798.000000	0.852979
1799.000000	0.857367
1800.000000	0.859678
1801.000000	0.860712
1802.000000	0.857586
1803.000000	0.861435
1804.000000	0.869588
1805.000000	0.872791
1806.000000	0.876138
1807.000000	0.881640
1808.000000	0.882132
1809.000000	0.884552
1810.000000	0.881769
1811.000000	0.885517
1812.000000	0.890029
1813.000000	0.892092
1814.000000	0.890397
1815.000000	0.879883
1816.000000	0.874825
1817.000000	0.872234
1818.000000	0.880243
1819.000000	0.882937
1820.000000	0.869537
1821.000000	0.867634
1822.000000	0.874913
1823.000000	0.876468
1824.000000	0.873296
1825.000000	0.868621
1826.000000	0.864165
1827.000000	0.879199
1828.000000	0.876951
1829.000000	0.874453
1830.000000	0.875033
1831.000000	0.869844
1832.000000	0.871334
1833.000000	0.870221
1834.000000	0.872087
1835.000000	0.854030
1836.000000	0.836086
1837.000000	0.830014
1838.000000	0.828782
1839.000000	0.849893
1840.000000	0.848414
1841.000000	0.845670
1842.000000	0.843563
1843.000000	0.855011
1844.000000	0.863695
1845.000000	0.856669
1846.000000	0.858578
1847.000000	0.847802
1848.000000	0.838604
1849.000000	0.848649
1850.000000	0.856605
1851.000000	0.849915
1852.000000	0.859844
1853.000000	0.852599
1854.000000	0.839484
1855.000000	0.843641
1856.000000	0.836124
1857.000000	0.832912
1858.000000	0.823202
1859.000000	0.818030
1860.000000	0.819544
1861.000000	0.822378
1862.000000	0.820963
1863.000000	0.820862
1864.000000	0.808011
1865.000000	0.800471
1866.000000	0.791762
1867.000000	0.775393
1868.000000	0.754465
1869.000000	0.728171
1870.000000	0.717522
1871.000000	0.702601
1872.000000	0.700005
1873.000000	0.692800
1874.000000	0.695834
1875.000000	0.697856
1876.000000	0.716744
1877.000000	0.717282
1878.000000	0.712308
1879.000000	0.711896
1880.000000	0.707271
1881.000000	0.696391
1882.000000	0.694964
1883.000000	0.674163
1884.000000	0.655563
1885.000000	0.648107
1886.000000	0.642516
1887.000000	0.630539
1888.000000	0.610798
1889.000000	0.603210
1890.000000	0.598039
1891.000000	0.592088
1892.000000	0.576807
1893.000000	0.561283
1894.000000	0.575393
1895.000000	0.571218
1896.000000	0.564225
1897.000000	0.568173
1898.000000	0.547677
1899.000000	0.552307
1900.000000	0.545623
1901.000000	0.529510
1902.000000	0.548532
1903.000000	0.541006
1904.000000	0.537273
1905.000000	0.545492
1906.000000	0.544096
1907.000000	0.553912
1908.000000	0.542412
1909.000000	0.549806
1910.000000	0.545999
1911.000000	0.551705
1912.000000	0.546630
1913.000000	0.543835
1914.000000	0.544640
1915.000000	0.534160
1916.000000	0.541911
1917.000000	0.539185
1918.000000	0.532409
1919.000000	0.545797
1920.000000	0.534614
1921.000000	0.521615
1922.000000	0.521833
1923.000000	0.509860
1924.000000	0.539248
1925.000000	0.513616
1926.000000	0.525786
1927.000000	0.524314
1928.000000	0.525719
1929.000000	0.517366
1930.000000	0.525354
1931.000000	0.518670
1932.000000	0.531893
1933.000000	0.524940
1934.000000	0.525201
1935.000000	0.514294
1936.000000	0.530888
1937.000000	0.511356
1938.000000	0.511731
1939.000000	0.509288
1940.000000	0.511122
1941.000000	0.533921
1942.000000	0.522418
1943.000000	0.512490
1944.000000	0.510751
1945.000000	0.513913
1946.000000	0.513297
1947.000000	0.518252
1948.000000	0.515918
1949.000000	0.518209
1950.000000	0.518231
1951.000000	0.502394
1952.000000	0.502822
1953.000000	0.494518
1954.000000	0.510452
1955.000000	0.501101
1956.000000	0.495291
1957.000000	0.490880
1958.000000	0.506345
1959.000000	0.495451
1960.000000	0.502048
1961.000000	0.491568
1962.000000	0.500378
1963.000000	0.482598
1964.000000	0.481800
1965.000000	0.503025
1966.000000	0.500713
1967.000000	0.485515
1968.000000	0.488612
1969.000000	0.497306
1970.000000	0.503792
1971.000000	0.495233
1972.000000	0.493949
1973.000000	0.481594
1974.000000	0.484025
1975.000000	0.489516
1976.000000	0.477410
1977.000000	0.489164
1978.000000	0.481143
1979.000000	0.487294
1980.000000	0.486995
1981.000000	0.471689
1982.000000	0.489182
1983.000000	0.490240
1984.000000	0.474789
1985.000000	0.489100
1986.000000	0.474841
1987.000000	0.477117
1988.000000	0.463768
1989.000000	0.472208
1990.000000	0.462490
1991.000000	0.475948
1992.000000	0.467637
1993.000000	0.456876
1994.000000	0.459837
1995.000000	0.459500
1996.000000	0.459886
1997.000000	0.455184
1998.000000	0.450819
1999.000000	0.445137
