PE UV       SUBTECH     SPECTRUM    ASCII       PEDS        4.00        
   -1
CICIMAUCR0204-3.Sample.ASC
24/05/31
16:34:21.00
24/05/31
16:34:21.00
Vinicio Soto Monge
C. cupreomarginata. Sex M. Dorsal
250,000000
1
Lambda 1050
1050L1511233
PerkinElmer UV WinLab 6.3.2.0749 / 2.02.05 Lambda 900 UV/VIS/NIR, Aug  7 2015 09:38:08

0
0
3350/servo 860,8/2
0
0
UV/VIS
1
1
1
DoubleDePol,CommonBeamDepol,RBeamAtt,SBeamAtt,60mm sphere, WB InGaAs Detector
0
0
0
0
Program
Program
3350/servo 860,8/2
3350/0,2 860,8/0,2
3350/0,2 860,8/0,2
0
15.00
 
 
 
0
 
860,8
319,2
860,8
Front
100
on
S:100 R:100
0
0
0
0
 
0
 
 
 
0
 
 
0
0
0
0
0
 
 
 
 
0
0


0
0
#HDR
-1
-1
#GR
nm
%R
1.0
0.0
2500,000000
-1,000000
2251
8
68,833200
5,187100
#DATA
250.000000	0.126527
251.000000	0.114516
252.000000	0.106337
253.000000	0.121343
254.000000	0.128746
255.000000	0.139398
256.000000	0.108585
257.000000	0.094493
258.000000	0.121569
259.000000	0.113660
260.000000	0.094733
261.000000	0.102381
262.000000	0.099555
263.000000	0.109916
264.000000	0.119842
265.000000	0.103209
266.000000	0.103540
267.000000	0.113399
268.000000	0.105754
269.000000	0.124139
270.000000	0.115182
271.000000	0.120956
272.000000	0.122396
273.000000	0.122213
274.000000	0.097819
275.000000	0.095240
276.000000	0.092570
277.000000	0.107325
278.000000	0.090716
279.000000	0.106336
280.000000	0.110500
281.000000	0.124064
282.000000	0.122685
283.000000	0.126329
284.000000	0.112975
285.000000	0.119114
286.000000	0.127118
287.000000	0.108200
288.000000	0.092847
289.000000	0.105376
290.000000	0.132596
291.000000	0.109538
292.000000	0.116019
293.000000	0.119795
294.000000	0.110786
295.000000	0.120818
296.000000	0.118288
297.000000	0.121574
298.000000	0.127152
299.000000	0.143411
300.000000	0.135749
301.000000	0.138753
302.000000	0.138309
303.000000	0.126351
304.000000	0.112323
305.000000	0.090720
306.000000	0.120026
307.000000	0.127918
308.000000	0.120576
309.000000	0.122220
310.000000	0.104650
311.000000	0.091317
312.000000	0.112553
313.000000	0.131539
314.000000	0.147262
315.000000	0.129568
316.000000	0.226798
317.000000	0.706093
318.000000	0.896296
319.000000	0.526789
320.000000	0.060681
321.000000	0.284419
322.000000	0.345752
323.000000	0.191743
324.000000	0.368324
325.000000	0.276115
326.000000	0.177771
327.000000	0.273878
328.000000	0.266446
329.000000	0.275932
330.000000	0.301094
331.000000	0.045157
332.000000	0.100697
333.000000	0.119547
334.000000	0.172046
335.000000	0.106371
336.000000	0.064024
337.000000	0.236247
338.000000	0.262271
339.000000	0.104939
340.000000	0.050287
341.000000	0.058201
342.000000	0.133766
343.000000	0.164121
344.000000	0.095178
345.000000	0.073690
346.000000	0.067734
347.000000	0.084230
348.000000	0.191716
349.000000	0.098908
350.000000	0.108586
351.000000	0.087499
352.000000	0.095317
353.000000	0.101909
354.000000	0.076967
355.000000	0.098519
356.000000	0.065219
357.000000	0.073987
358.000000	0.173986
359.000000	0.151273
360.000000	0.110688
361.000000	0.138452
362.000000	0.108250
363.000000	0.137159
364.000000	0.096521
365.000000	0.105097
366.000000	0.121372
367.000000	0.168839
368.000000	0.153204
369.000000	0.130080
370.000000	0.161654
371.000000	0.208318
372.000000	0.241486
373.000000	0.261859
374.000000	0.382894
375.000000	0.396355
376.000000	0.204104
377.000000	0.136273
378.000000	0.124585
379.000000	0.129680
380.000000	0.126681
381.000000	0.125885
382.000000	0.127843
383.000000	0.149705
384.000000	0.153768
385.000000	0.142515
386.000000	0.155397
387.000000	0.165636
388.000000	0.165788
389.000000	0.168871
390.000000	0.176516
391.000000	0.176575
392.000000	0.181001
393.000000	0.200748
394.000000	0.202220
395.000000	0.213625
396.000000	0.236554
397.000000	0.256224
398.000000	0.255578
399.000000	0.266523
400.000000	0.270705
401.000000	0.289842
402.000000	0.296210
403.000000	0.324442
404.000000	0.332106
405.000000	0.344882
406.000000	0.370618
407.000000	0.385312
408.000000	0.396209
409.000000	0.418872
410.000000	0.416987
411.000000	0.421645
412.000000	0.427241
413.000000	0.424260
414.000000	0.441570
415.000000	0.426866
416.000000	0.420779
417.000000	0.409012
418.000000	0.411740
419.000000	0.399188
420.000000	0.398224
421.000000	0.378052
422.000000	0.365707
423.000000	0.368038
424.000000	0.344584
425.000000	0.301659
426.000000	0.266382
427.000000	0.252654
428.000000	0.235947
429.000000	0.206299
430.000000	0.178868
431.000000	0.154402
432.000000	0.123406
433.000000	0.109890
434.000000	0.084093
435.000000	0.050128
436.000000	0.036215
437.000000	0.030604
438.000000	0.049003
439.000000	0.051908
440.000000	0.072474
441.000000	0.103194
442.000000	0.114129
443.000000	0.125428
444.000000	0.139435
445.000000	0.158035
446.000000	0.170270
447.000000	0.185022
448.000000	0.203621
449.000000	0.209325
450.000000	0.207524
451.000000	0.217208
452.000000	0.244859
453.000000	0.225638
454.000000	0.226684
455.000000	0.229237
456.000000	0.256490
457.000000	0.242287
458.000000	0.261031
459.000000	0.228888
460.000000	0.227408
461.000000	0.241654
462.000000	0.229772
463.000000	0.215042
464.000000	0.231919
465.000000	0.223663
466.000000	0.192501
467.000000	0.180798
468.000000	0.167037
469.000000	0.166179
470.000000	0.139255
471.000000	0.145019
472.000000	0.117343
473.000000	0.098553
474.000000	0.107533
475.000000	0.105339
476.000000	0.118450
477.000000	0.111426
478.000000	0.147996
479.000000	0.174388
480.000000	0.208986
481.000000	0.249945
482.000000	0.291491
483.000000	0.340114
484.000000	0.392539
485.000000	0.413456
486.000000	0.493257
487.000000	0.530711
488.000000	0.585695
489.000000	0.634433
490.000000	0.676525
491.000000	0.714620
492.000000	0.752141
493.000000	0.765143
494.000000	0.786118
495.000000	0.805785
496.000000	0.769863
497.000000	0.812692
498.000000	0.803306
499.000000	0.804411
500.000000	0.798634
501.000000	0.771256
502.000000	0.780327
503.000000	0.774245
504.000000	0.767188
505.000000	0.751792
506.000000	0.762064
507.000000	0.794721
508.000000	0.806835
509.000000	0.850000
510.000000	0.858176
511.000000	0.880712
512.000000	0.878500
513.000000	0.921655
514.000000	0.943219
515.000000	0.975697
516.000000	1.016838
517.000000	1.045118
518.000000	1.102432
519.000000	1.144881
520.000000	1.198876
521.000000	1.241758
522.000000	1.292148
523.000000	1.369112
524.000000	1.413615
525.000000	1.469790
526.000000	1.509748
527.000000	1.530178
528.000000	1.542583
529.000000	1.544471
530.000000	1.517519
531.000000	1.493913
532.000000	1.470976
533.000000	1.394420
534.000000	1.301749
535.000000	1.197165
536.000000	1.102313
537.000000	0.998564
538.000000	0.894862
539.000000	0.779121
540.000000	0.638592
541.000000	0.550199
542.000000	0.458703
543.000000	0.403520
544.000000	0.363381
545.000000	0.348048
546.000000	0.351840
547.000000	0.354678
548.000000	0.392214
549.000000	0.442760
550.000000	0.483965
551.000000	0.569575
552.000000	0.645182
553.000000	0.712070
554.000000	0.784870
555.000000	0.853980
556.000000	0.895591
557.000000	0.932707
558.000000	0.960847
559.000000	0.929793
560.000000	0.905001
561.000000	0.885524
562.000000	0.881737
563.000000	0.861514
564.000000	0.838675
565.000000	0.838314
566.000000	0.829513
567.000000	0.871838
568.000000	0.886873
569.000000	0.947636
570.000000	1.011520
571.000000	1.088281
572.000000	1.153550
573.000000	1.198318
574.000000	1.258931
575.000000	1.306810
576.000000	1.350963
577.000000	1.351919
578.000000	1.364560
579.000000	1.331384
580.000000	1.318675
581.000000	1.306793
582.000000	1.280122
583.000000	1.239094
584.000000	1.235495
585.000000	1.275304
586.000000	1.281682
587.000000	1.313230
588.000000	1.359796
589.000000	1.415074
590.000000	1.490292
591.000000	1.536014
592.000000	1.585039
593.000000	1.636469
594.000000	1.720939
595.000000	1.783885
596.000000	1.801955
597.000000	1.850451
598.000000	1.887821
599.000000	1.906293
600.000000	1.910431
601.000000	1.882668
602.000000	1.896905
603.000000	1.921250
604.000000	1.938990
605.000000	1.978945
606.000000	2.027709
607.000000	2.073666
608.000000	2.143572
609.000000	2.206001
610.000000	2.261487
611.000000	2.315876
612.000000	2.331018
613.000000	2.337824
614.000000	2.305321
615.000000	2.273811
616.000000	2.218755
617.000000	2.155721
618.000000	2.091258
619.000000	2.012022
620.000000	1.913575
621.000000	1.811362
622.000000	1.706672
623.000000	1.600429
624.000000	1.476280
625.000000	1.352187
626.000000	1.241018
627.000000	1.127317
628.000000	0.998549
629.000000	0.839414
630.000000	0.695322
631.000000	0.558417
632.000000	0.418214
633.000000	0.297155
634.000000	0.225463
635.000000	0.250724
636.000000	0.334140
637.000000	0.422341
638.000000	0.491424
639.000000	0.565610
640.000000	0.622266
641.000000	0.642350
642.000000	0.642943
643.000000	0.593999
644.000000	0.518559
645.000000	0.434620
646.000000	0.330668
647.000000	0.205322
648.000000	0.062531
649.000000	0.108278
650.000000	0.217821
651.000000	0.329303
652.000000	0.427318
653.000000	0.491249
654.000000	0.560130
655.000000	0.590762
656.000000	0.597491
657.000000	0.605816
658.000000	0.604829
659.000000	0.567961
660.000000	0.510322
661.000000	0.488051
662.000000	0.487620
663.000000	0.469669
664.000000	0.482752
665.000000	0.478330
666.000000	0.458187
667.000000	0.469625
668.000000	0.479124
669.000000	0.476059
670.000000	0.484253
671.000000	0.467925
672.000000	0.457894
673.000000	0.415603
674.000000	0.360814
675.000000	0.327809
676.000000	0.296430
677.000000	0.249879
678.000000	0.214619
679.000000	0.208735
680.000000	0.222792
681.000000	0.273708
682.000000	0.347244
683.000000	0.410884
684.000000	0.449987
685.000000	0.481674
686.000000	0.523842
687.000000	0.533073
688.000000	0.575645
689.000000	0.594100
690.000000	0.604071
691.000000	0.554517
692.000000	0.556399
693.000000	0.553192
694.000000	0.528502
695.000000	0.493076
696.000000	0.482076
697.000000	0.497590
698.000000	0.435529
699.000000	0.430383
700.000000	0.447627
701.000000	0.423634
702.000000	0.420164
703.000000	0.411017
704.000000	0.396091
705.000000	0.404470
706.000000	0.356476
707.000000	0.340129
708.000000	0.334715
709.000000	0.293349
710.000000	0.247163
711.000000	0.216676
712.000000	0.162606
713.000000	0.142493
714.000000	0.125705
715.000000	0.061914
716.000000	0.049244
717.000000	0.062296
718.000000	0.049228
719.000000	0.019257
720.000000	0.013167
721.000000	0.085097
722.000000	0.141920
723.000000	0.119423
724.000000	0.092370
725.000000	0.091752
726.000000	0.062118
727.000000	0.139550
728.000000	0.167671
729.000000	0.182921
730.000000	0.157489
731.000000	0.114850
732.000000	0.051550
733.000000	0.019017
734.000000	0.043614
735.000000	0.037131
736.000000	0.010101
737.000000	0.085849
738.000000	0.127325
739.000000	0.109888
740.000000	0.125445
741.000000	0.057492
742.000000	0.075200
743.000000	0.123835
744.000000	0.111027
745.000000	0.025669
746.000000	0.023374
747.000000	0.058736
748.000000	0.059651
749.000000	0.113779
750.000000	0.087959
751.000000	0.090912
752.000000	0.125706
753.000000	0.182828
754.000000	0.171250
755.000000	0.219322
756.000000	0.230896
757.000000	0.260929
758.000000	0.259699
759.000000	0.161686
760.000000	0.283912
761.000000	0.192509
762.000000	0.329537
763.000000	0.251681
764.000000	0.347417
765.000000	0.250452
766.000000	0.220961
767.000000	0.247620
768.000000	0.244853
769.000000	0.319570
770.000000	0.139673
771.000000	0.200663
772.000000	0.221425
773.000000	0.142542
774.000000	0.237568
775.000000	0.176473
776.000000	0.228413
777.000000	0.168411
778.000000	0.169506
779.000000	0.167110
780.000000	0.145355
781.000000	0.195390
782.000000	0.177504
783.000000	0.127655
784.000000	0.229696
785.000000	0.188056
786.000000	0.125283
787.000000	0.287945
788.000000	0.297196
789.000000	0.198849
790.000000	0.170648
791.000000	0.170906
792.000000	0.118794
793.000000	0.100170
794.000000	0.246177
795.000000	0.216177
796.000000	0.156255
797.000000	0.248766
798.000000	0.243390
799.000000	0.193454
800.000000	0.284132
801.000000	0.325804
802.000000	0.315224
803.000000	0.234563
804.000000	0.160654
805.000000	0.253909
806.000000	0.247528
807.000000	0.223928
808.000000	0.177170
809.000000	0.313864
810.000000	0.227543
811.000000	0.194533
812.000000	0.306980
813.000000	0.351299
814.000000	0.255001
815.000000	0.285351
816.000000	0.286900
817.000000	0.268824
818.000000	0.202750
819.000000	0.347918
820.000000	0.282721
821.000000	0.348983
822.000000	0.458969
823.000000	0.262817
824.000000	0.346873
825.000000	0.269709
826.000000	0.403818
827.000000	0.426441
828.000000	0.393008
829.000000	0.310509
830.000000	0.271855
831.000000	0.414430
832.000000	0.393987
833.000000	0.350138
834.000000	0.499132
835.000000	0.512346
836.000000	0.285169
837.000000	0.347703
838.000000	0.393893
839.000000	0.413808
840.000000	0.379756
841.000000	0.225853
842.000000	0.322079
843.000000	0.419192
844.000000	0.428562
845.000000	0.523995
846.000000	0.460908
847.000000	0.326086
848.000000	0.172306
849.000000	0.403322
850.000000	0.268302
851.000000	0.332367
852.000000	0.194017
853.000000	0.392244
854.000000	0.660698
855.000000	0.320844
856.000000	0.155316
857.000000	0.305254
858.000000	0.249959
859.000000	0.262926
860.000000	0.271927
861.000000	0.292538
862.000000	0.279785
863.000000	0.279614
864.000000	0.283726
865.000000	0.302048
866.000000	0.304317
867.000000	0.316847
868.000000	0.319206
869.000000	0.311935
870.000000	0.339791
871.000000	0.356528
872.000000	0.377991
873.000000	0.367798
874.000000	0.323493
875.000000	0.275763
876.000000	0.273036
877.000000	0.293627
878.000000	0.321466
879.000000	0.353459
880.000000	0.387936
881.000000	0.416452
882.000000	0.457349
883.000000	0.480483
884.000000	0.503740
885.000000	0.536811
886.000000	0.574129
887.000000	0.598598
888.000000	0.616033
889.000000	0.636371
890.000000	0.654342
891.000000	0.669181
892.000000	0.698040
893.000000	0.696970
894.000000	0.707526
895.000000	0.718750
896.000000	0.733181
897.000000	0.743054
898.000000	0.749741
899.000000	0.748942
900.000000	0.742892
901.000000	0.748284
902.000000	0.757662
903.000000	0.749161
904.000000	0.749284
905.000000	0.753350
906.000000	0.759032
907.000000	0.757728
908.000000	0.755311
909.000000	0.750280
910.000000	0.749667
911.000000	0.747322
912.000000	0.738822
913.000000	0.735729
914.000000	0.748162
915.000000	0.745860
916.000000	0.739632
917.000000	0.737451
918.000000	0.738461
919.000000	0.745348
920.000000	0.735914
921.000000	0.724905
922.000000	0.736514
923.000000	0.734963
924.000000	0.717537
925.000000	0.715042
926.000000	0.711039
927.000000	0.704991
928.000000	0.702208
929.000000	0.678993
930.000000	0.676138
931.000000	0.683562
932.000000	0.666921
933.000000	0.656977
934.000000	0.637877
935.000000	0.632840
936.000000	0.633982
937.000000	0.623050
938.000000	0.611312
939.000000	0.592041
940.000000	0.577994
941.000000	0.577285
942.000000	0.558001
943.000000	0.544781
944.000000	0.536494
945.000000	0.522973
946.000000	0.497826
947.000000	0.474956
948.000000	0.472470
949.000000	0.451627
950.000000	0.431821
951.000000	0.427140
952.000000	0.409451
953.000000	0.390933
954.000000	0.384130
955.000000	0.367800
956.000000	0.344065
957.000000	0.332535
958.000000	0.319925
959.000000	0.296172
960.000000	0.279396
961.000000	0.267760
962.000000	0.256194
963.000000	0.234109
964.000000	0.217032
965.000000	0.200239
966.000000	0.185014
967.000000	0.168098
968.000000	0.156797
969.000000	0.143998
970.000000	0.126186
971.000000	0.118817
972.000000	0.105344
973.000000	0.091123
974.000000	0.094817
975.000000	0.087117
976.000000	0.065285
977.000000	0.059205
978.000000	0.045646
979.000000	0.031190
980.000000	0.026213
981.000000	0.020248
982.000000	0.010589
983.000000	0.001854
984.000000	0.014299
985.000000	0.030373
986.000000	0.043350
987.000000	0.041296
988.000000	0.047450
989.000000	0.064792
990.000000	0.069683
991.000000	0.073448
992.000000	0.088259
993.000000	0.098775
994.000000	0.108260
995.000000	0.115036
996.000000	0.120558
997.000000	0.120449
998.000000	0.134023
999.000000	0.144109
1000.000000	0.142139
1001.000000	0.150680
1002.000000	0.150080
1003.000000	0.152917
1004.000000	0.154218
1005.000000	0.173767
1006.000000	0.183482
1007.000000	0.183496
1008.000000	0.181959
1009.000000	0.172376
1010.000000	0.176356
1011.000000	0.187555
1012.000000	0.192538
1013.000000	0.184832
1014.000000	0.181099
1015.000000	0.191432
1016.000000	0.195275
1017.000000	0.202776
1018.000000	0.203275
1019.000000	0.197203
1020.000000	0.197444
1021.000000	0.215309
1022.000000	0.212702
1023.000000	0.214591
1024.000000	0.226746
1025.000000	0.231945
1026.000000	0.230116
1027.000000	0.249861
1028.000000	0.238960
1029.000000	0.255467
1030.000000	0.263379
1031.000000	0.263844
1032.000000	0.276631
1033.000000	0.291896
1034.000000	0.301990
1035.000000	0.293903
1036.000000	0.311688
1037.000000	0.331010
1038.000000	0.333946
1039.000000	0.343500
1040.000000	0.351361
1041.000000	0.364868
1042.000000	0.373663
1043.000000	0.380587
1044.000000	0.395687
1045.000000	0.398920
1046.000000	0.414236
1047.000000	0.425411
1048.000000	0.438907
1049.000000	0.452622
1050.000000	0.462344
1051.000000	0.458996
1052.000000	0.492309
1053.000000	0.487927
1054.000000	0.510982
1055.000000	0.504531
1056.000000	0.526318
1057.000000	0.549918
1058.000000	0.554627
1059.000000	0.565953
1060.000000	0.573393
1061.000000	0.582831
1062.000000	0.593525
1063.000000	0.612218
1064.000000	0.627395
1065.000000	0.637821
1066.000000	0.655333
1067.000000	0.650466
1068.000000	0.667333
1069.000000	0.674951
1070.000000	0.684208
1071.000000	0.701495
1072.000000	0.706245
1073.000000	0.723684
1074.000000	0.725195
1075.000000	0.747595
1076.000000	0.746066
1077.000000	0.755524
1078.000000	0.766893
1079.000000	0.763925
1080.000000	0.778439
1081.000000	0.773426
1082.000000	0.793777
1083.000000	0.799979
1084.000000	0.818519
1085.000000	0.800337
1086.000000	0.818524
1087.000000	0.823707
1088.000000	0.848791
1089.000000	0.861998
1090.000000	0.841556
1091.000000	0.849252
1092.000000	0.862522
1093.000000	0.861930
1094.000000	0.872855
1095.000000	0.868865
1096.000000	0.869274
1097.000000	0.884279
1098.000000	0.892443
1099.000000	0.899116
1100.000000	0.894524
1101.000000	0.890202
1102.000000	0.908112
1103.000000	0.914615
1104.000000	0.907353
1105.000000	0.906457
1106.000000	0.914258
1107.000000	0.914299
1108.000000	0.910741
1109.000000	0.919822
1110.000000	0.921216
1111.000000	0.920966
1112.000000	0.924966
1113.000000	0.925869
1114.000000	0.927183
1115.000000	0.933165
1116.000000	0.925942
1117.000000	0.931297
1118.000000	0.935535
1119.000000	0.942319
1120.000000	0.943373
1121.000000	0.935645
1122.000000	0.936011
1123.000000	0.951938
1124.000000	0.936839
1125.000000	0.923034
1126.000000	0.937094
1127.000000	0.935579
1128.000000	0.924860
1129.000000	0.916288
1130.000000	0.915856
1131.000000	0.899890
1132.000000	0.902678
1133.000000	0.881952
1134.000000	0.879076
1135.000000	0.846808
1136.000000	0.823428
1137.000000	0.795205
1138.000000	0.778498
1139.000000	0.765006
1140.000000	0.754248
1141.000000	0.726797
1142.000000	0.714308
1143.000000	0.702809
1144.000000	0.693587
1145.000000	0.673542
1146.000000	0.669626
1147.000000	0.651619
1148.000000	0.656500
1149.000000	0.654455
1150.000000	0.658901
1151.000000	0.650256
1152.000000	0.648224
1153.000000	0.656540
1154.000000	0.645548
1155.000000	0.647155
1156.000000	0.642727
1157.000000	0.626126
1158.000000	0.607621
1159.000000	0.595082
1160.000000	0.584190
1161.000000	0.579668
1162.000000	0.567925
1163.000000	0.554076
1164.000000	0.544217
1165.000000	0.523110
1166.000000	0.511053
1167.000000	0.503525
1168.000000	0.498913
1169.000000	0.482869
1170.000000	0.475675
1171.000000	0.474163
1172.000000	0.476322
1173.000000	0.463699
1174.000000	0.465909
1175.000000	0.465611
1176.000000	0.449856
1177.000000	0.445075
1178.000000	0.448184
1179.000000	0.439551
1180.000000	0.441137
1181.000000	0.445098
1182.000000	0.458867
1183.000000	0.482473
1184.000000	0.497063
1185.000000	0.504463
1186.000000	0.507308
1187.000000	0.510676
1188.000000	0.519327
1189.000000	0.521351
1190.000000	0.514838
1191.000000	0.501810
1192.000000	0.487328
1193.000000	0.486359
1194.000000	0.479303
1195.000000	0.472058
1196.000000	0.466036
1197.000000	0.451153
1198.000000	0.444627
1199.000000	0.449881
1200.000000	0.441994
1201.000000	0.431365
1202.000000	0.438294
1203.000000	0.441282
1204.000000	0.436431
1205.000000	0.443990
1206.000000	0.438267
1207.000000	0.431735
1208.000000	0.427266
1209.000000	0.429046
1210.000000	0.420921
1211.000000	0.420815
1212.000000	0.428522
1213.000000	0.426999
1214.000000	0.420668
1215.000000	0.415291
1216.000000	0.411511
1217.000000	0.418420
1218.000000	0.419843
1219.000000	0.412841
1220.000000	0.416584
1221.000000	0.416632
1222.000000	0.415708
1223.000000	0.426259
1224.000000	0.430780
1225.000000	0.429180
1226.000000	0.430463
1227.000000	0.426660
1228.000000	0.428933
1229.000000	0.433923
1230.000000	0.437167
1231.000000	0.441616
1232.000000	0.447248
1233.000000	0.450318
1234.000000	0.455665
1235.000000	0.460051
1236.000000	0.459083
1237.000000	0.468945
1238.000000	0.477098
1239.000000	0.473480
1240.000000	0.485152
1241.000000	0.494271
1242.000000	0.495285
1243.000000	0.499727
1244.000000	0.502544
1245.000000	0.520631
1246.000000	0.523997
1247.000000	0.526027
1248.000000	0.538606
1249.000000	0.535829
1250.000000	0.540319
1251.000000	0.538127
1252.000000	0.543222
1253.000000	0.558166
1254.000000	0.563700
1255.000000	0.556982
1256.000000	0.565172
1257.000000	0.567371
1258.000000	0.572781
1259.000000	0.579445
1260.000000	0.576324
1261.000000	0.574234
1262.000000	0.578723
1263.000000	0.585843
1264.000000	0.590410
1265.000000	0.597222
1266.000000	0.597249
1267.000000	0.598627
1268.000000	0.595728
1269.000000	0.597179
1270.000000	0.604203
1271.000000	0.614482
1272.000000	0.612352
1273.000000	0.610849
1274.000000	0.612957
1275.000000	0.615027
1276.000000	0.615618
1277.000000	0.611763
1278.000000	0.608628
1279.000000	0.616804
1280.000000	0.619985
1281.000000	0.623669
1282.000000	0.614774
1283.000000	0.631388
1284.000000	0.628331
1285.000000	0.626948
1286.000000	0.628899
1287.000000	0.628667
1288.000000	0.628755
1289.000000	0.634596
1290.000000	0.634359
1291.000000	0.634464
1292.000000	0.628277
1293.000000	0.626122
1294.000000	0.626247
1295.000000	0.617940
1296.000000	0.627461
1297.000000	0.622860
1298.000000	0.623928
1299.000000	0.633251
1300.000000	0.624465
1301.000000	0.621321
1302.000000	0.619535
1303.000000	0.610907
1304.000000	0.620094
1305.000000	0.609019
1306.000000	0.606749
1307.000000	0.616659
1308.000000	0.599522
1309.000000	0.599099
1310.000000	0.596274
1311.000000	0.595299
1312.000000	0.598316
1313.000000	0.590318
1314.000000	0.589627
1315.000000	0.587799
1316.000000	0.594085
1317.000000	0.569074
1318.000000	0.584952
1319.000000	0.577410
1320.000000	0.573815
1321.000000	0.574057
1322.000000	0.571397
1323.000000	0.562752
1324.000000	0.559493
1325.000000	0.565072
1326.000000	0.560459
1327.000000	0.545549
1328.000000	0.551210
1329.000000	0.553910
1330.000000	0.549599
1331.000000	0.549052
1332.000000	0.552194
1333.000000	0.552705
1334.000000	0.550180
1335.000000	0.549936
1336.000000	0.554626
1337.000000	0.555349
1338.000000	0.565495
1339.000000	0.559405
1340.000000	0.562496
1341.000000	0.579607
1342.000000	0.587109
1343.000000	0.588300
1344.000000	0.588948
1345.000000	0.591608
1346.000000	0.614269
1347.000000	0.611256
1348.000000	0.626076
1349.000000	0.624831
1350.000000	0.631653
1351.000000	0.658459
1352.000000	0.653640
1353.000000	0.730967
1354.000000	0.734335
1355.000000	0.753238
1356.000000	0.771798
1357.000000	0.786880
1358.000000	0.802080
1359.000000	0.800666
1360.000000	0.813581
1361.000000	0.819449
1362.000000	0.817086
1363.000000	0.821237
1364.000000	0.821175
1365.000000	0.813095
1366.000000	0.847612
1367.000000	0.848299
1368.000000	0.845026
1369.000000	0.868829
1370.000000	0.856169
1371.000000	0.885129
1372.000000	0.916484
1373.000000	0.914136
1374.000000	0.942785
1375.000000	0.947260
1376.000000	0.961670
1377.000000	0.961201
1378.000000	0.978223
1379.000000	0.980236
1380.000000	1.002924
1381.000000	0.964451
1382.000000	1.012776
1383.000000	1.020694
1384.000000	1.049800
1385.000000	1.063286
1386.000000	1.090468
1387.000000	1.116549
1388.000000	1.128949
1389.000000	1.155686
1390.000000	1.175920
1391.000000	1.187512
1392.000000	1.200873
1393.000000	1.234494
1394.000000	1.256202
1395.000000	1.266802
1396.000000	1.256868
1397.000000	1.286413
1398.000000	1.313930
1399.000000	1.314577
1400.000000	1.325548
1401.000000	1.311746
1402.000000	1.345449
1403.000000	1.350126
1404.000000	1.386143
1405.000000	1.390531
1406.000000	1.425594
1407.000000	1.431108
1408.000000	1.441273
1409.000000	1.460967
1410.000000	1.469699
1411.000000	1.491469
1412.000000	1.526256
1413.000000	1.520724
1414.000000	1.541461
1415.000000	1.547109
1416.000000	1.555928
1417.000000	1.573651
1418.000000	1.588103
1419.000000	1.597168
1420.000000	1.604776
1421.000000	1.624529
1422.000000	1.626117
1423.000000	1.640182
1424.000000	1.631460
1425.000000	1.657968
1426.000000	1.666191
1427.000000	1.677429
1428.000000	1.678830
1429.000000	1.685411
1430.000000	1.693168
1431.000000	1.693470
1432.000000	1.708196
1433.000000	1.708262
1434.000000	1.699933
1435.000000	1.704301
1436.000000	1.702600
1437.000000	1.718394
1438.000000	1.721874
1439.000000	1.723429
1440.000000	1.728712
1441.000000	1.729909
1442.000000	1.736479
1443.000000	1.744847
1444.000000	1.742140
1445.000000	1.739782
1446.000000	1.732550
1447.000000	1.738189
1448.000000	1.733014
1449.000000	1.734079
1450.000000	1.738976
1451.000000	1.740970
1452.000000	1.740690
1453.000000	1.732819
1454.000000	1.724697
1455.000000	1.712982
1456.000000	1.714454
1457.000000	1.717820
1458.000000	1.716995
1459.000000	1.711479
1460.000000	1.713587
1461.000000	1.707367
1462.000000	1.697143
1463.000000	1.693783
1464.000000	1.695395
1465.000000	1.683709
1466.000000	1.674954
1467.000000	1.669009
1468.000000	1.668225
1469.000000	1.666737
1470.000000	1.664418
1471.000000	1.668052
1472.000000	1.658874
1473.000000	1.650256
1474.000000	1.632567
1475.000000	1.619501
1476.000000	1.629512
1477.000000	1.624931
1478.000000	1.613664
1479.000000	1.615891
1480.000000	1.611535
1481.000000	1.605062
1482.000000	1.597483
1483.000000	1.586025
1484.000000	1.581456
1485.000000	1.571643
1486.000000	1.561596
1487.000000	1.565575
1488.000000	1.552444
1489.000000	1.535054
1490.000000	1.533107
1491.000000	1.529658
1492.000000	1.517627
1493.000000	1.511013
1494.000000	1.503872
1495.000000	1.495206
1496.000000	1.490068
1497.000000	1.485017
1498.000000	1.483899
1499.000000	1.469665
1500.000000	1.462024
1501.000000	1.464559
1502.000000	1.459907
1503.000000	1.451102
1504.000000	1.443906
1505.000000	1.435817
1506.000000	1.429683
1507.000000	1.412141
1508.000000	1.404979
1509.000000	1.403588
1510.000000	1.397619
1511.000000	1.388866
1512.000000	1.380707
1513.000000	1.380555
1514.000000	1.370589
1515.000000	1.364095
1516.000000	1.356208
1517.000000	1.348607
1518.000000	1.340021
1519.000000	1.329498
1520.000000	1.320114
1521.000000	1.323948
1522.000000	1.323990
1523.000000	1.320090
1524.000000	1.305149
1525.000000	1.294558
1526.000000	1.295312
1527.000000	1.282171
1528.000000	1.279453
1529.000000	1.281027
1530.000000	1.273083
1531.000000	1.267230
1532.000000	1.261930
1533.000000	1.249041
1534.000000	1.239305
1535.000000	1.243753
1536.000000	1.236359
1537.000000	1.224673
1538.000000	1.230770
1539.000000	1.234170
1540.000000	1.225679
1541.000000	1.225984
1542.000000	1.216563
1543.000000	1.217880
1544.000000	1.214640
1545.000000	1.211309
1546.000000	1.210509
1547.000000	1.200272
1548.000000	1.201174
1549.000000	1.205066
1550.000000	1.200825
1551.000000	1.198020
1552.000000	1.200593
1553.000000	1.190084
1554.000000	1.184660
1555.000000	1.181851
1556.000000	1.180608
1557.000000	1.176668
1558.000000	1.165948
1559.000000	1.166267
1560.000000	1.169466
1561.000000	1.169951
1562.000000	1.164763
1563.000000	1.162870
1564.000000	1.159871
1565.000000	1.158464
1566.000000	1.161785
1567.000000	1.161949
1568.000000	1.156261
1569.000000	1.149990
1570.000000	1.145445
1571.000000	1.141367
1572.000000	1.134657
1573.000000	1.137798
1574.000000	1.143608
1575.000000	1.149385
1576.000000	1.136972
1577.000000	1.123296
1578.000000	1.136866
1579.000000	1.136589
1580.000000	1.133130
1581.000000	1.129250
1582.000000	1.129318
1583.000000	1.123885
1584.000000	1.108052
1585.000000	1.118671
1586.000000	1.115426
1587.000000	1.112807
1588.000000	1.115477
1589.000000	1.103749
1590.000000	1.100141
1591.000000	1.097035
1592.000000	1.088943
1593.000000	1.088706
1594.000000	1.085475
1595.000000	1.072059
1596.000000	1.060090
1597.000000	1.066098
1598.000000	1.066759
1599.000000	1.058262
1600.000000	1.054730
1601.000000	1.053501
1602.000000	1.045730
1603.000000	1.045877
1604.000000	1.038310
1605.000000	1.021410
1606.000000	1.026986
1607.000000	1.014809
1608.000000	1.019892
1609.000000	1.004117
1610.000000	0.994696
1611.000000	0.994992
1612.000000	0.987987
1613.000000	0.998351
1614.000000	0.987425
1615.000000	0.973922
1616.000000	0.962926
1617.000000	0.962830
1618.000000	0.959945
1619.000000	0.946769
1620.000000	0.946117
1621.000000	0.930935
1622.000000	0.938265
1623.000000	0.945519
1624.000000	0.920428
1625.000000	0.921859
1626.000000	0.907803
1627.000000	0.905918
1628.000000	0.888496
1629.000000	0.902671
1630.000000	0.887827
1631.000000	0.873949
1632.000000	0.879197
1633.000000	0.874157
1634.000000	0.856618
1635.000000	0.851609
1636.000000	0.838256
1637.000000	0.844529
1638.000000	0.837342
1639.000000	0.837748
1640.000000	0.824549
1641.000000	0.817372
1642.000000	0.820410
1643.000000	0.802568
1644.000000	0.809224
1645.000000	0.804496
1646.000000	0.798878
1647.000000	0.795209
1648.000000	0.814252
1649.000000	0.787837
1650.000000	0.782420
1651.000000	0.768874
1652.000000	0.768286
1653.000000	0.751688
1654.000000	0.759763
1655.000000	0.753203
1656.000000	0.740305
1657.000000	0.745383
1658.000000	0.743463
1659.000000	0.721357
1660.000000	0.728185
1661.000000	0.729386
1662.000000	0.725674
1663.000000	0.717288
1664.000000	0.712907
1665.000000	0.710071
1666.000000	0.714677
1667.000000	0.709461
1668.000000	0.697844
1669.000000	0.703572
1670.000000	0.697092
1671.000000	0.707008
1672.000000	0.707527
1673.000000	0.721696
1674.000000	0.711957
1675.000000	0.723625
1676.000000	0.727668
1677.000000	0.731191
1678.000000	0.744826
1679.000000	0.758645
1680.000000	0.776568
1681.000000	0.797291
1682.000000	0.832742
1683.000000	0.840319
1684.000000	0.844105
1685.000000	0.852688
1686.000000	0.839493
1687.000000	0.842510
1688.000000	0.854269
1689.000000	0.827654
1690.000000	0.846119
1691.000000	0.836798
1692.000000	0.848334
1693.000000	0.853454
1694.000000	0.859361
1695.000000	0.873358
1696.000000	0.857348
1697.000000	0.851240
1698.000000	0.854659
1699.000000	0.842740
1700.000000	0.826831
1701.000000	0.821268
1702.000000	0.810506
1703.000000	0.811318
1704.000000	0.804004
1705.000000	0.791021
1706.000000	0.785353
1707.000000	0.776268
1708.000000	0.764712
1709.000000	0.772393
1710.000000	0.764181
1711.000000	0.760249
1712.000000	0.774365
1713.000000	0.771092
1714.000000	0.756222
1715.000000	0.754383
1716.000000	0.749818
1717.000000	0.745148
1718.000000	0.758257
1719.000000	0.766640
1720.000000	0.765623
1721.000000	0.768041
1722.000000	0.780086
1723.000000	0.773416
1724.000000	0.767259
1725.000000	0.775314
1726.000000	0.781919
1727.000000	0.781735
1728.000000	0.781522
1729.000000	0.780230
1730.000000	0.790333
1731.000000	0.804648
1732.000000	0.804634
1733.000000	0.821306
1734.000000	0.825452
1735.000000	0.827634
1736.000000	0.825532
1737.000000	0.812212
1738.000000	0.815514
1739.000000	0.823876
1740.000000	0.812267
1741.000000	0.809444
1742.000000	0.798555
1743.000000	0.788019
1744.000000	0.794041
1745.000000	0.787346
1746.000000	0.780530
1747.000000	0.775058
1748.000000	0.777784
1749.000000	0.779889
1750.000000	0.778258
1751.000000	0.772691
1752.000000	0.772698
1753.000000	0.780783
1754.000000	0.794253
1755.000000	0.793215
1756.000000	0.788804
1757.000000	0.786765
1758.000000	0.794624
1759.000000	0.801968
1760.000000	0.819535
1761.000000	0.827535
1762.000000	0.824911
1763.000000	0.827671
1764.000000	0.841002
1765.000000	0.849890
1766.000000	0.846507
1767.000000	0.841588
1768.000000	0.836486
1769.000000	0.845874
1770.000000	0.860385
1771.000000	0.852578
1772.000000	0.838924
1773.000000	0.835960
1774.000000	0.835622
1775.000000	0.839579
1776.000000	0.845036
1777.000000	0.854907
1778.000000	0.842379
1779.000000	0.831900
1780.000000	0.840652
1781.000000	0.841913
1782.000000	0.839695
1783.000000	0.838287
1784.000000	0.833459
1785.000000	0.835149
1786.000000	0.830199
1787.000000	0.827763
1788.000000	0.826980
1789.000000	0.821380
1790.000000	0.822903
1791.000000	0.835519
1792.000000	0.835159
1793.000000	0.827819
1794.000000	0.825410
1795.000000	0.813127
1796.000000	0.814649
1797.000000	0.823128
1798.000000	0.817527
1799.000000	0.817425
1800.000000	0.821011
1801.000000	0.813998
1802.000000	0.808696
1803.000000	0.813927
1804.000000	0.822577
1805.000000	0.816871
1806.000000	0.816194
1807.000000	0.823710
1808.000000	0.827648
1809.000000	0.825650
1810.000000	0.820512
1811.000000	0.816024
1812.000000	0.809897
1813.000000	0.814639
1814.000000	0.815758
1815.000000	0.809674
1816.000000	0.810888
1817.000000	0.819579
1818.000000	0.830361
1819.000000	0.820904
1820.000000	0.814992
1821.000000	0.811945
1822.000000	0.810340
1823.000000	0.819803
1824.000000	0.831053
1825.000000	0.833525
1826.000000	0.835562
1827.000000	0.836319
1828.000000	0.829861
1829.000000	0.820544
1830.000000	0.819169
1831.000000	0.820970
1832.000000	0.826434
1833.000000	0.831634
1834.000000	0.832894
1835.000000	0.826906
1836.000000	0.808092
1837.000000	0.808993
1838.000000	0.823355
1839.000000	0.829151
1840.000000	0.825360
1841.000000	0.820402
1842.000000	0.817145
1843.000000	0.833415
1844.000000	0.838917
1845.000000	0.843659
1846.000000	0.849842
1847.000000	0.840328
1848.000000	0.835501
1849.000000	0.846958
1850.000000	0.846201
1851.000000	0.843791
1852.000000	0.865394
1853.000000	0.866232
1854.000000	0.852435
1855.000000	0.861294
1856.000000	0.863483
1857.000000	0.861246
1858.000000	0.866376
1859.000000	0.867840
1860.000000	0.873082
1861.000000	0.882180
1862.000000	0.889786
1863.000000	0.913239
1864.000000	0.926651
1865.000000	0.930177
1866.000000	0.945806
1867.000000	0.950234
1868.000000	0.950304
1869.000000	0.933869
1870.000000	0.951482
1871.000000	0.958042
1872.000000	0.978567
1873.000000	1.003201
1874.000000	1.019369
1875.000000	1.021876
1876.000000	1.063249
1877.000000	1.085537
1878.000000	1.091620
1879.000000	1.115320
1880.000000	1.163030
1881.000000	1.166957
1882.000000	1.180265
1883.000000	1.204594
1884.000000	1.214012
1885.000000	1.246987
1886.000000	1.251957
1887.000000	1.268336
1888.000000	1.265375
1889.000000	1.291951
1890.000000	1.298623
1891.000000	1.288236
1892.000000	1.286875
1893.000000	1.302585
1894.000000	1.307945
1895.000000	1.336807
1896.000000	1.333180
1897.000000	1.307894
1898.000000	1.324912
1899.000000	1.304705
1900.000000	1.293372
1901.000000	1.281925
1902.000000	1.289632
1903.000000	1.297451
1904.000000	1.270351
1905.000000	1.244226
1906.000000	1.243085
1907.000000	1.242748
1908.000000	1.241418
1909.000000	1.273884
1910.000000	1.254887
1911.000000	1.250718
1912.000000	1.227425
1913.000000	1.216364
1914.000000	1.195921
1915.000000	1.194859
1916.000000	1.229037
1917.000000	1.219460
1918.000000	1.221419
1919.000000	1.202036
1920.000000	1.200203
1921.000000	1.161959
1922.000000	1.159380
1923.000000	1.160707
1924.000000	1.167059
1925.000000	1.169207
1926.000000	1.173330
1927.000000	1.156493
1928.000000	1.153696
1929.000000	1.159309
1930.000000	1.147016
1931.000000	1.157358
1932.000000	1.163198
1933.000000	1.178103
1934.000000	1.172280
1935.000000	1.171348
1936.000000	1.184047
1937.000000	1.178321
1938.000000	1.176098
1939.000000	1.189215
1940.000000	1.189798
1941.000000	1.179567
1942.000000	1.199659
1943.000000	1.221719
1944.000000	1.215331
1945.000000	1.217024
1946.000000	1.247626
1947.000000	1.240594
1948.000000	1.263381
1949.000000	1.251290
1950.000000	1.263712
1951.000000	1.273068
1952.000000	1.286064
1953.000000	1.284540
1954.000000	1.269539
1955.000000	1.295311
1956.000000	1.294949
1957.000000	1.304452
1958.000000	1.312349
1959.000000	1.327078
1960.000000	1.318715
1961.000000	1.335965
1962.000000	1.329997
1963.000000	1.340085
1964.000000	1.348615
1965.000000	1.361275
1966.000000	1.354913
1967.000000	1.368644
1968.000000	1.385371
1969.000000	1.375249
1970.000000	1.376884
1971.000000	1.396822
1972.000000	1.399694
1973.000000	1.410751
1974.000000	1.413776
1975.000000	1.412527
1976.000000	1.422938
1977.000000	1.433414
1978.000000	1.423501
1979.000000	1.439433
1980.000000	1.440485
1981.000000	1.449822
1982.000000	1.448480
1983.000000	1.456673
1984.000000	1.465259
1985.000000	1.463984
1986.000000	1.466019
1987.000000	1.461658
1988.000000	1.457886
1989.000000	1.469882
1990.000000	1.482827
1991.000000	1.484040
1992.000000	1.474990
1993.000000	1.481578
1994.000000	1.494468
1995.000000	1.479691
1996.000000	1.493119
1997.000000	1.490332
1998.000000	1.488009
1999.000000	1.498369
