PE UV       SUBTECH     SPECTRUM    ASCII       PEDS        4.00        
   -1
CICIMAUCR0244-3.Sample.ASC
24/06/21
11:45:11.00
24/06/21
11:45:11.00
Vinicio Soto Monge
C. cupreomarginata. Sex M. Dorsal
250,000000
1
Lambda 1050
1050L1511233
PerkinElmer UV WinLab 6.3.2.0749 / 2.02.05 Lambda 900 UV/VIS/NIR, Aug  7 2015 09:38:08

0
0
3350/servo 860,8/2
0
0
UV/VIS
1
1
1
DoubleDePol,CommonBeamDepol,RBeamAtt,SBeamAtt,60mm sphere, WB InGaAs Detector
0
0
0
0
Program
Program
3350/servo 860,8/2
3350/0,2 860,8/0,2
3350/0,2 860,8/0,2
0
15.00
 
 
 
0
 
860,8
319,2
860,8
Front
100
on
S:100 R:100
0
0
0
0
 
0
 
 
 
0
 
 
0
0
0
0
0
 
 
 
 
0
0


0
0
#HDR
-1
-1
#GR
nm
%R
1.0
0.0
2500,000000
-1,000000
2251
8
73,398900
5,496100
#DATA
250.000000	0.233874
251.000000	0.247993
252.000000	0.231627
253.000000	0.204240
254.000000	0.217360
255.000000	0.199201
256.000000	0.207469
257.000000	0.230644
258.000000	0.237600
259.000000	0.221454
260.000000	0.223683
261.000000	0.202076
262.000000	0.202561
263.000000	0.198957
264.000000	0.237842
265.000000	0.235730
266.000000	0.210254
267.000000	0.186246
268.000000	0.164822
269.000000	0.186390
270.000000	0.209711
271.000000	0.207569
272.000000	0.201682
273.000000	0.175370
274.000000	0.188056
275.000000	0.168250
276.000000	0.189295
277.000000	0.182480
278.000000	0.148360
279.000000	0.173530
280.000000	0.175109
281.000000	0.173643
282.000000	0.161796
283.000000	0.159399
284.000000	0.153826
285.000000	0.180791
286.000000	0.186664
287.000000	0.170904
288.000000	0.154781
289.000000	0.139871
290.000000	0.137722
291.000000	0.167736
292.000000	0.165955
293.000000	0.168141
294.000000	0.150645
295.000000	0.161390
296.000000	0.138407
297.000000	0.141629
298.000000	0.139807
299.000000	0.163305
300.000000	0.170469
301.000000	0.160706
302.000000	0.171768
303.000000	0.150355
304.000000	0.131645
305.000000	0.151648
306.000000	0.146805
307.000000	0.136115
308.000000	0.122645
309.000000	0.147721
310.000000	0.163093
311.000000	0.150117
312.000000	0.152099
313.000000	0.146065
314.000000	0.137584
315.000000	0.143237
316.000000	0.496610
317.000000	0.525978
318.000000	0.266472
319.000000	0.022760
320.000000	0.281691
321.000000	0.063850
322.000000	0.324248
323.000000	0.466208
324.000000	0.355168
325.000000	0.192742
326.000000	0.040527
327.000000	0.178840
328.000000	0.050687
329.000000	0.279227
330.000000	0.300451
331.000000	0.148655
332.000000	0.104526
333.000000	0.152195
334.000000	0.148287
335.000000	0.124328
336.000000	0.121595
337.000000	0.095321
338.000000	0.070588
339.000000	0.107607
340.000000	0.307328
341.000000	0.366257
342.000000	0.237398
343.000000	0.158804
344.000000	0.236065
345.000000	0.259486
346.000000	0.152236
347.000000	0.065399
348.000000	0.068571
349.000000	0.048063
350.000000	0.133451
351.000000	0.170744
352.000000	0.094886
353.000000	0.056427
354.000000	0.170234
355.000000	0.124727
356.000000	0.107858
357.000000	0.132041
358.000000	0.109505
359.000000	0.115835
360.000000	0.241107
361.000000	0.297266
362.000000	0.185957
363.000000	0.098642
364.000000	0.048869
365.000000	0.082027
366.000000	0.172499
367.000000	0.225649
368.000000	0.102065
369.000000	0.095453
370.000000	0.148522
371.000000	0.212904
372.000000	0.087699
373.000000	0.085967
374.000000	0.140578
375.000000	0.040315
376.000000	0.058315
377.000000	0.108755
378.000000	0.085961
379.000000	0.092672
380.000000	0.093538
381.000000	0.086249
382.000000	0.090962
383.000000	0.090292
384.000000	0.093568
385.000000	0.087534
386.000000	0.088892
387.000000	0.088953
388.000000	0.078979
389.000000	0.085749
390.000000	0.079978
391.000000	0.088290
392.000000	0.085328
393.000000	0.078553
394.000000	0.088597
395.000000	0.091645
396.000000	0.084252
397.000000	0.071893
398.000000	0.070416
399.000000	0.088444
400.000000	0.075014
401.000000	0.059700
402.000000	0.065543
403.000000	0.078233
404.000000	0.071334
405.000000	0.065442
406.000000	0.069164
407.000000	0.059195
408.000000	0.056255
409.000000	0.060287
410.000000	0.067685
411.000000	0.077638
412.000000	0.089723
413.000000	0.100386
414.000000	0.116661
415.000000	0.150049
416.000000	0.185914
417.000000	0.210953
418.000000	0.232634
419.000000	0.271419
420.000000	0.309358
421.000000	0.343788
422.000000	0.380741
423.000000	0.419341
424.000000	0.449838
425.000000	0.478258
426.000000	0.519335
427.000000	0.565036
428.000000	0.592905
429.000000	0.625813
430.000000	0.658448
431.000000	0.688907
432.000000	0.715630
433.000000	0.748836
434.000000	0.773489
435.000000	0.783237
436.000000	0.810456
437.000000	0.817928
438.000000	0.814467
439.000000	0.810112
440.000000	0.797469
441.000000	0.788766
442.000000	0.792180
443.000000	0.773498
444.000000	0.736659
445.000000	0.723064
446.000000	0.715226
447.000000	0.669359
448.000000	0.670092
449.000000	0.622037
450.000000	0.604346
451.000000	0.571027
452.000000	0.527572
453.000000	0.507674
454.000000	0.491305
455.000000	0.442902
456.000000	0.425903
457.000000	0.386508
458.000000	0.351954
459.000000	0.318756
460.000000	0.263552
461.000000	0.247351
462.000000	0.209168
463.000000	0.191740
464.000000	0.162897
465.000000	0.139492
466.000000	0.152012
467.000000	0.133187
468.000000	0.143967
469.000000	0.164955
470.000000	0.174904
471.000000	0.188415
472.000000	0.211105
473.000000	0.230412
474.000000	0.242689
475.000000	0.301447
476.000000	0.333873
477.000000	0.383008
478.000000	0.395688
479.000000	0.424147
480.000000	0.470968
481.000000	0.532196
482.000000	0.578793
483.000000	0.653604
484.000000	0.698865
485.000000	0.743265
486.000000	0.813323
487.000000	0.893640
488.000000	0.974375
489.000000	1.072710
490.000000	1.150739
491.000000	1.208823
492.000000	1.269689
493.000000	1.334554
494.000000	1.390304
495.000000	1.415380
496.000000	1.426878
497.000000	1.402555
498.000000	1.314580
499.000000	1.248837
500.000000	1.115319
501.000000	0.986547
502.000000	0.825690
503.000000	0.672890
504.000000	0.476909
505.000000	0.303207
506.000000	0.161782
507.000000	0.175110
508.000000	0.306125
509.000000	0.422678
510.000000	0.493210
511.000000	0.561918
512.000000	0.643514
513.000000	0.706123
514.000000	0.744206
515.000000	0.781538
516.000000	0.755797
517.000000	0.765031
518.000000	0.742782
519.000000	0.761055
520.000000	0.792574
521.000000	0.839010
522.000000	0.887481
523.000000	0.939912
524.000000	0.980339
525.000000	1.049425
526.000000	1.108463
527.000000	1.210507
528.000000	1.318903
529.000000	1.450902
530.000000	1.576040
531.000000	1.693531
532.000000	1.805609
533.000000	1.907388
534.000000	2.001950
535.000000	2.096755
536.000000	2.170753
537.000000	2.226495
538.000000	2.286381
539.000000	2.315022
540.000000	2.319262
541.000000	2.294050
542.000000	2.241484
543.000000	2.182802
544.000000	2.102457
545.000000	2.012462
546.000000	1.888533
547.000000	1.753190
548.000000	1.610904
549.000000	1.455538
550.000000	1.357652
551.000000	1.222462
552.000000	1.122735
553.000000	1.095980
554.000000	1.099720
555.000000	1.103058
556.000000	1.146261
557.000000	1.160221
558.000000	1.176167
559.000000	1.134732
560.000000	1.057468
561.000000	0.951799
562.000000	0.803234
563.000000	0.644293
564.000000	0.453938
565.000000	0.285644
566.000000	0.277091
567.000000	0.397938
568.000000	0.554995
569.000000	0.690486
570.000000	0.785090
571.000000	0.824562
572.000000	0.844280
573.000000	0.835601
574.000000	0.815829
575.000000	0.810790
576.000000	0.824545
577.000000	0.836068
578.000000	0.813931
579.000000	0.767199
580.000000	0.665725
581.000000	0.563741
582.000000	0.401962
583.000000	0.266647
584.000000	0.214664
585.000000	0.373663
586.000000	0.623039
587.000000	0.896710
588.000000	1.132577
589.000000	1.351355
590.000000	1.521521
591.000000	1.641895
592.000000	1.725929
593.000000	1.759031
594.000000	1.725834
595.000000	1.655936
596.000000	1.526819
597.000000	1.402280
598.000000	1.276356
599.000000	1.167684
600.000000	1.054587
601.000000	0.967707
602.000000	0.875796
603.000000	0.822252
604.000000	0.808577
605.000000	0.859196
606.000000	1.002498
607.000000	1.151852
608.000000	1.308484
609.000000	1.532968
610.000000	1.731770
611.000000	1.906829
612.000000	2.044238
613.000000	2.137005
614.000000	2.210098
615.000000	2.234257
616.000000	2.220211
617.000000	2.174707
618.000000	2.129042
619.000000	2.129779
620.000000	2.149156
621.000000	2.192606
622.000000	2.251847
623.000000	2.276583
624.000000	2.337136
625.000000	2.422505
626.000000	2.478243
627.000000	2.530304
628.000000	2.553021
629.000000	2.544680
630.000000	2.543217
631.000000	2.493016
632.000000	2.391537
633.000000	2.251015
634.000000	2.044288
635.000000	1.838773
636.000000	1.632929
637.000000	1.417831
638.000000	1.254645
639.000000	1.093349
640.000000	0.952262
641.000000	0.850125
642.000000	0.750657
643.000000	0.646167
644.000000	0.551364
645.000000	0.466343
646.000000	0.419003
647.000000	0.437541
648.000000	0.480444
649.000000	0.484319
650.000000	0.479474
651.000000	0.501629
652.000000	0.516415
653.000000	0.529188
654.000000	0.564046
655.000000	0.587186
656.000000	0.641835
657.000000	0.700385
658.000000	0.705709
659.000000	0.676387
660.000000	0.631456
661.000000	0.557373
662.000000	0.452274
663.000000	0.368313
664.000000	0.375888
665.000000	0.469040
666.000000	0.581171
667.000000	0.694315
668.000000	0.784541
669.000000	0.836918
670.000000	0.840187
671.000000	0.852620
672.000000	0.846180
673.000000	0.801351
674.000000	0.746088
675.000000	0.702829
676.000000	0.668434
677.000000	0.647584
678.000000	0.657661
679.000000	0.669031
680.000000	0.679430
681.000000	0.691431
682.000000	0.743103
683.000000	0.819360
684.000000	0.901529
685.000000	0.927006
686.000000	1.008952
687.000000	1.062230
688.000000	1.076667
689.000000	1.081588
690.000000	1.065324
691.000000	1.062473
692.000000	1.003359
693.000000	0.936227
694.000000	0.902615
695.000000	0.846273
696.000000	0.812434
697.000000	0.771170
698.000000	0.759531
699.000000	0.736774
700.000000	0.718363
701.000000	0.754040
702.000000	0.739432
703.000000	0.752620
704.000000	0.754245
705.000000	0.814868
706.000000	0.895656
707.000000	0.881035
708.000000	0.918882
709.000000	0.954115
710.000000	0.964614
711.000000	0.962125
712.000000	0.958518
713.000000	0.887591
714.000000	0.804613
715.000000	0.748222
716.000000	0.723475
717.000000	0.601449
718.000000	0.603054
719.000000	0.554780
720.000000	0.539590
721.000000	0.555244
722.000000	0.598887
723.000000	0.683047
724.000000	0.789603
725.000000	0.869379
726.000000	0.975709
727.000000	1.075983
728.000000	1.081430
729.000000	1.145096
730.000000	1.207540
731.000000	1.168808
732.000000	1.148911
733.000000	1.060674
734.000000	0.968979
735.000000	0.880875
736.000000	0.805143
737.000000	0.741102
738.000000	0.667415
739.000000	0.691058
740.000000	0.669223
741.000000	0.662368
742.000000	0.778178
743.000000	0.825315
744.000000	0.982947
745.000000	1.047105
746.000000	1.123098
747.000000	1.185630
748.000000	1.154207
749.000000	1.142585
750.000000	1.155020
751.000000	1.117186
752.000000	0.990464
753.000000	0.917919
754.000000	0.755739
755.000000	0.705411
756.000000	0.745527
757.000000	0.618452
758.000000	0.613311
759.000000	0.583313
760.000000	0.646255
761.000000	0.763130
762.000000	0.707163
763.000000	0.807586
764.000000	0.907390
765.000000	0.899020
766.000000	0.835452
767.000000	0.976232
768.000000	0.904377
769.000000	0.897189
770.000000	0.870878
771.000000	0.839370
772.000000	0.826139
773.000000	0.832422
774.000000	0.749890
775.000000	0.706509
776.000000	0.639610
777.000000	0.671445
778.000000	0.531113
779.000000	0.638816
780.000000	0.625970
781.000000	0.731323
782.000000	0.806650
783.000000	0.772957
784.000000	0.752663
785.000000	0.865907
786.000000	0.855926
787.000000	0.803467
788.000000	0.726596
789.000000	0.777121
790.000000	0.871022
791.000000	0.789554
792.000000	0.846519
793.000000	0.737269
794.000000	0.666309
795.000000	0.868204
796.000000	0.943491
797.000000	0.749021
798.000000	0.875100
799.000000	0.825497
800.000000	0.774647
801.000000	0.861019
802.000000	0.867704
803.000000	0.812749
804.000000	0.743735
805.000000	0.855622
806.000000	0.847179
807.000000	0.794131
808.000000	0.854477
809.000000	0.805004
810.000000	0.813241
811.000000	0.772306
812.000000	0.832452
813.000000	0.839160
814.000000	0.803304
815.000000	0.772242
816.000000	0.761170
817.000000	0.707095
818.000000	0.784307
819.000000	0.831708
820.000000	0.718906
821.000000	0.772695
822.000000	0.878766
823.000000	0.781034
824.000000	0.798960
825.000000	0.670475
826.000000	0.829842
827.000000	0.885747
828.000000	0.788104
829.000000	0.836592
830.000000	0.884842
831.000000	0.914993
832.000000	0.847407
833.000000	0.863250
834.000000	0.844374
835.000000	0.943267
836.000000	0.821930
837.000000	0.721618
838.000000	0.869347
839.000000	0.861044
840.000000	0.827762
841.000000	0.658690
842.000000	0.742358
843.000000	1.008870
844.000000	0.830559
845.000000	0.560439
846.000000	0.758819
847.000000	0.814850
848.000000	0.877673
849.000000	0.828758
850.000000	1.036188
851.000000	0.749374
852.000000	0.769607
853.000000	1.053410
854.000000	1.101737
855.000000	1.381198
856.000000	0.978602
857.000000	0.557155
858.000000	0.937614
859.000000	0.962438
860.000000	0.934716
861.000000	0.939958
862.000000	0.944894
863.000000	0.956742
864.000000	0.960723
865.000000	0.954307
866.000000	0.964485
867.000000	0.961672
868.000000	0.989543
869.000000	0.990787
870.000000	0.974269
871.000000	0.951320
872.000000	0.888303
873.000000	0.874902
874.000000	0.916151
875.000000	0.978602
876.000000	1.011486
877.000000	1.056728
878.000000	1.112526
879.000000	1.150948
880.000000	1.188686
881.000000	1.216173
882.000000	1.234989
883.000000	1.267445
884.000000	1.299323
885.000000	1.341031
886.000000	1.357879
887.000000	1.398825
888.000000	1.434679
889.000000	1.456239
890.000000	1.491124
891.000000	1.522109
892.000000	1.546501
893.000000	1.575447
894.000000	1.591232
895.000000	1.594574
896.000000	1.616799
897.000000	1.631316
898.000000	1.630165
899.000000	1.629796
900.000000	1.628413
901.000000	1.626256
902.000000	1.619981
903.000000	1.615467
904.000000	1.602662
905.000000	1.601317
906.000000	1.585180
907.000000	1.563823
908.000000	1.554805
909.000000	1.541205
910.000000	1.529122
911.000000	1.520010
912.000000	1.513078
913.000000	1.504495
914.000000	1.471059
915.000000	1.465507
916.000000	1.461325
917.000000	1.456507
918.000000	1.450146
919.000000	1.451032
920.000000	1.446519
921.000000	1.443432
922.000000	1.447496
923.000000	1.458850
924.000000	1.470181
925.000000	1.486713
926.000000	1.499440
927.000000	1.520909
928.000000	1.538187
929.000000	1.554160
930.000000	1.578827
931.000000	1.591581
932.000000	1.609519
933.000000	1.633046
934.000000	1.674596
935.000000	1.708283
936.000000	1.728918
937.000000	1.762002
938.000000	1.795106
939.000000	1.831294
940.000000	1.864712
941.000000	1.897505
942.000000	1.940732
943.000000	1.978426
944.000000	2.001078
945.000000	2.017258
946.000000	2.043530
947.000000	2.073227
948.000000	2.091307
949.000000	2.103825
950.000000	2.122072
951.000000	2.123154
952.000000	2.118676
953.000000	2.129185
954.000000	2.127981
955.000000	2.119947
956.000000	2.120637
957.000000	2.106262
958.000000	2.103591
959.000000	2.120830
960.000000	2.114228
961.000000	2.108487
962.000000	2.100478
963.000000	2.084987
964.000000	2.075476
965.000000	2.059037
966.000000	2.036552
967.000000	2.011000
968.000000	1.992022
969.000000	1.972949
970.000000	1.941612
971.000000	1.910974
972.000000	1.896754
973.000000	1.877288
974.000000	1.854252
975.000000	1.842897
976.000000	1.824635
977.000000	1.819896
978.000000	1.805741
979.000000	1.799646
980.000000	1.809362
981.000000	1.806263
982.000000	1.801878
983.000000	1.803988
984.000000	1.800858
985.000000	1.798186
986.000000	1.793532
987.000000	1.801274
988.000000	1.806368
989.000000	1.799002
990.000000	1.795042
991.000000	1.801469
992.000000	1.809208
993.000000	1.829442
994.000000	1.837359
995.000000	1.844772
996.000000	1.852046
997.000000	1.859715
998.000000	1.882046
999.000000	1.893587
1000.000000	1.907089
1001.000000	1.922097
1002.000000	1.940785
1003.000000	1.948971
1004.000000	1.964819
1005.000000	1.981811
1006.000000	1.994317
1007.000000	2.010518
1008.000000	2.027809
1009.000000	2.038678
1010.000000	2.064307
1011.000000	2.080096
1012.000000	2.086159
1013.000000	2.096161
1014.000000	2.108598
1015.000000	2.111386
1016.000000	2.119292
1017.000000	2.127160
1018.000000	2.131325
1019.000000	2.142146
1020.000000	2.146663
1021.000000	2.159079
1022.000000	2.148166
1023.000000	2.157943
1024.000000	2.157051
1025.000000	2.155024
1026.000000	2.162861
1027.000000	2.158827
1028.000000	2.152050
1029.000000	2.158861
1030.000000	2.167173
1031.000000	2.161191
1032.000000	2.154834
1033.000000	2.146447
1034.000000	2.155803
1035.000000	2.140682
1036.000000	2.141977
1037.000000	2.147164
1038.000000	2.127162
1039.000000	2.120519
1040.000000	2.124008
1041.000000	2.102548
1042.000000	2.103539
1043.000000	2.098235
1044.000000	2.077959
1045.000000	2.077112
1046.000000	2.080440
1047.000000	2.051270
1048.000000	2.042367
1049.000000	2.036025
1050.000000	2.018435
1051.000000	2.023404
1052.000000	2.013697
1053.000000	2.010452
1054.000000	1.997888
1055.000000	1.994782
1056.000000	1.993270
1057.000000	1.996965
1058.000000	1.997479
1059.000000	1.978596
1060.000000	1.986098
1061.000000	1.989863
1062.000000	1.981546
1063.000000	1.975008
1064.000000	1.981434
1065.000000	1.976957
1066.000000	1.981550
1067.000000	1.981428
1068.000000	1.984195
1069.000000	1.973607
1070.000000	1.975422
1071.000000	2.003140
1072.000000	1.989478
1073.000000	1.999201
1074.000000	1.998778
1075.000000	2.002234
1076.000000	1.994129
1077.000000	2.004850
1078.000000	2.017757
1079.000000	2.018808
1080.000000	2.030294
1081.000000	2.036379
1082.000000	2.043054
1083.000000	2.047503
1084.000000	2.048167
1085.000000	2.055874
1086.000000	2.068805
1087.000000	2.073171
1088.000000	2.070372
1089.000000	2.075613
1090.000000	2.093610
1091.000000	2.099065
1092.000000	2.098280
1093.000000	2.114885
1094.000000	2.106987
1095.000000	2.124234
1096.000000	2.123919
1097.000000	2.127741
1098.000000	2.128703
1099.000000	2.127521
1100.000000	2.143692
1101.000000	2.146470
1102.000000	2.148009
1103.000000	2.149470
1104.000000	2.152985
1105.000000	2.154486
1106.000000	2.144103
1107.000000	2.153270
1108.000000	2.149487
1109.000000	2.142685
1110.000000	2.139941
1111.000000	2.146210
1112.000000	2.137867
1113.000000	2.143279
1114.000000	2.135545
1115.000000	2.136111
1116.000000	2.123728
1117.000000	2.131348
1118.000000	2.123660
1119.000000	2.108084
1120.000000	2.097646
1121.000000	2.115684
1122.000000	2.113750
1123.000000	2.103967
1124.000000	2.103914
1125.000000	2.114816
1126.000000	2.104347
1127.000000	2.109906
1128.000000	2.125187
1129.000000	2.125281
1130.000000	2.127765
1131.000000	2.145632
1132.000000	2.153811
1133.000000	2.173000
1134.000000	2.181961
1135.000000	2.194744
1136.000000	2.191018
1137.000000	2.202410
1138.000000	2.187180
1139.000000	2.205232
1140.000000	2.215108
1141.000000	2.222515
1142.000000	2.222526
1143.000000	2.211769
1144.000000	2.222604
1145.000000	2.209180
1146.000000	2.199372
1147.000000	2.172541
1148.000000	2.155846
1149.000000	2.152910
1150.000000	2.142915
1151.000000	2.143940
1152.000000	2.155976
1153.000000	2.149505
1154.000000	2.170828
1155.000000	2.182638
1156.000000	2.223385
1157.000000	2.232430
1158.000000	2.247519
1159.000000	2.264313
1160.000000	2.284222
1161.000000	2.315819
1162.000000	2.332021
1163.000000	2.344431
1164.000000	2.356965
1165.000000	2.387054
1166.000000	2.417671
1167.000000	2.432932
1168.000000	2.451422
1169.000000	2.476659
1170.000000	2.489301
1171.000000	2.517292
1172.000000	2.545795
1173.000000	2.569771
1174.000000	2.587196
1175.000000	2.606515
1176.000000	2.645787
1177.000000	2.701598
1178.000000	2.740225
1179.000000	2.768945
1180.000000	2.812053
1181.000000	2.842071
1182.000000	2.861745
1183.000000	2.853048
1184.000000	2.842451
1185.000000	2.818929
1186.000000	2.783605
1187.000000	2.732821
1188.000000	2.684555
1189.000000	2.643100
1190.000000	2.598822
1191.000000	2.552945
1192.000000	2.533397
1193.000000	2.525224
1194.000000	2.513537
1195.000000	2.510504
1196.000000	2.509504
1197.000000	2.513402
1198.000000	2.516937
1199.000000	2.518455
1200.000000	2.531612
1201.000000	2.530850
1202.000000	2.531943
1203.000000	2.530645
1204.000000	2.530311
1205.000000	2.532421
1206.000000	2.517883
1207.000000	2.513155
1208.000000	2.512809
1209.000000	2.506859
1210.000000	2.501565
1211.000000	2.486095
1212.000000	2.475862
1213.000000	2.462217
1214.000000	2.452169
1215.000000	2.449452
1216.000000	2.437496
1217.000000	2.414756
1218.000000	2.404313
1219.000000	2.401244
1220.000000	2.384063
1221.000000	2.363310
1222.000000	2.348174
1223.000000	2.334155
1224.000000	2.319073
1225.000000	2.299698
1226.000000	2.278030
1227.000000	2.275103
1228.000000	2.268280
1229.000000	2.242775
1230.000000	2.228774
1231.000000	2.221108
1232.000000	2.201338
1233.000000	2.186367
1234.000000	2.173666
1235.000000	2.164961
1236.000000	2.155985
1237.000000	2.142610
1238.000000	2.131689
1239.000000	2.125511
1240.000000	2.112525
1241.000000	2.096908
1242.000000	2.086349
1243.000000	2.083963
1244.000000	2.081237
1245.000000	2.071165
1246.000000	2.067900
1247.000000	2.056394
1248.000000	2.056830
1249.000000	2.059034
1250.000000	2.046471
1251.000000	2.046786
1252.000000	2.043794
1253.000000	2.035949
1254.000000	2.036782
1255.000000	2.041524
1256.000000	2.031573
1257.000000	2.022019
1258.000000	2.012294
1259.000000	2.009552
1260.000000	2.012647
1261.000000	2.006778
1262.000000	2.005464
1263.000000	2.001207
1264.000000	2.003967
1265.000000	2.001457
1266.000000	1.991019
1267.000000	1.984518
1268.000000	1.989724
1269.000000	1.991000
1270.000000	1.983931
1271.000000	1.977163
1272.000000	1.979540
1273.000000	1.979002
1274.000000	1.971128
1275.000000	1.961992
1276.000000	1.953232
1277.000000	1.955056
1278.000000	1.955130
1279.000000	1.955279
1280.000000	1.949245
1281.000000	1.943578
1282.000000	1.939249
1283.000000	1.938697
1284.000000	1.941645
1285.000000	1.942124
1286.000000	1.944195
1287.000000	1.961724
1288.000000	1.957068
1289.000000	1.947282
1290.000000	1.952364
1291.000000	1.953109
1292.000000	1.959181
1293.000000	1.962345
1294.000000	1.956155
1295.000000	1.947288
1296.000000	1.948870
1297.000000	1.947673
1298.000000	1.955334
1299.000000	1.953663
1300.000000	1.953552
1301.000000	1.960948
1302.000000	1.965399
1303.000000	1.954535
1304.000000	1.959051
1305.000000	1.967896
1306.000000	1.962118
1307.000000	1.956559
1308.000000	1.963288
1309.000000	1.964320
1310.000000	1.963649
1311.000000	1.964394
1312.000000	1.968617
1313.000000	1.977833
1314.000000	1.962577
1315.000000	1.968905
1316.000000	1.969959
1317.000000	1.964514
1318.000000	1.976370
1319.000000	1.974141
1320.000000	1.966251
1321.000000	1.967210
1322.000000	1.970903
1323.000000	1.959994
1324.000000	1.968487
1325.000000	1.971737
1326.000000	1.964528
1327.000000	1.969443
1328.000000	1.966754
1329.000000	1.972744
1330.000000	1.985800
1331.000000	1.976105
1332.000000	1.972011
1333.000000	1.983824
1334.000000	1.976466
1335.000000	1.991299
1336.000000	1.975882
1337.000000	1.987692
1338.000000	1.992744
1339.000000	1.998584
1340.000000	2.013076
1341.000000	2.007963
1342.000000	2.017393
1343.000000	2.033760
1344.000000	2.042483
1345.000000	2.047280
1346.000000	2.055395
1347.000000	2.082525
1348.000000	2.100335
1349.000000	2.123375
1350.000000	2.154039
1351.000000	2.194302
1352.000000	2.250291
1353.000000	2.229733
1354.000000	2.277282
1355.000000	2.262806
1356.000000	2.226226
1357.000000	2.230075
1358.000000	2.216174
1359.000000	2.209297
1360.000000	2.226041
1361.000000	2.255982
1362.000000	2.239040
1363.000000	2.245513
1364.000000	2.269269
1365.000000	2.277511
1366.000000	2.294674
1367.000000	2.329880
1368.000000	2.339144
1369.000000	2.341878
1370.000000	2.368695
1371.000000	2.397860
1372.000000	2.394891
1373.000000	2.399282
1374.000000	2.401553
1375.000000	2.399147
1376.000000	2.379469
1377.000000	2.373962
1378.000000	2.375031
1379.000000	2.370011
1380.000000	2.387885
1381.000000	2.441207
1382.000000	2.455883
1383.000000	2.485673
1384.000000	2.444890
1385.000000	2.431873
1386.000000	2.412066
1387.000000	2.382982
1388.000000	2.357166
1389.000000	2.287343
1390.000000	2.250191
1391.000000	2.209786
1392.000000	2.171033
1393.000000	2.111039
1394.000000	2.080647
1395.000000	2.072813
1396.000000	2.036097
1397.000000	1.971548
1398.000000	1.922977
1399.000000	1.945794
1400.000000	1.936921
1401.000000	1.903048
1402.000000	1.847198
1403.000000	1.872562
1404.000000	1.833374
1405.000000	1.822617
1406.000000	1.774146
1407.000000	1.749933
1408.000000	1.741613
1409.000000	1.711167
1410.000000	1.681335
1411.000000	1.643861
1412.000000	1.606511
1413.000000	1.595436
1414.000000	1.570418
1415.000000	1.540815
1416.000000	1.501729
1417.000000	1.467520
1418.000000	1.475278
1419.000000	1.452931
1420.000000	1.434340
1421.000000	1.402304
1422.000000	1.397308
1423.000000	1.406353
1424.000000	1.381320
1425.000000	1.360129
1426.000000	1.347554
1427.000000	1.338661
1428.000000	1.331010
1429.000000	1.314633
1430.000000	1.298708
1431.000000	1.296400
1432.000000	1.285480
1433.000000	1.271585
1434.000000	1.257955
1435.000000	1.246538
1436.000000	1.244865
1437.000000	1.236196
1438.000000	1.227604
1439.000000	1.227443
1440.000000	1.220494
1441.000000	1.218821
1442.000000	1.205687
1443.000000	1.204302
1444.000000	1.208758
1445.000000	1.206467
1446.000000	1.208939
1447.000000	1.196570
1448.000000	1.190911
1449.000000	1.200069
1450.000000	1.211529
1451.000000	1.208043
1452.000000	1.198269
1453.000000	1.199027
1454.000000	1.218748
1455.000000	1.212931
1456.000000	1.205673
1457.000000	1.202627
1458.000000	1.211767
1459.000000	1.210253
1460.000000	1.198595
1461.000000	1.194842
1462.000000	1.208869
1463.000000	1.204917
1464.000000	1.209536
1465.000000	1.214978
1466.000000	1.215791
1467.000000	1.218869
1468.000000	1.214426
1469.000000	1.223475
1470.000000	1.229173
1471.000000	1.232891
1472.000000	1.236912
1473.000000	1.238783
1474.000000	1.246879
1475.000000	1.257753
1476.000000	1.256612
1477.000000	1.257159
1478.000000	1.273832
1479.000000	1.281364
1480.000000	1.299622
1481.000000	1.303038
1482.000000	1.304380
1483.000000	1.318881
1484.000000	1.330615
1485.000000	1.339681
1486.000000	1.346255
1487.000000	1.357915
1488.000000	1.368794
1489.000000	1.387241
1490.000000	1.396173
1491.000000	1.402520
1492.000000	1.415517
1493.000000	1.433696
1494.000000	1.439640
1495.000000	1.443238
1496.000000	1.454016
1497.000000	1.475253
1498.000000	1.499847
1499.000000	1.510564
1500.000000	1.517201
1501.000000	1.526374
1502.000000	1.543359
1503.000000	1.563999
1504.000000	1.575624
1505.000000	1.586129
1506.000000	1.606485
1507.000000	1.627183
1508.000000	1.637723
1509.000000	1.647256
1510.000000	1.663560
1511.000000	1.671162
1512.000000	1.687978
1513.000000	1.700395
1514.000000	1.711648
1515.000000	1.733733
1516.000000	1.753558
1517.000000	1.770301
1518.000000	1.773440
1519.000000	1.779463
1520.000000	1.795141
1521.000000	1.812196
1522.000000	1.824137
1523.000000	1.842111
1524.000000	1.860063
1525.000000	1.867865
1526.000000	1.870299
1527.000000	1.887115
1528.000000	1.903738
1529.000000	1.913776
1530.000000	1.926966
1531.000000	1.941373
1532.000000	1.949638
1533.000000	1.952867
1534.000000	1.963304
1535.000000	1.979132
1536.000000	1.984043
1537.000000	1.990593
1538.000000	2.012817
1539.000000	2.022970
1540.000000	2.024132
1541.000000	2.036094
1542.000000	2.050427
1543.000000	2.073302
1544.000000	2.093118
1545.000000	2.096879
1546.000000	2.104961
1547.000000	2.122559
1548.000000	2.122493
1549.000000	2.142099
1550.000000	2.146835
1551.000000	2.166080
1552.000000	2.175919
1553.000000	2.182552
1554.000000	2.199867
1555.000000	2.204747
1556.000000	2.211954
1557.000000	2.226776
1558.000000	2.236902
1559.000000	2.239795
1560.000000	2.251622
1561.000000	2.264754
1562.000000	2.274389
1563.000000	2.286431
1564.000000	2.285532
1565.000000	2.292490
1566.000000	2.294522
1567.000000	2.301583
1568.000000	2.308335
1569.000000	2.323893
1570.000000	2.330773
1571.000000	2.323053
1572.000000	2.334356
1573.000000	2.333220
1574.000000	2.339525
1575.000000	2.351452
1576.000000	2.359808
1577.000000	2.358352
1578.000000	2.361416
1579.000000	2.372148
1580.000000	2.369762
1581.000000	2.365850
1582.000000	2.389997
1583.000000	2.405992
1584.000000	2.412011
1585.000000	2.411452
1586.000000	2.413620
1587.000000	2.423248
1588.000000	2.422094
1589.000000	2.423280
1590.000000	2.441805
1591.000000	2.441446
1592.000000	2.443455
1593.000000	2.442389
1594.000000	2.449974
1595.000000	2.451917
1596.000000	2.456603
1597.000000	2.469450
1598.000000	2.473520
1599.000000	2.474585
1600.000000	2.489067
1601.000000	2.480530
1602.000000	2.490073
1603.000000	2.484539
1604.000000	2.495796
1605.000000	2.499880
1606.000000	2.503254
1607.000000	2.497639
1608.000000	2.517093
1609.000000	2.514269
1610.000000	2.522344
1611.000000	2.528784
1612.000000	2.525183
1613.000000	2.527840
1614.000000	2.540942
1615.000000	2.535240
1616.000000	2.532849
1617.000000	2.535065
1618.000000	2.530171
1619.000000	2.544748
1620.000000	2.530858
1621.000000	2.535698
1622.000000	2.535672
1623.000000	2.531218
1624.000000	2.540037
1625.000000	2.540414
1626.000000	2.541947
1627.000000	2.536405
1628.000000	2.534730
1629.000000	2.542815
1630.000000	2.535370
1631.000000	2.541727
1632.000000	2.528690
1633.000000	2.544604
1634.000000	2.549720
1635.000000	2.549888
1636.000000	2.546412
1637.000000	2.532347
1638.000000	2.549788
1639.000000	2.536095
1640.000000	2.537818
1641.000000	2.546809
1642.000000	2.539217
1643.000000	2.525208
1644.000000	2.534325
1645.000000	2.535844
1646.000000	2.534907
1647.000000	2.539338
1648.000000	2.533360
1649.000000	2.537671
1650.000000	2.531824
1651.000000	2.535930
1652.000000	2.549013
1653.000000	2.543746
1654.000000	2.527339
1655.000000	2.536646
1656.000000	2.534331
1657.000000	2.527571
1658.000000	2.533937
1659.000000	2.528346
1660.000000	2.518103
1661.000000	2.524133
1662.000000	2.529460
1663.000000	2.530622
1664.000000	2.529204
1665.000000	2.526133
1666.000000	2.523075
1667.000000	2.532605
1668.000000	2.551602
1669.000000	2.553555
1670.000000	2.557290
1671.000000	2.570611
1672.000000	2.594935
1673.000000	2.608398
1674.000000	2.634906
1675.000000	2.655322
1676.000000	2.700601
1677.000000	2.716552
1678.000000	2.758105
1679.000000	2.791307
1680.000000	2.793222
1681.000000	2.804643
1682.000000	2.790720
1683.000000	2.784736
1684.000000	2.755081
1685.000000	2.741284
1686.000000	2.729762
1687.000000	2.718314
1688.000000	2.731984
1689.000000	2.735944
1690.000000	2.754451
1691.000000	2.781243
1692.000000	2.785369
1693.000000	2.807372
1694.000000	2.800771
1695.000000	2.800385
1696.000000	2.777566
1697.000000	2.753356
1698.000000	2.747271
1699.000000	2.732398
1700.000000	2.720563
1701.000000	2.709138
1702.000000	2.705745
1703.000000	2.688477
1704.000000	2.689120
1705.000000	2.682100
1706.000000	2.668271
1707.000000	2.647700
1708.000000	2.648652
1709.000000	2.629461
1710.000000	2.605036
1711.000000	2.606223
1712.000000	2.605041
1713.000000	2.587135
1714.000000	2.566332
1715.000000	2.541858
1716.000000	2.523018
1717.000000	2.510370
1718.000000	2.478197
1719.000000	2.453456
1720.000000	2.427579
1721.000000	2.417037
1722.000000	2.394955
1723.000000	2.390943
1724.000000	2.387175
1725.000000	2.399643
1726.000000	2.401385
1727.000000	2.404239
1728.000000	2.416121
1729.000000	2.426123
1730.000000	2.430079
1731.000000	2.436313
1732.000000	2.442717
1733.000000	2.435688
1734.000000	2.435527
1735.000000	2.432800
1736.000000	2.421145
1737.000000	2.412738
1738.000000	2.395643
1739.000000	2.393771
1740.000000	2.385870
1741.000000	2.372348
1742.000000	2.360039
1743.000000	2.355217
1744.000000	2.343516
1745.000000	2.334707
1746.000000	2.333518
1747.000000	2.330754
1748.000000	2.309395
1749.000000	2.311349
1750.000000	2.303782
1751.000000	2.296055
1752.000000	2.299401
1753.000000	2.301380
1754.000000	2.291398
1755.000000	2.280284
1756.000000	2.279468
1757.000000	2.283628
1758.000000	2.282286
1759.000000	2.285051
1760.000000	2.283774
1761.000000	2.274056
1762.000000	2.262988
1763.000000	2.246039
1764.000000	2.237876
1765.000000	2.233257
1766.000000	2.236260
1767.000000	2.228161
1768.000000	2.214958
1769.000000	2.202205
1770.000000	2.206832
1771.000000	2.197552
1772.000000	2.195456
1773.000000	2.191353
1774.000000	2.180900
1775.000000	2.174562
1776.000000	2.173961
1777.000000	2.159776
1778.000000	2.154593
1779.000000	2.151212
1780.000000	2.142169
1781.000000	2.131881
1782.000000	2.126986
1783.000000	2.120128
1784.000000	2.117796
1785.000000	2.113505
1786.000000	2.114073
1787.000000	2.109102
1788.000000	2.094808
1789.000000	2.081904
1790.000000	2.089900
1791.000000	2.092350
1792.000000	2.083533
1793.000000	2.079046
1794.000000	2.072477
1795.000000	2.067066
1796.000000	2.065156
1797.000000	2.062403
1798.000000	2.058775
1799.000000	2.064907
1800.000000	2.063783
1801.000000	2.061490
1802.000000	2.059970
1803.000000	2.055110
1804.000000	2.047613
1805.000000	2.045472
1806.000000	2.056397
1807.000000	2.053217
1808.000000	2.044415
1809.000000	2.041392
1810.000000	2.045794
1811.000000	2.044723
1812.000000	2.049356
1813.000000	2.052089
1814.000000	2.056214
1815.000000	2.064680
1816.000000	2.054267
1817.000000	2.049489
1818.000000	2.047206
1819.000000	2.060243
1820.000000	2.067624
1821.000000	2.051638
1822.000000	2.029864
1823.000000	2.009076
1824.000000	2.003449
1825.000000	2.006315
1826.000000	2.005566
1827.000000	2.001917
1828.000000	2.002861
1829.000000	2.002994
1830.000000	1.994523
1831.000000	1.981224
1832.000000	1.973055
1833.000000	1.964088
1834.000000	1.973495
1835.000000	1.974769
1836.000000	1.976735
1837.000000	1.963492
1838.000000	1.956622
1839.000000	1.960075
1840.000000	1.951749
1841.000000	1.954218
1842.000000	1.929176
1843.000000	1.913451
1844.000000	1.911348
1845.000000	1.894392
1846.000000	1.913786
1847.000000	1.915139
1848.000000	1.878803
1849.000000	1.847648
1850.000000	1.842102
1851.000000	1.844124
1852.000000	1.828549
1853.000000	1.824014
1854.000000	1.812272
1855.000000	1.782918
1856.000000	1.773784
1857.000000	1.768288
1858.000000	1.763895
1859.000000	1.738275
1860.000000	1.727562
1861.000000	1.707264
1862.000000	1.680770
1863.000000	1.669618
1864.000000	1.659330
1865.000000	1.653506
1866.000000	1.648478
1867.000000	1.636102
1868.000000	1.621313
1869.000000	1.612772
1870.000000	1.598025
1871.000000	1.560931
1872.000000	1.543053
1873.000000	1.519603
1874.000000	1.489854
1875.000000	1.472443
1876.000000	1.441792
1877.000000	1.434643
1878.000000	1.403304
1879.000000	1.366261
1880.000000	1.361689
1881.000000	1.335708
1882.000000	1.307184
1883.000000	1.267241
1884.000000	1.207304
1885.000000	1.124459
1886.000000	1.062130
1887.000000	1.004702
1888.000000	0.965701
1889.000000	0.884037
1890.000000	0.824462
1891.000000	0.764729
1892.000000	0.669289
1893.000000	0.604248
1894.000000	0.549946
1895.000000	0.502307
1896.000000	0.461583
1897.000000	0.444665
1898.000000	0.403698
1899.000000	0.342592
1900.000000	0.308374
1901.000000	0.257683
1902.000000	0.237657
1903.000000	0.211924
1904.000000	0.189526
1905.000000	0.188726
1906.000000	0.153629
1907.000000	0.144376
1908.000000	0.131401
1909.000000	0.138726
1910.000000	0.129016
1911.000000	0.110896
1912.000000	0.127738
1913.000000	0.139398
1914.000000	0.165093
1915.000000	0.176967
1916.000000	0.166097
1917.000000	0.164879
1918.000000	0.168863
1919.000000	0.180077
1920.000000	0.177774
1921.000000	0.207537
1922.000000	0.224993
1923.000000	0.232577
1924.000000	0.223711
1925.000000	0.224883
1926.000000	0.230810
1927.000000	0.245544
1928.000000	0.243316
1929.000000	0.265276
1930.000000	0.248051
1931.000000	0.266661
1932.000000	0.288077
1933.000000	0.267947
1934.000000	0.273533
1935.000000	0.265990
1936.000000	0.267636
1937.000000	0.281368
1938.000000	0.285263
1939.000000	0.264592
1940.000000	0.289689
1941.000000	0.290511
1942.000000	0.292106
1943.000000	0.288066
1944.000000	0.287562
1945.000000	0.288160
1946.000000	0.268880
1947.000000	0.281357
1948.000000	0.275085
1949.000000	0.290184
1950.000000	0.285446
1951.000000	0.277228
1952.000000	0.266073
1953.000000	0.273473
1954.000000	0.277091
1955.000000	0.280388
1956.000000	0.275524
1957.000000	0.263992
1958.000000	0.273161
1959.000000	0.262917
1960.000000	0.249025
1961.000000	0.268766
1962.000000	0.260652
1963.000000	0.256727
1964.000000	0.236197
1965.000000	0.248748
1966.000000	0.242024
1967.000000	0.223364
1968.000000	0.229248
1969.000000	0.232574
1970.000000	0.216166
1971.000000	0.222639
1972.000000	0.213573
1973.000000	0.219218
1974.000000	0.202861
1975.000000	0.198224
1976.000000	0.191119
1977.000000	0.204581
1978.000000	0.208232
1979.000000	0.197904
1980.000000	0.204697
1981.000000	0.175139
1982.000000	0.181524
1983.000000	0.176179
1984.000000	0.162628
1985.000000	0.167167
1986.000000	0.171014
1987.000000	0.174347
1988.000000	0.164729
1989.000000	0.150147
1990.000000	0.170202
1991.000000	0.169025
1992.000000	0.165832
1993.000000	0.157397
1994.000000	0.154121
1995.000000	0.169508
1996.000000	0.160397
1997.000000	0.163276
1998.000000	0.154290
1999.000000	0.167069
