PE UV       SUBTECH     SPECTRUM    ASCII       PEDS        4.00        
   -1
CICIMAUCR0247-3.Sample.ASC
24/06/24
17:27:09.00
24/06/24
17:27:09.00
Vinicio Soto Monge
C. resplendens. Sex M.Dorsal. 
250,000000
1
Lambda 1050
1050L1511233
PerkinElmer UV WinLab 6.3.2.0749 / 2.02.05 Lambda 900 UV/VIS/NIR, Aug  7 2015 09:38:08

0
0
3350/servo 860,8/2
0
0
UV/VIS
1
1
1
DoubleDePol,CommonBeamDepol,RBeamAtt,SBeamAtt,60mm sphere, WB InGaAs Detector
0
0
0
0
Program
Program
3350/servo 860,8/2
3350/0,2 860,8/0,2
3350/0,2 860,8/0,2
0
15.00
 
 
 
0
 
860,8
319,2
860,8
Front
100
on
S:100 R:100
0
0
0
0
 
0
 
 
 
0
 
 
0
0
0
0
0
 
 
 
 
0
0


0
0
#HDR
-1
-1
#GR
nm
%R
1.0
0.0
2500,000000
-1,000000
2251
8
89,189200
5,680200
#DATA
250.000000	0.029953
251.000000	0.019486
252.000000	0.018930
253.000000	0.050105
254.000000	0.038883
255.000000	0.031076
256.000000	0.018657
257.000000	0.025252
258.000000	0.038582
259.000000	0.036838
260.000000	0.039482
261.000000	0.038106
262.000000	0.015653
263.000000	0.022921
264.000000	0.042435
265.000000	0.044392
266.000000	0.048357
267.000000	0.026624
268.000000	0.007351
269.000000	0.026131
270.000000	0.031551
271.000000	0.027365
272.000000	0.030293
273.000000	0.046875
274.000000	0.032595
275.000000	0.054177
276.000000	0.026801
277.000000	0.032925
278.000000	0.037281
279.000000	0.033155
280.000000	0.007512
281.000000	0.026269
282.000000	0.012613
283.000000	0.015733
284.000000	0.030668
285.000000	0.022015
286.000000	0.055825
287.000000	0.051453
288.000000	0.046805
289.000000	0.052033
290.000000	0.047030
291.000000	0.035086
292.000000	0.041387
293.000000	0.035257
294.000000	0.046159
295.000000	0.057356
296.000000	0.043911
297.000000	0.032821
298.000000	0.063212
299.000000	0.065116
300.000000	0.049141
301.000000	0.045042
302.000000	0.019916
303.000000	0.011528
304.000000	0.006306
305.000000	0.020390
306.000000	0.041256
307.000000	0.069240
308.000000	0.071004
309.000000	0.065104
310.000000	0.061090
311.000000	0.074938
312.000000	0.055921
313.000000	0.060200
314.000000	0.070724
315.000000	0.097448
316.000000	0.104255
317.000000	0.058601
318.000000	0.187780
319.000000	0.025716
320.000000	0.298101
321.000000	0.505215
322.000000	0.225118
323.000000	0.149514
324.000000	0.136417
325.000000	0.033834
326.000000	0.084570
327.000000	0.302497
328.000000	0.243750
329.000000	0.160147
330.000000	0.208279
331.000000	0.192677
332.000000	0.091321
333.000000	0.202933
334.000000	0.378355
335.000000	0.214659
336.000000	0.081960
337.000000	0.110456
338.000000	0.121826
339.000000	0.270883
340.000000	0.337289
341.000000	0.229643
342.000000	0.204852
343.000000	0.182936
344.000000	0.096962
345.000000	0.131177
346.000000	0.201889
347.000000	0.196326
348.000000	0.118707
349.000000	0.089601
350.000000	0.096883
351.000000	0.074846
352.000000	0.084299
353.000000	0.128705
354.000000	0.156800
355.000000	0.040240
356.000000	0.121891
357.000000	0.061986
358.000000	0.012024
359.000000	0.140954
360.000000	0.148688
361.000000	0.120435
362.000000	0.083220
363.000000	0.021190
364.000000	0.063894
365.000000	0.066939
366.000000	0.101684
367.000000	0.049599
368.000000	0.083460
369.000000	0.023226
370.000000	0.140563
371.000000	0.030915
372.000000	0.096593
373.000000	0.133731
374.000000	0.034515
375.000000	0.058011
376.000000	0.070607
377.000000	0.056922
378.000000	0.046744
379.000000	0.043335
380.000000	0.064501
381.000000	0.053533
382.000000	0.048858
383.000000	0.062388
384.000000	0.064422
385.000000	0.056963
386.000000	0.058978
387.000000	0.067716
388.000000	0.067078
389.000000	0.052068
390.000000	0.049751
391.000000	0.070493
392.000000	0.061108
393.000000	0.055015
394.000000	0.072003
395.000000	0.082932
396.000000	0.067759
397.000000	0.062230
398.000000	0.072256
399.000000	0.082965
400.000000	0.094414
401.000000	0.091903
402.000000	0.100997
403.000000	0.122579
404.000000	0.148297
405.000000	0.149659
406.000000	0.143045
407.000000	0.171482
408.000000	0.203846
409.000000	0.214991
410.000000	0.237032
411.000000	0.250233
412.000000	0.262445
413.000000	0.285028
414.000000	0.296483
415.000000	0.321540
416.000000	0.332420
417.000000	0.357786
418.000000	0.377762
419.000000	0.376908
420.000000	0.374092
421.000000	0.382654
422.000000	0.404832
423.000000	0.406928
424.000000	0.397169
425.000000	0.407059
426.000000	0.400769
427.000000	0.394996
428.000000	0.393503
429.000000	0.391374
430.000000	0.363338
431.000000	0.346195
432.000000	0.321469
433.000000	0.307878
434.000000	0.305809
435.000000	0.282714
436.000000	0.255688
437.000000	0.217213
438.000000	0.201792
439.000000	0.180566
440.000000	0.179385
441.000000	0.150203
442.000000	0.133411
443.000000	0.123277
444.000000	0.077693
445.000000	0.086502
446.000000	0.069499
447.000000	0.077534
448.000000	0.058223
449.000000	0.070071
450.000000	0.053396
451.000000	0.055018
452.000000	0.057937
453.000000	0.073989
454.000000	0.088771
455.000000	0.071918
456.000000	0.107044
457.000000	0.104646
458.000000	0.119829
459.000000	0.136891
460.000000	0.155398
461.000000	0.174634
462.000000	0.152510
463.000000	0.175585
464.000000	0.187135
465.000000	0.177177
466.000000	0.184733
467.000000	0.220242
468.000000	0.223723
469.000000	0.226705
470.000000	0.252956
471.000000	0.263162
472.000000	0.283306
473.000000	0.297056
474.000000	0.319224
475.000000	0.308041
476.000000	0.335646
477.000000	0.340467
478.000000	0.338875
479.000000	0.305073
480.000000	0.314071
481.000000	0.286169
482.000000	0.269624
483.000000	0.253464
484.000000	0.241041
485.000000	0.259792
486.000000	0.240239
487.000000	0.223360
488.000000	0.206298
489.000000	0.188130
490.000000	0.172549
491.000000	0.164436
492.000000	0.159697
493.000000	0.166901
494.000000	0.171722
495.000000	0.221782
496.000000	0.281905
497.000000	0.326247
498.000000	0.409969
499.000000	0.481749
500.000000	0.547873
501.000000	0.628066
502.000000	0.702968
503.000000	0.754765
504.000000	0.825108
505.000000	0.856580
506.000000	0.933007
507.000000	0.962241
508.000000	0.970923
509.000000	0.998208
510.000000	1.001528
511.000000	0.999188
512.000000	0.977479
513.000000	0.957960
514.000000	0.959038
515.000000	0.906752
516.000000	0.900160
517.000000	0.864356
518.000000	0.855852
519.000000	0.820235
520.000000	0.796728
521.000000	0.767445
522.000000	0.718608
523.000000	0.657501
524.000000	0.591023
525.000000	0.547138
526.000000	0.472453
527.000000	0.401796
528.000000	0.348154
529.000000	0.308645
530.000000	0.288566
531.000000	0.292407
532.000000	0.307427
533.000000	0.333916
534.000000	0.347564
535.000000	0.377073
536.000000	0.377499
537.000000	0.443192
538.000000	0.458786
539.000000	0.474950
540.000000	0.483255
541.000000	0.482162
542.000000	0.523131
543.000000	0.535696
544.000000	0.572633
545.000000	0.576088
546.000000	0.604722
547.000000	0.615433
548.000000	0.662997
549.000000	0.700042
550.000000	0.726003
551.000000	0.738591
552.000000	0.778545
553.000000	0.777357
554.000000	0.796257
555.000000	0.806872
556.000000	0.828217
557.000000	0.813770
558.000000	0.810378
559.000000	0.838157
560.000000	0.822715
561.000000	0.831265
562.000000	0.868333
563.000000	0.887545
564.000000	0.917284
565.000000	0.948491
566.000000	0.952976
567.000000	0.984717
568.000000	1.001763
569.000000	1.032050
570.000000	1.057713
571.000000	1.084569
572.000000	1.166430
573.000000	1.205662
574.000000	1.205551
575.000000	1.247150
576.000000	1.262152
577.000000	1.248612
578.000000	1.285327
579.000000	1.314305
580.000000	1.330000
581.000000	1.353742
582.000000	1.362586
583.000000	1.352154
584.000000	1.362373
585.000000	1.376074
586.000000	1.403033
587.000000	1.379280
588.000000	1.377438
589.000000	1.385785
590.000000	1.393729
591.000000	1.415064
592.000000	1.438670
593.000000	1.469518
594.000000	1.506590
595.000000	1.538046
596.000000	1.550085
597.000000	1.600591
598.000000	1.641283
599.000000	1.676335
600.000000	1.723481
601.000000	1.785012
602.000000	1.833743
603.000000	1.886787
604.000000	1.924338
605.000000	1.977804
606.000000	2.017543
607.000000	2.069367
608.000000	2.093843
609.000000	2.136227
610.000000	2.180093
611.000000	2.220550
612.000000	2.232966
613.000000	2.212091
614.000000	2.214575
615.000000	2.164352
616.000000	2.120364
617.000000	2.086192
618.000000	2.060793
619.000000	2.033622
620.000000	1.961537
621.000000	1.904389
622.000000	1.833566
623.000000	1.778944
624.000000	1.725622
625.000000	1.606064
626.000000	1.514619
627.000000	1.441402
628.000000	1.353344
629.000000	1.273575
630.000000	1.191265
631.000000	1.107580
632.000000	1.006848
633.000000	0.873397
634.000000	0.758738
635.000000	0.660471
636.000000	0.564216
637.000000	0.440752
638.000000	0.308724
639.000000	0.222886
640.000000	0.229042
641.000000	0.322037
642.000000	0.470142
643.000000	0.634183
644.000000	0.764872
645.000000	0.884800
646.000000	1.014913
647.000000	1.129694
648.000000	1.222114
649.000000	1.333023
650.000000	1.427525
651.000000	1.483748
652.000000	1.529871
653.000000	1.570674
654.000000	1.585728
655.000000	1.587309
656.000000	1.608576
657.000000	1.610166
658.000000	1.571704
659.000000	1.537540
660.000000	1.524842
661.000000	1.525256
662.000000	1.487583
663.000000	1.447788
664.000000	1.452491
665.000000	1.418318
666.000000	1.377237
667.000000	1.354102
668.000000	1.306707
669.000000	1.284705
670.000000	1.244984
671.000000	1.197317
672.000000	1.131910
673.000000	1.032282
674.000000	0.910172
675.000000	0.820872
676.000000	0.781712
677.000000	0.695653
678.000000	0.625114
679.000000	0.540812
680.000000	0.527754
681.000000	0.470539
682.000000	0.415024
683.000000	0.395146
684.000000	0.376802
685.000000	0.345056
686.000000	0.341714
687.000000	0.313552
688.000000	0.313539
689.000000	0.350392
690.000000	0.354836
691.000000	0.304239
692.000000	0.283431
693.000000	0.306455
694.000000	0.261354
695.000000	0.235353
696.000000	0.206879
697.000000	0.183009
698.000000	0.276721
699.000000	0.275551
700.000000	0.221224
701.000000	0.280542
702.000000	0.353608
703.000000	0.282985
704.000000	0.294770
705.000000	0.280127
706.000000	0.305936
707.000000	0.319848
708.000000	0.282769
709.000000	0.271169
710.000000	0.256368
711.000000	0.260391
712.000000	0.290662
713.000000	0.285483
714.000000	0.199072
715.000000	0.191084
716.000000	0.266840
717.000000	0.239385
718.000000	0.270171
719.000000	0.286747
720.000000	0.299258
721.000000	0.327145
722.000000	0.252637
723.000000	0.307182
724.000000	0.226644
725.000000	0.258922
726.000000	0.351198
727.000000	0.304677
728.000000	0.330069
729.000000	0.268590
730.000000	0.292787
731.000000	0.307124
732.000000	0.295760
733.000000	0.296281
734.000000	0.309611
735.000000	0.260801
736.000000	0.312193
737.000000	0.271478
738.000000	0.325375
739.000000	0.240630
740.000000	0.272407
741.000000	0.294694
742.000000	0.309772
743.000000	0.384925
744.000000	0.402262
745.000000	0.447527
746.000000	0.471298
747.000000	0.488896
748.000000	0.571591
749.000000	0.478443
750.000000	0.499474
751.000000	0.514710
752.000000	0.630871
753.000000	0.621328
754.000000	0.663858
755.000000	0.730318
756.000000	0.731449
757.000000	0.714970
758.000000	0.849178
759.000000	0.932137
760.000000	0.883712
761.000000	0.994590
762.000000	1.041822
763.000000	1.066535
764.000000	0.939297
765.000000	1.071312
766.000000	1.175951
767.000000	1.020077
768.000000	1.200195
769.000000	1.190857
770.000000	1.246721
771.000000	1.192237
772.000000	1.257517
773.000000	1.268778
774.000000	1.364551
775.000000	1.364765
776.000000	1.465919
777.000000	1.505692
778.000000	1.484005
779.000000	1.558381
780.000000	1.553546
781.000000	1.671432
782.000000	1.601567
783.000000	1.747623
784.000000	1.702324
785.000000	1.791799
786.000000	1.863316
787.000000	1.873973
788.000000	1.843711
789.000000	1.739801
790.000000	1.836724
791.000000	1.805693
792.000000	1.944552
793.000000	1.882401
794.000000	1.943485
795.000000	1.976325
796.000000	1.992276
797.000000	1.960737
798.000000	2.037800
799.000000	2.039768
800.000000	2.003512
801.000000	2.052902
802.000000	1.960512
803.000000	2.015442
804.000000	2.011882
805.000000	2.021782
806.000000	2.232361
807.000000	2.041303
808.000000	2.003830
809.000000	2.020191
810.000000	2.010189
811.000000	1.992710
812.000000	1.911073
813.000000	2.015517
814.000000	2.022437
815.000000	2.043130
816.000000	1.941457
817.000000	1.962387
818.000000	1.969027
819.000000	2.020620
820.000000	1.953414
821.000000	2.139402
822.000000	2.044293
823.000000	2.088182
824.000000	2.080082
825.000000	1.894893
826.000000	1.940377
827.000000	1.744906
828.000000	1.691564
829.000000	2.087839
830.000000	1.889173
831.000000	1.796394
832.000000	1.746782
833.000000	1.624513
834.000000	1.614475
835.000000	1.686488
836.000000	1.620729
837.000000	1.749195
838.000000	1.754130
839.000000	1.493362
840.000000	1.553868
841.000000	1.624982
842.000000	1.830337
843.000000	1.663286
844.000000	1.646269
845.000000	1.601609
846.000000	1.591592
847.000000	1.385796
848.000000	1.401339
849.000000	1.545325
850.000000	1.648386
851.000000	1.733575
852.000000	1.451367
853.000000	1.297277
854.000000	1.256486
855.000000	1.779599
856.000000	1.764555
857.000000	1.729988
858.000000	1.757966
859.000000	1.764842
860.000000	1.761246
861.000000	1.762108
862.000000	1.757005
863.000000	1.746400
864.000000	1.755001
865.000000	1.754955
866.000000	1.747208
867.000000	1.745764
868.000000	1.749380
869.000000	1.745928
870.000000	1.733995
871.000000	1.702715
872.000000	1.659964
873.000000	1.622184
874.000000	1.616641
875.000000	1.626047
876.000000	1.651541
877.000000	1.666720
878.000000	1.684106
879.000000	1.674306
880.000000	1.687434
881.000000	1.692365
882.000000	1.693521
883.000000	1.696066
884.000000	1.692523
885.000000	1.688015
886.000000	1.681792
887.000000	1.661233
888.000000	1.673765
889.000000	1.676974
890.000000	1.685262
891.000000	1.676439
892.000000	1.673232
893.000000	1.675088
894.000000	1.681133
895.000000	1.681153
896.000000	1.690162
897.000000	1.702694
898.000000	1.702499
899.000000	1.713202
900.000000	1.709130
901.000000	1.708525
902.000000	1.719451
903.000000	1.733427
904.000000	1.735195
905.000000	1.738440
906.000000	1.743479
907.000000	1.742081
908.000000	1.738627
909.000000	1.734094
910.000000	1.724700
911.000000	1.718178
912.000000	1.709478
913.000000	1.700147
914.000000	1.682952
915.000000	1.665992
916.000000	1.654346
917.000000	1.625290
918.000000	1.606825
919.000000	1.600144
920.000000	1.569822
921.000000	1.561154
922.000000	1.563092
923.000000	1.547149
924.000000	1.517194
925.000000	1.498579
926.000000	1.478160
927.000000	1.469651
928.000000	1.464707
929.000000	1.423764
930.000000	1.402663
931.000000	1.405176
932.000000	1.391793
933.000000	1.364952
934.000000	1.340988
935.000000	1.320374
936.000000	1.313759
937.000000	1.299920
938.000000	1.272745
939.000000	1.253261
940.000000	1.245190
941.000000	1.241881
942.000000	1.231767
943.000000	1.214168
944.000000	1.207929
945.000000	1.205019
946.000000	1.192810
947.000000	1.184370
948.000000	1.188467
949.000000	1.188015
950.000000	1.169956
951.000000	1.162644
952.000000	1.166702
953.000000	1.147424
954.000000	1.133949
955.000000	1.130144
956.000000	1.111603
957.000000	1.089932
958.000000	1.075400
959.000000	1.062569
960.000000	1.050775
961.000000	1.034256
962.000000	1.019373
963.000000	1.000480
964.000000	0.985866
965.000000	0.978610
966.000000	0.972412
967.000000	0.954188
968.000000	0.937845
969.000000	0.934443
970.000000	0.928523
971.000000	0.903299
972.000000	0.893306
973.000000	0.887867
974.000000	0.868318
975.000000	0.851204
976.000000	0.837366
977.000000	0.824765
978.000000	0.824008
979.000000	0.811806
980.000000	0.796826
981.000000	0.787302
982.000000	0.776903
983.000000	0.766984
984.000000	0.746380
985.000000	0.745738
986.000000	0.748117
987.000000	0.737665
988.000000	0.720104
989.000000	0.722162
990.000000	0.729212
991.000000	0.720641
992.000000	0.719111
993.000000	0.714645
994.000000	0.709760
995.000000	0.718738
996.000000	0.728009
997.000000	0.708977
998.000000	0.701680
999.000000	0.707328
1000.000000	0.710020
1001.000000	0.696737
1002.000000	0.686763
1003.000000	0.694407
1004.000000	0.700076
1005.000000	0.690921
1006.000000	0.685433
1007.000000	0.663645
1008.000000	0.656909
1009.000000	0.660452
1010.000000	0.646814
1011.000000	0.640341
1012.000000	0.631561
1013.000000	0.619145
1014.000000	0.628309
1015.000000	0.615700
1016.000000	0.602405
1017.000000	0.597470
1018.000000	0.604621
1019.000000	0.600390
1020.000000	0.580572
1021.000000	0.577016
1022.000000	0.561391
1023.000000	0.572516
1024.000000	0.577419
1025.000000	0.559637
1026.000000	0.557860
1027.000000	0.553544
1028.000000	0.534500
1029.000000	0.542118
1030.000000	0.526592
1031.000000	0.527055
1032.000000	0.532938
1033.000000	0.509191
1034.000000	0.511300
1035.000000	0.525349
1036.000000	0.516442
1037.000000	0.511486
1038.000000	0.520642
1039.000000	0.504335
1040.000000	0.519427
1041.000000	0.519793
1042.000000	0.496330
1043.000000	0.500921
1044.000000	0.503101
1045.000000	0.504476
1046.000000	0.506276
1047.000000	0.495665
1048.000000	0.501684
1049.000000	0.490420
1050.000000	0.480732
1051.000000	0.485531
1052.000000	0.481990
1053.000000	0.486398
1054.000000	0.489680
1055.000000	0.504624
1056.000000	0.494929
1057.000000	0.484818
1058.000000	0.478076
1059.000000	0.486493
1060.000000	0.481063
1061.000000	0.473665
1062.000000	0.471513
1063.000000	0.471064
1064.000000	0.471105
1065.000000	0.471353
1066.000000	0.473414
1067.000000	0.487028
1068.000000	0.474951
1069.000000	0.466870
1070.000000	0.474886
1071.000000	0.472161
1072.000000	0.480254
1073.000000	0.464816
1074.000000	0.463909
1075.000000	0.465441
1076.000000	0.467180
1077.000000	0.472628
1078.000000	0.477081
1079.000000	0.453192
1080.000000	0.458048
1081.000000	0.459174
1082.000000	0.472648
1083.000000	0.464943
1084.000000	0.464828
1085.000000	0.465727
1086.000000	0.467222
1087.000000	0.468335
1088.000000	0.456232
1089.000000	0.456842
1090.000000	0.466501
1091.000000	0.465980
1092.000000	0.455544
1093.000000	0.458152
1094.000000	0.451332
1095.000000	0.477127
1096.000000	0.449771
1097.000000	0.464193
1098.000000	0.448381
1099.000000	0.454545
1100.000000	0.437971
1101.000000	0.446522
1102.000000	0.450893
1103.000000	0.456039
1104.000000	0.449872
1105.000000	0.455209
1106.000000	0.438627
1107.000000	0.438470
1108.000000	0.439456
1109.000000	0.446682
1110.000000	0.442973
1111.000000	0.434912
1112.000000	0.438694
1113.000000	0.432868
1114.000000	0.433872
1115.000000	0.441078
1116.000000	0.435156
1117.000000	0.434092
1118.000000	0.434046
1119.000000	0.436525
1120.000000	0.431324
1121.000000	0.432291
1122.000000	0.437749
1123.000000	0.423397
1124.000000	0.439402
1125.000000	0.430443
1126.000000	0.421232
1127.000000	0.411427
1128.000000	0.404765
1129.000000	0.407322
1130.000000	0.397540
1131.000000	0.410083
1132.000000	0.399535
1133.000000	0.397651
1134.000000	0.384625
1135.000000	0.381993
1136.000000	0.368047
1137.000000	0.367321
1138.000000	0.360839
1139.000000	0.358168
1140.000000	0.345503
1141.000000	0.331750
1142.000000	0.328230
1143.000000	0.329878
1144.000000	0.333175
1145.000000	0.321829
1146.000000	0.316235
1147.000000	0.316723
1148.000000	0.318731
1149.000000	0.311834
1150.000000	0.310468
1151.000000	0.307865
1152.000000	0.301207
1153.000000	0.300364
1154.000000	0.294231
1155.000000	0.293662
1156.000000	0.296482
1157.000000	0.305181
1158.000000	0.292470
1159.000000	0.289430
1160.000000	0.291352
1161.000000	0.284990
1162.000000	0.287384
1163.000000	0.287433
1164.000000	0.279714
1165.000000	0.270186
1166.000000	0.276439
1167.000000	0.276364
1168.000000	0.282510
1169.000000	0.280741
1170.000000	0.279517
1171.000000	0.279069
1172.000000	0.281973
1173.000000	0.279946
1174.000000	0.281390
1175.000000	0.283042
1176.000000	0.282425
1177.000000	0.277360
1178.000000	0.267191
1179.000000	0.270154
1180.000000	0.273245
1181.000000	0.285119
1182.000000	0.284415
1183.000000	0.288828
1184.000000	0.294040
1185.000000	0.305375
1186.000000	0.314678
1187.000000	0.316931
1188.000000	0.325999
1189.000000	0.335452
1190.000000	0.338694
1191.000000	0.338609
1192.000000	0.337136
1193.000000	0.332161
1194.000000	0.328995
1195.000000	0.331130
1196.000000	0.337558
1197.000000	0.339882
1198.000000	0.341753
1199.000000	0.343509
1200.000000	0.342171
1201.000000	0.346614
1202.000000	0.351983
1203.000000	0.350229
1204.000000	0.351966
1205.000000	0.356947
1206.000000	0.359534
1207.000000	0.355136
1208.000000	0.352416
1209.000000	0.359574
1210.000000	0.360497
1211.000000	0.355923
1212.000000	0.360442
1213.000000	0.363200
1214.000000	0.357751
1215.000000	0.358950
1216.000000	0.360560
1217.000000	0.354046
1218.000000	0.345683
1219.000000	0.340703
1220.000000	0.341521
1221.000000	0.338570
1222.000000	0.347048
1223.000000	0.345301
1224.000000	0.339008
1225.000000	0.337711
1226.000000	0.327449
1227.000000	0.325915
1228.000000	0.322374
1229.000000	0.319758
1230.000000	0.321001
1231.000000	0.312084
1232.000000	0.311315
1233.000000	0.309091
1234.000000	0.306984
1235.000000	0.310596
1236.000000	0.310330
1237.000000	0.316493
1238.000000	0.316380
1239.000000	0.309430
1240.000000	0.310007
1241.000000	0.304260
1242.000000	0.306445
1243.000000	0.309729
1244.000000	0.313286
1245.000000	0.318585
1246.000000	0.312545
1247.000000	0.309111
1248.000000	0.310334
1249.000000	0.316415
1250.000000	0.319242
1251.000000	0.316635
1252.000000	0.317273
1253.000000	0.323942
1254.000000	0.325054
1255.000000	0.316747
1256.000000	0.313334
1257.000000	0.312189
1258.000000	0.316749
1259.000000	0.315475
1260.000000	0.316153
1261.000000	0.311358
1262.000000	0.311382
1263.000000	0.317256
1264.000000	0.320663
1265.000000	0.315536
1266.000000	0.310498
1267.000000	0.308471
1268.000000	0.310409
1269.000000	0.306883
1270.000000	0.301730
1271.000000	0.311636
1272.000000	0.312012
1273.000000	0.300261
1274.000000	0.309993
1275.000000	0.311086
1276.000000	0.309525
1277.000000	0.313368
1278.000000	0.316970
1279.000000	0.313136
1280.000000	0.317326
1281.000000	0.312495
1282.000000	0.304259
1283.000000	0.314673
1284.000000	0.317072
1285.000000	0.315612
1286.000000	0.321600
1287.000000	0.311351
1288.000000	0.302491
1289.000000	0.303526
1290.000000	0.312703
1291.000000	0.309848
1292.000000	0.302736
1293.000000	0.310104
1294.000000	0.303085
1295.000000	0.303325
1296.000000	0.314281
1297.000000	0.307706
1298.000000	0.303291
1299.000000	0.297103
1300.000000	0.295865
1301.000000	0.298548
1302.000000	0.301203
1303.000000	0.293777
1304.000000	0.296844
1305.000000	0.296725
1306.000000	0.289318
1307.000000	0.286104
1308.000000	0.291261
1309.000000	0.291042
1310.000000	0.291403
1311.000000	0.293579
1312.000000	0.283322
1313.000000	0.285938
1314.000000	0.283833
1315.000000	0.287762
1316.000000	0.285944
1317.000000	0.278064
1318.000000	0.284626
1319.000000	0.281212
1320.000000	0.285588
1321.000000	0.274645
1322.000000	0.278687
1323.000000	0.273473
1324.000000	0.286629
1325.000000	0.293621
1326.000000	0.282087
1327.000000	0.277363
1328.000000	0.284747
1329.000000	0.281419
1330.000000	0.289719
1331.000000	0.300164
1332.000000	0.284349
1333.000000	0.298196
1334.000000	0.299235
1335.000000	0.301382
1336.000000	0.297965
1337.000000	0.302071
1338.000000	0.305292
1339.000000	0.313059
1340.000000	0.310221
1341.000000	0.309280
1342.000000	0.315977
1343.000000	0.308052
1344.000000	0.306194
1345.000000	0.324628
1346.000000	0.301687
1347.000000	0.315851
1348.000000	0.316281
1349.000000	0.307581
1350.000000	0.320898
1351.000000	0.318137
1352.000000	0.313384
1353.000000	0.323317
1354.000000	0.340528
1355.000000	0.328731
1356.000000	0.343891
1357.000000	0.337582
1358.000000	0.346016
1359.000000	0.341320
1360.000000	0.339918
1361.000000	0.357882
1362.000000	0.366824
1363.000000	0.356785
1364.000000	0.358641
1365.000000	0.360841
1366.000000	0.366047
1367.000000	0.353581
1368.000000	0.362673
1369.000000	0.360417
1370.000000	0.369445
1371.000000	0.367932
1372.000000	0.389132
1373.000000	0.389385
1374.000000	0.397179
1375.000000	0.384679
1376.000000	0.396457
1377.000000	0.380356
1378.000000	0.367302
1379.000000	0.366742
1380.000000	0.402090
1381.000000	0.364895
1382.000000	0.384275
1383.000000	0.393437
1384.000000	0.398350
1385.000000	0.419859
1386.000000	0.410727
1387.000000	0.436873
1388.000000	0.447105
1389.000000	0.467164
1390.000000	0.451082
1391.000000	0.443023
1392.000000	0.436759
1393.000000	0.460642
1394.000000	0.485113
1395.000000	0.466116
1396.000000	0.505909
1397.000000	0.518611
1398.000000	0.493289
1399.000000	0.486953
1400.000000	0.501686
1401.000000	0.506113
1402.000000	0.524431
1403.000000	0.483143
1404.000000	0.478548
1405.000000	0.499850
1406.000000	0.517014
1407.000000	0.502267
1408.000000	0.512706
1409.000000	0.506253
1410.000000	0.503572
1411.000000	0.503965
1412.000000	0.501036
1413.000000	0.493256
1414.000000	0.498176
1415.000000	0.516452
1416.000000	0.502826
1417.000000	0.498440
1418.000000	0.494472
1419.000000	0.504707
1420.000000	0.510886
1421.000000	0.512825
1422.000000	0.499211
1423.000000	0.504787
1424.000000	0.507458
1425.000000	0.520127
1426.000000	0.526494
1427.000000	0.520718
1428.000000	0.525557
1429.000000	0.522328
1430.000000	0.528073
1431.000000	0.533468
1432.000000	0.539776
1433.000000	0.538665
1434.000000	0.550214
1435.000000	0.548674
1436.000000	0.551954
1437.000000	0.553323
1438.000000	0.558366
1439.000000	0.566292
1440.000000	0.571872
1441.000000	0.578963
1442.000000	0.574860
1443.000000	0.580724
1444.000000	0.576301
1445.000000	0.599747
1446.000000	0.595512
1447.000000	0.594827
1448.000000	0.582272
1449.000000	0.598803
1450.000000	0.591488
1451.000000	0.593191
1452.000000	0.597748
1453.000000	0.589484
1454.000000	0.591205
1455.000000	0.585435
1456.000000	0.578902
1457.000000	0.583063
1458.000000	0.581800
1459.000000	0.580762
1460.000000	0.579281
1461.000000	0.565757
1462.000000	0.564726
1463.000000	0.555384
1464.000000	0.553238
1465.000000	0.552016
1466.000000	0.547673
1467.000000	0.534835
1468.000000	0.523065
1469.000000	0.523572
1470.000000	0.521080
1471.000000	0.517121
1472.000000	0.507197
1473.000000	0.499619
1474.000000	0.490795
1475.000000	0.479551
1476.000000	0.472610
1477.000000	0.469489
1478.000000	0.462253
1479.000000	0.448664
1480.000000	0.451491
1481.000000	0.449807
1482.000000	0.428903
1483.000000	0.417682
1484.000000	0.419161
1485.000000	0.423177
1486.000000	0.409540
1487.000000	0.401192
1488.000000	0.396301
1489.000000	0.390911
1490.000000	0.392469
1491.000000	0.374082
1492.000000	0.362792
1493.000000	0.367039
1494.000000	0.359880
1495.000000	0.357413
1496.000000	0.356719
1497.000000	0.355931
1498.000000	0.355385
1499.000000	0.350585
1500.000000	0.343782
1501.000000	0.347326
1502.000000	0.346214
1503.000000	0.343501
1504.000000	0.344580
1505.000000	0.342911
1506.000000	0.338152
1507.000000	0.340690
1508.000000	0.338893
1509.000000	0.334928
1510.000000	0.338141
1511.000000	0.341760
1512.000000	0.349411
1513.000000	0.352999
1514.000000	0.355916
1515.000000	0.355191
1516.000000	0.354562
1517.000000	0.358353
1518.000000	0.366777
1519.000000	0.366522
1520.000000	0.360927
1521.000000	0.361413
1522.000000	0.362627
1523.000000	0.368541
1524.000000	0.375637
1525.000000	0.370613
1526.000000	0.372049
1527.000000	0.375932
1528.000000	0.382142
1529.000000	0.387755
1530.000000	0.393814
1531.000000	0.396442
1532.000000	0.398069
1533.000000	0.400211
1534.000000	0.394130
1535.000000	0.405032
1536.000000	0.408815
1537.000000	0.409708
1538.000000	0.407922
1539.000000	0.410973
1540.000000	0.423653
1541.000000	0.432291
1542.000000	0.423056
1543.000000	0.420180
1544.000000	0.432539
1545.000000	0.447827
1546.000000	0.456549
1547.000000	0.460049
1548.000000	0.456339
1549.000000	0.462955
1550.000000	0.478496
1551.000000	0.476236
1552.000000	0.476199
1553.000000	0.472888
1554.000000	0.477516
1555.000000	0.477565
1556.000000	0.482778
1557.000000	0.477511
1558.000000	0.471531
1559.000000	0.474522
1560.000000	0.474358
1561.000000	0.477435
1562.000000	0.472702
1563.000000	0.465626
1564.000000	0.466955
1565.000000	0.471005
1566.000000	0.459939
1567.000000	0.450118
1568.000000	0.443716
1569.000000	0.448116
1570.000000	0.447697
1571.000000	0.438895
1572.000000	0.441715
1573.000000	0.434973
1574.000000	0.426823
1575.000000	0.427223
1576.000000	0.417717
1577.000000	0.424868
1578.000000	0.414138
1579.000000	0.404411
1580.000000	0.403317
1581.000000	0.402423
1582.000000	0.397639
1583.000000	0.395859
1584.000000	0.403817
1585.000000	0.401060
1586.000000	0.390696
1587.000000	0.386725
1588.000000	0.386568
1589.000000	0.389587
1590.000000	0.385238
1591.000000	0.385826
1592.000000	0.384031
1593.000000	0.376040
1594.000000	0.381405
1595.000000	0.370645
1596.000000	0.357408
1597.000000	0.366509
1598.000000	0.370026
1599.000000	0.359992
1600.000000	0.354801
1601.000000	0.358443
1602.000000	0.357486
1603.000000	0.350636
1604.000000	0.359310
1605.000000	0.357514
1606.000000	0.356450
1607.000000	0.357816
1608.000000	0.355254
1609.000000	0.354567
1610.000000	0.351614
1611.000000	0.350072
1612.000000	0.349333
1613.000000	0.345411
1614.000000	0.351407
1615.000000	0.342569
1616.000000	0.348503
1617.000000	0.355618
1618.000000	0.349427
1619.000000	0.349982
1620.000000	0.354361
1621.000000	0.351919
1622.000000	0.344795
1623.000000	0.348701
1624.000000	0.338969
1625.000000	0.342356
1626.000000	0.344703
1627.000000	0.348149
1628.000000	0.343005
1629.000000	0.359315
1630.000000	0.349286
1631.000000	0.343673
1632.000000	0.359483
1633.000000	0.356313
1634.000000	0.361309
1635.000000	0.357014
1636.000000	0.348106
1637.000000	0.360948
1638.000000	0.368650
1639.000000	0.364715
1640.000000	0.352007
1641.000000	0.350583
1642.000000	0.360442
1643.000000	0.363957
1644.000000	0.363007
1645.000000	0.364722
1646.000000	0.356987
1647.000000	0.354090
1648.000000	0.364366
1649.000000	0.368034
1650.000000	0.361193
1651.000000	0.368774
1652.000000	0.353817
1653.000000	0.360772
1654.000000	0.348884
1655.000000	0.367828
1656.000000	0.363063
1657.000000	0.358540
1658.000000	0.339356
1659.000000	0.349945
1660.000000	0.343292
1661.000000	0.348148
1662.000000	0.341728
1663.000000	0.339272
1664.000000	0.320961
1665.000000	0.336046
1666.000000	0.329098
1667.000000	0.315537
1668.000000	0.303174
1669.000000	0.301692
1670.000000	0.297604
1671.000000	0.301144
1672.000000	0.297076
1673.000000	0.294642
1674.000000	0.292141
1675.000000	0.303804
1676.000000	0.310673
1677.000000	0.307790
1678.000000	0.305784
1679.000000	0.301661
1680.000000	0.308061
1681.000000	0.313756
1682.000000	0.306758
1683.000000	0.301173
1684.000000	0.291795
1685.000000	0.290680
1686.000000	0.292106
1687.000000	0.294771
1688.000000	0.301988
1689.000000	0.304643
1690.000000	0.322947
1691.000000	0.314308
1692.000000	0.333422
1693.000000	0.326852
1694.000000	0.334567
1695.000000	0.338004
1696.000000	0.350853
1697.000000	0.339858
1698.000000	0.328059
1699.000000	0.325148
1700.000000	0.318483
1701.000000	0.297391
1702.000000	0.294513
1703.000000	0.289775
1704.000000	0.275554
1705.000000	0.270487
1706.000000	0.250785
1707.000000	0.237951
1708.000000	0.230972
1709.000000	0.221212
1710.000000	0.210121
1711.000000	0.201674
1712.000000	0.180007
1713.000000	0.168274
1714.000000	0.157099
1715.000000	0.140642
1716.000000	0.123344
1717.000000	0.105997
1718.000000	0.089959
1719.000000	0.079317
1720.000000	0.070150
1721.000000	0.061737
1722.000000	0.065819
1723.000000	0.064134
1724.000000	0.070467
1725.000000	0.078079
1726.000000	0.088352
1727.000000	0.084052
1728.000000	0.088259
1729.000000	0.097179
1730.000000	0.095942
1731.000000	0.103747
1732.000000	0.103075
1733.000000	0.107897
1734.000000	0.120542
1735.000000	0.115814
1736.000000	0.123275
1737.000000	0.136269
1738.000000	0.136786
1739.000000	0.140727
1740.000000	0.154643
1741.000000	0.152390
1742.000000	0.151249
1743.000000	0.150720
1744.000000	0.159062
1745.000000	0.162506
1746.000000	0.164432
1747.000000	0.164563
1748.000000	0.164726
1749.000000	0.169725
1750.000000	0.161669
1751.000000	0.153699
1752.000000	0.155278
1753.000000	0.164097
1754.000000	0.164509
1755.000000	0.163387
1756.000000	0.165865
1757.000000	0.164631
1758.000000	0.166774
1759.000000	0.172812
1760.000000	0.172681
1761.000000	0.173483
1762.000000	0.181195
1763.000000	0.183226
1764.000000	0.191154
1765.000000	0.191245
1766.000000	0.195459
1767.000000	0.197170
1768.000000	0.201733
1769.000000	0.208695
1770.000000	0.217927
1771.000000	0.214012
1772.000000	0.217615
1773.000000	0.226462
1774.000000	0.239567
1775.000000	0.241795
1776.000000	0.242013
1777.000000	0.246177
1778.000000	0.245149
1779.000000	0.243426
1780.000000	0.247197
1781.000000	0.266800
1782.000000	0.268087
1783.000000	0.260589
1784.000000	0.269233
1785.000000	0.263255
1786.000000	0.260958
1787.000000	0.266678
1788.000000	0.258994
1789.000000	0.258227
1790.000000	0.270083
1791.000000	0.270774
1792.000000	0.268175
1793.000000	0.269032
1794.000000	0.273392
1795.000000	0.278907
1796.000000	0.280178
1797.000000	0.279045
1798.000000	0.277651
1799.000000	0.276253
1800.000000	0.276510
1801.000000	0.273654
1802.000000	0.275503
1803.000000	0.281200
1804.000000	0.282799
1805.000000	0.280201
1806.000000	0.288671
1807.000000	0.293325
1808.000000	0.285948
1809.000000	0.283529
1810.000000	0.288974
1811.000000	0.286641
1812.000000	0.280123
1813.000000	0.283787
1814.000000	0.299450
1815.000000	0.294932
1816.000000	0.292841
1817.000000	0.283827
1818.000000	0.267191
1819.000000	0.271422
1820.000000	0.290050
1821.000000	0.304905
1822.000000	0.301678
1823.000000	0.294309
1824.000000	0.280402
1825.000000	0.275826
1826.000000	0.258268
1827.000000	0.276654
1828.000000	0.286994
1829.000000	0.274195
1830.000000	0.267529
1831.000000	0.276536
1832.000000	0.271874
1833.000000	0.255959
1834.000000	0.247335
1835.000000	0.250081
1836.000000	0.263814
1837.000000	0.274075
1838.000000	0.275128
1839.000000	0.274960
1840.000000	0.281424
1841.000000	0.294800
1842.000000	0.301396
1843.000000	0.297655
1844.000000	0.280255
1845.000000	0.257286
1846.000000	0.251198
1847.000000	0.281311
1848.000000	0.305642
1849.000000	0.308714
1850.000000	0.305464
1851.000000	0.296026
1852.000000	0.294910
1853.000000	0.289911
1854.000000	0.294038
1855.000000	0.304736
1856.000000	0.303712
1857.000000	0.303101
1858.000000	0.303066
1859.000000	0.315224
1860.000000	0.312676
1861.000000	0.322384
1862.000000	0.332901
1863.000000	0.333551
1864.000000	0.308953
1865.000000	0.303026
1866.000000	0.296188
1867.000000	0.298427
1868.000000	0.312862
1869.000000	0.314186
1870.000000	0.346411
1871.000000	0.374697
1872.000000	0.384483
1873.000000	0.408305
1874.000000	0.421451
1875.000000	0.428064
1876.000000	0.438733
1877.000000	0.428245
1878.000000	0.428240
1879.000000	0.442115
1880.000000	0.415371
1881.000000	0.405885
1882.000000	0.416929
1883.000000	0.420549
1884.000000	0.419467
1885.000000	0.445280
1886.000000	0.434681
1887.000000	0.427924
1888.000000	0.387663
1889.000000	0.389596
1890.000000	0.395044
1891.000000	0.400478
1892.000000	0.415423
1893.000000	0.422635
1894.000000	0.395410
1895.000000	0.374502
1896.000000	0.354519
1897.000000	0.339201
1898.000000	0.330576
1899.000000	0.334608
1900.000000	0.349305
1901.000000	0.354751
1902.000000	0.341087
1903.000000	0.338430
1904.000000	0.334703
1905.000000	0.332862
1906.000000	0.347070
1907.000000	0.339430
1908.000000	0.330927
1909.000000	0.304821
1910.000000	0.290128
1911.000000	0.279706
1912.000000	0.285230
1913.000000	0.298880
1914.000000	0.315075
1915.000000	0.314891
1916.000000	0.297266
1917.000000	0.287543
1918.000000	0.286314
1919.000000	0.273666
1920.000000	0.289688
1921.000000	0.292747
1922.000000	0.300558
1923.000000	0.296465
1924.000000	0.294348
1925.000000	0.277275
1926.000000	0.292414
1927.000000	0.291988
1928.000000	0.294182
1929.000000	0.297695
1930.000000	0.299986
1931.000000	0.305784
1932.000000	0.284697
1933.000000	0.280735
1934.000000	0.291174
1935.000000	0.290332
1936.000000	0.288145
1937.000000	0.308225
1938.000000	0.285699
1939.000000	0.289743
1940.000000	0.300056
1941.000000	0.301897
1942.000000	0.305513
1943.000000	0.289084
1944.000000	0.309403
1945.000000	0.295694
1946.000000	0.303662
1947.000000	0.291730
1948.000000	0.311784
1949.000000	0.319906
1950.000000	0.303198
1951.000000	0.297179
1952.000000	0.297878
1953.000000	0.294842
1954.000000	0.303485
1955.000000	0.315823
1956.000000	0.331541
1957.000000	0.315972
1958.000000	0.309336
1959.000000	0.325399
1960.000000	0.317145
1961.000000	0.324595
1962.000000	0.329228
1963.000000	0.323091
1964.000000	0.325471
1965.000000	0.337932
1966.000000	0.341215
1967.000000	0.340040
1968.000000	0.334895
1969.000000	0.336857
1970.000000	0.330767
1971.000000	0.339700
1972.000000	0.321205
1973.000000	0.331114
1974.000000	0.353466
1975.000000	0.357396
1976.000000	0.334251
1977.000000	0.336657
1978.000000	0.348129
1979.000000	0.345180
1980.000000	0.350974
1981.000000	0.364611
1982.000000	0.370891
1983.000000	0.359801
1984.000000	0.354575
1985.000000	0.354887
1986.000000	0.358160
1987.000000	0.350770
1988.000000	0.361375
1989.000000	0.367542
1990.000000	0.361918
1991.000000	0.360300
1992.000000	0.352252
1993.000000	0.355098
1994.000000	0.343861
1995.000000	0.353946
1996.000000	0.350130
1997.000000	0.353033
1998.000000	0.348209
1999.000000	0.339305
