PE UV       SUBTECH     SPECTRUM    ASCII       PEDS        4.00        
   -1
CICIMAUCR0260-3.Sample.ASC
24/07/01
13:47:05.00
24/07/01
13:47:05.00
Vinicio Soto Monge
C. resplendens. Sex F. Dorsal.
250,000000
1
Lambda 1050
1050L1511233
PerkinElmer UV WinLab 6.3.2.0749 / 2.02.05 Lambda 900 UV/VIS/NIR, Aug  7 2015 09:38:08

0
0
3350/servo 860,8/2
0
0
UV/VIS
1
1
1
DoubleDePol,CommonBeamDepol,RBeamAtt,SBeamAtt,60mm sphere, WB InGaAs Detector
0
0
0
0
Program
Program
3350/servo 860,8/2
3350/0,2 860,8/0,2
3350/0,2 860,8/0,2
0
15.00
 
 
 
0
 
860,8
319,2
860,8
Front
100
on
S:100 R:100
0
0
0
0
 
0
 
 
 
0
 
 
0
0
0
0
0
 
 
 
 
0
0


0
0
#HDR
-1
-1
#GR
nm
%R
1.0
0.0
2500,000000
-1,000000
2251
8
90,775700
5,523800
#DATA
250.000000	0.133794
251.000000	0.118369
252.000000	0.122042
253.000000	0.148175
254.000000	0.121850
255.000000	0.129374
256.000000	0.159202
257.000000	0.151950
258.000000	0.133552
259.000000	0.146861
260.000000	0.135285
261.000000	0.131155
262.000000	0.120258
263.000000	0.131726
264.000000	0.142323
265.000000	0.129734
266.000000	0.129720
267.000000	0.137056
268.000000	0.121956
269.000000	0.128939
270.000000	0.107359
271.000000	0.132381
272.000000	0.127739
273.000000	0.120989
274.000000	0.135024
275.000000	0.119118
276.000000	0.120274
277.000000	0.121476
278.000000	0.122133
279.000000	0.127840
280.000000	0.125086
281.000000	0.137209
282.000000	0.122546
283.000000	0.127937
284.000000	0.121345
285.000000	0.108312
286.000000	0.113420
287.000000	0.117793
288.000000	0.120878
289.000000	0.122298
290.000000	0.120373
291.000000	0.110979
292.000000	0.110480
293.000000	0.101890
294.000000	0.106405
295.000000	0.106569
296.000000	0.119030
297.000000	0.095948
298.000000	0.089068
299.000000	0.110607
300.000000	0.135938
301.000000	0.125284
302.000000	0.120026
303.000000	0.108280
304.000000	0.129061
305.000000	0.157696
306.000000	0.149170
307.000000	0.158117
308.000000	0.118478
309.000000	0.120781
310.000000	0.136034
311.000000	0.117490
312.000000	0.121100
313.000000	0.137522
314.000000	0.136458
315.000000	0.106993
316.000000	0.252423
317.000000	0.372285
318.000000	0.196681
319.000000	0.259372
320.000000	0.326568
321.000000	0.301142
322.000000	0.347871
323.000000	0.198869
324.000000	0.162459
325.000000	0.199399
326.000000	0.166395
327.000000	0.176366
328.000000	0.252767
329.000000	0.213432
330.000000	0.182677
331.000000	0.106482
332.000000	0.079065
333.000000	0.149663
334.000000	0.188073
335.000000	0.111218
336.000000	0.148312
337.000000	0.121811
338.000000	0.103697
339.000000	0.045421
340.000000	0.048585
341.000000	0.125330
342.000000	0.237937
343.000000	0.131628
344.000000	0.075697
345.000000	0.105903
346.000000	0.127315
347.000000	0.160952
348.000000	0.162621
349.000000	0.069654
350.000000	0.163357
351.000000	0.144452
352.000000	0.086490
353.000000	0.115454
354.000000	0.139565
355.000000	0.080639
356.000000	0.077468
357.000000	0.077730
358.000000	0.128332
359.000000	0.176566
360.000000	0.116556
361.000000	0.038080
362.000000	0.138227
363.000000	0.142127
364.000000	0.069213
365.000000	0.099125
366.000000	0.132742
367.000000	0.125334
368.000000	0.112087
369.000000	0.123403
370.000000	0.055284
371.000000	0.094899
372.000000	0.112437
373.000000	0.163103
374.000000	0.083993
375.000000	0.084325
376.000000	0.075426
377.000000	0.085360
378.000000	0.080933
379.000000	0.077243
380.000000	0.080669
381.000000	0.088708
382.000000	0.086894
383.000000	0.081711
384.000000	0.068504
385.000000	0.065406
386.000000	0.060114
387.000000	0.064035
388.000000	0.074357
389.000000	0.061314
390.000000	0.070679
391.000000	0.069750
392.000000	0.084037
393.000000	0.084392
394.000000	0.080959
395.000000	0.086009
396.000000	0.105228
397.000000	0.105506
398.000000	0.105969
399.000000	0.122576
400.000000	0.128700
401.000000	0.140800
402.000000	0.164902
403.000000	0.181847
404.000000	0.197775
405.000000	0.226226
406.000000	0.252249
407.000000	0.291473
408.000000	0.307453
409.000000	0.337172
410.000000	0.381177
411.000000	0.404818
412.000000	0.450256
413.000000	0.480373
414.000000	0.509944
415.000000	0.557730
416.000000	0.581584
417.000000	0.603767
418.000000	0.654221
419.000000	0.666126
420.000000	0.685905
421.000000	0.714123
422.000000	0.760538
423.000000	0.771143
424.000000	0.769127
425.000000	0.783914
426.000000	0.793998
427.000000	0.802987
428.000000	0.793930
429.000000	0.779394
430.000000	0.781273
431.000000	0.757700
432.000000	0.755420
433.000000	0.720251
434.000000	0.693130
435.000000	0.679048
436.000000	0.654597
437.000000	0.650795
438.000000	0.600399
439.000000	0.578214
440.000000	0.542872
441.000000	0.523891
442.000000	0.517060
443.000000	0.479866
444.000000	0.472537
445.000000	0.430537
446.000000	0.413654
447.000000	0.374910
448.000000	0.366236
449.000000	0.341483
450.000000	0.326996
451.000000	0.316117
452.000000	0.305569
453.000000	0.304288
454.000000	0.271742
455.000000	0.246313
456.000000	0.262359
457.000000	0.255874
458.000000	0.249202
459.000000	0.219383
460.000000	0.222792
461.000000	0.230364
462.000000	0.222626
463.000000	0.256208
464.000000	0.238098
465.000000	0.265063
466.000000	0.291704
467.000000	0.316545
468.000000	0.310746
469.000000	0.328017
470.000000	0.356743
471.000000	0.392326
472.000000	0.413397
473.000000	0.440176
474.000000	0.467904
475.000000	0.484464
476.000000	0.508570
477.000000	0.556358
478.000000	0.552766
479.000000	0.566392
480.000000	0.583435
481.000000	0.591459
482.000000	0.562066
483.000000	0.568557
484.000000	0.553785
485.000000	0.510800
486.000000	0.472129
487.000000	0.457562
488.000000	0.380040
489.000000	0.327139
490.000000	0.283023
491.000000	0.231623
492.000000	0.208911
493.000000	0.209482
494.000000	0.214730
495.000000	0.250661
496.000000	0.291752
497.000000	0.340587
498.000000	0.382739
499.000000	0.423445
500.000000	0.438155
501.000000	0.489124
502.000000	0.514433
503.000000	0.529243
504.000000	0.567202
505.000000	0.576121
506.000000	0.601318
507.000000	0.671341
508.000000	0.682433
509.000000	0.747908
510.000000	0.792038
511.000000	0.854676
512.000000	0.904712
513.000000	0.966471
514.000000	1.047847
515.000000	1.141621
516.000000	1.222101
517.000000	1.324520
518.000000	1.432944
519.000000	1.533484
520.000000	1.630479
521.000000	1.764942
522.000000	1.864866
523.000000	1.991465
524.000000	2.126155
525.000000	2.253641
526.000000	2.372864
527.000000	2.488839
528.000000	2.571377
529.000000	2.665143
530.000000	2.772816
531.000000	2.850487
532.000000	2.911314
533.000000	2.958446
534.000000	2.968410
535.000000	2.973625
536.000000	2.955707
537.000000	2.942967
538.000000	2.902925
539.000000	2.840065
540.000000	2.783254
541.000000	2.715126
542.000000	2.628124
543.000000	2.527685
544.000000	2.414260
545.000000	2.333419
546.000000	2.245044
547.000000	2.158730
548.000000	2.064238
549.000000	1.994490
550.000000	1.949085
551.000000	1.858725
552.000000	1.788738
553.000000	1.718494
554.000000	1.650881
555.000000	1.616101
556.000000	1.576687
557.000000	1.533936
558.000000	1.501148
559.000000	1.430712
560.000000	1.362549
561.000000	1.344965
562.000000	1.309957
563.000000	1.251672
564.000000	1.242222
565.000000	1.213285
566.000000	1.180425
567.000000	1.146305
568.000000	1.127550
569.000000	1.120703
570.000000	1.065411
571.000000	1.059740
572.000000	1.057808
573.000000	1.027344
574.000000	1.009427
575.000000	0.980151
576.000000	0.958228
577.000000	0.955939
578.000000	0.927235
579.000000	0.904262
580.000000	0.888651
581.000000	0.883687
582.000000	0.858018
583.000000	0.842486
584.000000	0.851645
585.000000	0.830585
586.000000	0.843395
587.000000	0.852175
588.000000	0.816357
589.000000	0.779260
590.000000	0.776320
591.000000	0.806431
592.000000	0.802313
593.000000	0.786841
594.000000	0.759442
595.000000	0.735855
596.000000	0.746279
597.000000	0.728591
598.000000	0.702865
599.000000	0.689367
600.000000	0.694860
601.000000	0.696585
602.000000	0.733003
603.000000	0.769501
604.000000	0.806760
605.000000	0.845505
606.000000	0.883409
607.000000	0.964326
608.000000	1.036269
609.000000	1.085479
610.000000	1.153945
611.000000	1.261873
612.000000	1.384105
613.000000	1.506318
614.000000	1.634579
615.000000	1.762571
616.000000	1.917552
617.000000	2.047112
618.000000	2.175567
619.000000	2.335332
620.000000	2.470488
621.000000	2.629459
622.000000	2.808592
623.000000	2.988553
624.000000	3.175690
625.000000	3.347085
626.000000	3.551230
627.000000	3.739666
628.000000	3.907695
629.000000	4.061284
630.000000	4.198144
631.000000	4.298677
632.000000	4.383259
633.000000	4.442801
634.000000	4.454429
635.000000	4.412409
636.000000	4.326934
637.000000	4.209223
638.000000	4.045724
639.000000	3.850867
640.000000	3.596685
641.000000	3.316696
642.000000	3.025779
643.000000	2.696410
644.000000	2.357558
645.000000	2.028916
646.000000	1.706037
647.000000	1.407667
648.000000	1.123437
649.000000	0.908170
650.000000	0.812529
651.000000	0.802881
652.000000	0.925192
653.000000	1.102196
654.000000	1.299592
655.000000	1.508943
656.000000	1.676291
657.000000	1.807191
658.000000	1.898685
659.000000	1.970235
660.000000	2.005977
661.000000	1.958808
662.000000	1.913309
663.000000	1.874459
664.000000	1.793374
665.000000	1.705959
666.000000	1.591320
667.000000	1.451910
668.000000	1.340124
669.000000	1.205104
670.000000	1.076351
671.000000	0.976001
672.000000	0.891701
673.000000	0.800002
674.000000	0.697937
675.000000	0.635971
676.000000	0.570716
677.000000	0.492896
678.000000	0.412838
679.000000	0.339789
680.000000	0.251534
681.000000	0.166158
682.000000	0.127449
683.000000	0.156340
684.000000	0.268131
685.000000	0.343957
686.000000	0.409738
687.000000	0.501318
688.000000	0.582683
689.000000	0.677338
690.000000	0.752751
691.000000	0.817410
692.000000	0.851755
693.000000	0.876465
694.000000	0.865444
695.000000	0.917392
696.000000	0.942332
697.000000	0.976467
698.000000	0.994366
699.000000	1.055084
700.000000	1.105121
701.000000	1.108620
702.000000	1.136354
703.000000	1.173638
704.000000	1.138288
705.000000	1.137631
706.000000	1.114353
707.000000	1.077873
708.000000	1.080801
709.000000	0.988340
710.000000	0.936333
711.000000	0.830685
712.000000	0.676051
713.000000	0.528353
714.000000	0.435489
715.000000	0.326301
716.000000	0.241976
717.000000	0.150030
718.000000	0.132069
719.000000	0.224273
720.000000	0.332340
721.000000	0.395020
722.000000	0.489329
723.000000	0.524104
724.000000	0.603171
725.000000	0.636682
726.000000	0.669297
727.000000	0.742514
728.000000	0.802574
729.000000	0.812908
730.000000	0.793216
731.000000	0.886076
732.000000	0.798995
733.000000	0.862689
734.000000	0.888905
735.000000	0.844653
736.000000	0.849568
737.000000	0.825119
738.000000	0.848607
739.000000	0.861584
740.000000	0.883602
741.000000	0.867069
742.000000	0.817198
743.000000	0.761647
744.000000	0.691861
745.000000	0.779077
746.000000	0.680562
747.000000	0.680065
748.000000	0.646292
749.000000	0.647957
750.000000	0.657697
751.000000	0.641350
752.000000	0.617625
753.000000	0.705111
754.000000	0.774275
755.000000	0.829300
756.000000	0.806829
757.000000	0.805664
758.000000	0.824293
759.000000	0.869576
760.000000	0.843050
761.000000	0.886214
762.000000	0.837766
763.000000	0.795462
764.000000	0.809810
765.000000	0.916377
766.000000	0.818098
767.000000	0.840099
768.000000	0.889913
769.000000	0.855557
770.000000	0.765353
771.000000	0.907704
772.000000	0.846241
773.000000	0.867227
774.000000	0.891522
775.000000	0.807761
776.000000	0.893218
777.000000	0.735862
778.000000	0.731024
779.000000	0.861487
780.000000	0.819608
781.000000	0.778870
782.000000	0.807255
783.000000	0.788691
784.000000	0.683004
785.000000	0.874724
786.000000	0.788633
787.000000	0.842810
788.000000	0.724724
789.000000	0.805844
790.000000	0.943990
791.000000	0.906976
792.000000	1.004321
793.000000	1.016884
794.000000	0.905221
795.000000	0.929434
796.000000	0.962527
797.000000	0.914355
798.000000	0.939338
799.000000	0.945632
800.000000	0.919447
801.000000	1.005613
802.000000	0.853453
803.000000	0.834434
804.000000	1.047138
805.000000	0.894359
806.000000	0.821922
807.000000	0.848429
808.000000	0.725534
809.000000	0.950124
810.000000	0.717480
811.000000	0.725592
812.000000	0.763854
813.000000	0.937562
814.000000	0.837085
815.000000	0.678706
816.000000	0.672918
817.000000	0.788824
818.000000	0.798679
819.000000	0.910512
820.000000	0.792753
821.000000	0.890128
822.000000	0.870805
823.000000	0.855309
824.000000	0.761631
825.000000	0.944621
826.000000	0.831514
827.000000	0.830012
828.000000	0.943331
829.000000	0.844883
830.000000	0.979360
831.000000	0.926982
832.000000	1.207698
833.000000	1.210339
834.000000	1.074200
835.000000	0.988104
836.000000	0.896402
837.000000	0.985980
838.000000	0.992404
839.000000	1.062311
840.000000	1.003146
841.000000	0.883261
842.000000	0.808235
843.000000	0.750928
844.000000	0.824738
845.000000	0.687531
846.000000	1.012859
847.000000	0.631425
848.000000	0.604412
849.000000	0.639943
850.000000	0.660555
851.000000	0.833367
852.000000	0.739498
853.000000	0.410050
854.000000	0.782249
855.000000	0.774453
856.000000	0.779203
857.000000	0.453944
858.000000	0.657256
859.000000	0.642134
860.000000	0.638298
861.000000	0.622767
862.000000	0.611297
863.000000	0.601913
864.000000	0.591191
865.000000	0.593733
866.000000	0.584543
867.000000	0.553092
868.000000	0.540728
869.000000	0.539124
870.000000	0.504142
871.000000	0.474239
872.000000	0.459087
873.000000	0.461859
874.000000	0.444666
875.000000	0.437993
876.000000	0.446435
877.000000	0.456055
878.000000	0.462143
879.000000	0.462382
880.000000	0.463685
881.000000	0.465160
882.000000	0.469399
883.000000	0.472223
884.000000	0.477076
885.000000	0.477138
886.000000	0.476009
887.000000	0.465272
888.000000	0.453074
889.000000	0.441774
890.000000	0.440646
891.000000	0.438920
892.000000	0.417910
893.000000	0.409061
894.000000	0.380418
895.000000	0.369524
896.000000	0.343499
897.000000	0.336748
898.000000	0.322381
899.000000	0.320886
900.000000	0.306715
901.000000	0.300356
902.000000	0.295503
903.000000	0.292316
904.000000	0.287447
905.000000	0.289846
906.000000	0.296718
907.000000	0.297950
908.000000	0.303446
909.000000	0.299783
910.000000	0.305677
911.000000	0.314394
912.000000	0.315865
913.000000	0.317975
914.000000	0.322376
915.000000	0.326090
916.000000	0.335193
917.000000	0.336253
918.000000	0.341358
919.000000	0.343259
920.000000	0.341079
921.000000	0.349077
922.000000	0.362701
923.000000	0.363244
924.000000	0.353568
925.000000	0.344886
926.000000	0.334339
927.000000	0.336260
928.000000	0.336069
929.000000	0.323712
930.000000	0.320475
931.000000	0.330643
932.000000	0.329844
933.000000	0.324707
934.000000	0.322482
935.000000	0.313281
936.000000	0.324713
937.000000	0.336504
938.000000	0.344540
939.000000	0.352141
940.000000	0.370968
941.000000	0.396020
942.000000	0.409265
943.000000	0.419100
944.000000	0.431222
945.000000	0.456674
946.000000	0.473105
947.000000	0.477054
948.000000	0.497166
949.000000	0.520751
950.000000	0.535324
951.000000	0.552876
952.000000	0.573181
953.000000	0.596519
954.000000	0.612377
955.000000	0.627069
956.000000	0.652000
957.000000	0.668235
958.000000	0.682076
959.000000	0.692519
960.000000	0.709509
961.000000	0.731736
962.000000	0.751554
963.000000	0.754780
964.000000	0.766073
965.000000	0.780195
966.000000	0.777652
967.000000	0.795670
968.000000	0.816900
969.000000	0.804164
970.000000	0.810871
971.000000	0.824974
972.000000	0.825451
973.000000	0.838300
974.000000	0.844907
975.000000	0.842807
976.000000	0.854442
977.000000	0.868326
978.000000	0.867680
979.000000	0.880857
980.000000	0.894880
981.000000	0.896169
982.000000	0.911043
983.000000	0.913803
984.000000	0.928440
985.000000	0.937529
986.000000	0.938373
987.000000	0.940008
988.000000	0.952618
989.000000	0.954681
990.000000	0.956062
991.000000	0.967064
992.000000	0.964056
993.000000	0.979690
994.000000	0.979841
995.000000	0.986802
996.000000	0.991745
997.000000	0.981309
998.000000	0.985891
999.000000	0.988612
1000.000000	0.997320
1001.000000	1.000635
1002.000000	0.994672
1003.000000	0.998112
1004.000000	1.002368
1005.000000	1.007598
1006.000000	1.010565
1007.000000	1.009871
1008.000000	1.008842
1009.000000	1.016068
1010.000000	1.018564
1011.000000	1.025330
1012.000000	1.037360
1013.000000	1.030292
1014.000000	1.027151
1015.000000	1.035311
1016.000000	1.038823
1017.000000	1.031244
1018.000000	1.047068
1019.000000	1.047726
1020.000000	1.052027
1021.000000	1.050905
1022.000000	1.062721
1023.000000	1.071478
1024.000000	1.069676
1025.000000	1.074206
1026.000000	1.081494
1027.000000	1.086298
1028.000000	1.093958
1029.000000	1.101968
1030.000000	1.108415
1031.000000	1.117846
1032.000000	1.128304
1033.000000	1.121563
1034.000000	1.134324
1035.000000	1.140461
1036.000000	1.146615
1037.000000	1.157292
1038.000000	1.148567
1039.000000	1.148476
1040.000000	1.157278
1041.000000	1.156900
1042.000000	1.150578
1043.000000	1.148295
1044.000000	1.143964
1045.000000	1.149663
1046.000000	1.154025
1047.000000	1.141091
1048.000000	1.146920
1049.000000	1.149851
1050.000000	1.142533
1051.000000	1.141310
1052.000000	1.140648
1053.000000	1.140054
1054.000000	1.135672
1055.000000	1.138068
1056.000000	1.129723
1057.000000	1.140836
1058.000000	1.125406
1059.000000	1.126939
1060.000000	1.127776
1061.000000	1.134155
1062.000000	1.129369
1063.000000	1.119143
1064.000000	1.128946
1065.000000	1.124456
1066.000000	1.112708
1067.000000	1.120923
1068.000000	1.124974
1069.000000	1.129155
1070.000000	1.122908
1071.000000	1.120589
1072.000000	1.126240
1073.000000	1.130810
1074.000000	1.139317
1075.000000	1.123361
1076.000000	1.135067
1077.000000	1.141145
1078.000000	1.144400
1079.000000	1.136496
1080.000000	1.137853
1081.000000	1.144541
1082.000000	1.147917
1083.000000	1.157216
1084.000000	1.156216
1085.000000	1.161962
1086.000000	1.158905
1087.000000	1.173147
1088.000000	1.177015
1089.000000	1.174681
1090.000000	1.181202
1091.000000	1.183061
1092.000000	1.181946
1093.000000	1.183981
1094.000000	1.191203
1095.000000	1.191463
1096.000000	1.194033
1097.000000	1.197647
1098.000000	1.193724
1099.000000	1.199543
1100.000000	1.203809
1101.000000	1.198639
1102.000000	1.198245
1103.000000	1.207090
1104.000000	1.207009
1105.000000	1.212461
1106.000000	1.213011
1107.000000	1.214578
1108.000000	1.221552
1109.000000	1.229810
1110.000000	1.218582
1111.000000	1.231985
1112.000000	1.220638
1113.000000	1.222375
1114.000000	1.235823
1115.000000	1.221778
1116.000000	1.217737
1117.000000	1.228671
1118.000000	1.217496
1119.000000	1.209925
1120.000000	1.210708
1121.000000	1.217256
1122.000000	1.218843
1123.000000	1.211739
1124.000000	1.202447
1125.000000	1.197825
1126.000000	1.199945
1127.000000	1.207639
1128.000000	1.206417
1129.000000	1.201399
1130.000000	1.199026
1131.000000	1.187275
1132.000000	1.176150
1133.000000	1.175833
1134.000000	1.183069
1135.000000	1.191489
1136.000000	1.190286
1137.000000	1.199773
1138.000000	1.199140
1139.000000	1.199300
1140.000000	1.201500
1141.000000	1.213601
1142.000000	1.215886
1143.000000	1.222311
1144.000000	1.225160
1145.000000	1.229548
1146.000000	1.235326
1147.000000	1.247386
1148.000000	1.241621
1149.000000	1.240671
1150.000000	1.246124
1151.000000	1.241451
1152.000000	1.252858
1153.000000	1.264050
1154.000000	1.258238
1155.000000	1.248130
1156.000000	1.252185
1157.000000	1.261382
1158.000000	1.261401
1159.000000	1.259722
1160.000000	1.266479
1161.000000	1.272209
1162.000000	1.267958
1163.000000	1.267768
1164.000000	1.276457
1165.000000	1.285786
1166.000000	1.289453
1167.000000	1.289406
1168.000000	1.294732
1169.000000	1.302397
1170.000000	1.304973
1171.000000	1.304184
1172.000000	1.318079
1173.000000	1.322080
1174.000000	1.317725
1175.000000	1.324632
1176.000000	1.333790
1177.000000	1.343810
1178.000000	1.334307
1179.000000	1.341792
1180.000000	1.353787
1181.000000	1.365813
1182.000000	1.379767
1183.000000	1.391009
1184.000000	1.393354
1185.000000	1.394310
1186.000000	1.410987
1187.000000	1.419025
1188.000000	1.418857
1189.000000	1.419669
1190.000000	1.410790
1191.000000	1.405467
1192.000000	1.413740
1193.000000	1.418070
1194.000000	1.411922
1195.000000	1.413325
1196.000000	1.417988
1197.000000	1.421807
1198.000000	1.420599
1199.000000	1.415678
1200.000000	1.418251
1201.000000	1.431571
1202.000000	1.435566
1203.000000	1.434394
1204.000000	1.435453
1205.000000	1.440061
1206.000000	1.447962
1207.000000	1.451308
1208.000000	1.453755
1209.000000	1.453673
1210.000000	1.455033
1211.000000	1.467655
1212.000000	1.466644
1213.000000	1.462410
1214.000000	1.463090
1215.000000	1.467031
1216.000000	1.463936
1217.000000	1.456294
1218.000000	1.453443
1219.000000	1.454372
1220.000000	1.456019
1221.000000	1.453389
1222.000000	1.452717
1223.000000	1.451280
1224.000000	1.442237
1225.000000	1.436356
1226.000000	1.434805
1227.000000	1.431278
1228.000000	1.429557
1229.000000	1.434091
1230.000000	1.427241
1231.000000	1.425829
1232.000000	1.419964
1233.000000	1.413708
1234.000000	1.421815
1235.000000	1.415030
1236.000000	1.414260
1237.000000	1.415087
1238.000000	1.408346
1239.000000	1.410177
1240.000000	1.406178
1241.000000	1.402567
1242.000000	1.407672
1243.000000	1.408938
1244.000000	1.402314
1245.000000	1.402101
1246.000000	1.406914
1247.000000	1.405962
1248.000000	1.403741
1249.000000	1.400157
1250.000000	1.396463
1251.000000	1.400963
1252.000000	1.404645
1253.000000	1.404050
1254.000000	1.402716
1255.000000	1.406479
1256.000000	1.409330
1257.000000	1.403222
1258.000000	1.394500
1259.000000	1.393685
1260.000000	1.400290
1261.000000	1.396101
1262.000000	1.394229
1263.000000	1.393727
1264.000000	1.399123
1265.000000	1.406579
1266.000000	1.409391
1267.000000	1.408228
1268.000000	1.401952
1269.000000	1.403467
1270.000000	1.415471
1271.000000	1.423114
1272.000000	1.418905
1273.000000	1.428969
1274.000000	1.435079
1275.000000	1.433903
1276.000000	1.431953
1277.000000	1.441802
1278.000000	1.452171
1279.000000	1.458050
1280.000000	1.463484
1281.000000	1.464998
1282.000000	1.470361
1283.000000	1.477880
1284.000000	1.471833
1285.000000	1.475999
1286.000000	1.489048
1287.000000	1.492284
1288.000000	1.483276
1289.000000	1.488271
1290.000000	1.488165
1291.000000	1.492530
1292.000000	1.500169
1293.000000	1.500321
1294.000000	1.498476
1295.000000	1.504326
1296.000000	1.509840
1297.000000	1.508854
1298.000000	1.505643
1299.000000	1.512098
1300.000000	1.521549
1301.000000	1.517657
1302.000000	1.520050
1303.000000	1.522315
1304.000000	1.526471
1305.000000	1.525499
1306.000000	1.525671
1307.000000	1.518894
1308.000000	1.521802
1309.000000	1.526389
1310.000000	1.522779
1311.000000	1.521904
1312.000000	1.520890
1313.000000	1.514750
1314.000000	1.509642
1315.000000	1.520853
1316.000000	1.516636
1317.000000	1.514113
1318.000000	1.524044
1319.000000	1.518917
1320.000000	1.523690
1321.000000	1.528532
1322.000000	1.535461
1323.000000	1.537382
1324.000000	1.537533
1325.000000	1.537742
1326.000000	1.538175
1327.000000	1.536715
1328.000000	1.538978
1329.000000	1.541131
1330.000000	1.538038
1331.000000	1.554428
1332.000000	1.560445
1333.000000	1.559780
1334.000000	1.552996
1335.000000	1.567002
1336.000000	1.567766
1337.000000	1.559984
1338.000000	1.575211
1339.000000	1.576616
1340.000000	1.584887
1341.000000	1.600863
1342.000000	1.588797
1343.000000	1.599031
1344.000000	1.595080
1345.000000	1.606133
1346.000000	1.601586
1347.000000	1.604936
1348.000000	1.611673
1349.000000	1.619799
1350.000000	1.634903
1351.000000	1.627997
1352.000000	1.611639
1353.000000	1.629734
1354.000000	1.659529
1355.000000	1.662462
1356.000000	1.667411
1357.000000	1.674057
1358.000000	1.672233
1359.000000	1.692908
1360.000000	1.661080
1361.000000	1.696347
1362.000000	1.692490
1363.000000	1.694671
1364.000000	1.709291
1365.000000	1.704191
1366.000000	1.721174
1367.000000	1.720489
1368.000000	1.714212
1369.000000	1.729566
1370.000000	1.740208
1371.000000	1.748988
1372.000000	1.750205
1373.000000	1.751843
1374.000000	1.765728
1375.000000	1.773876
1376.000000	1.771341
1377.000000	1.760674
1378.000000	1.758393
1379.000000	1.743097
1380.000000	1.749730
1381.000000	1.771422
1382.000000	1.790468
1383.000000	1.799905
1384.000000	1.811251
1385.000000	1.803195
1386.000000	1.820672
1387.000000	1.827144
1388.000000	1.828809
1389.000000	1.842334
1390.000000	1.833305
1391.000000	1.824273
1392.000000	1.820278
1393.000000	1.834191
1394.000000	1.834708
1395.000000	1.852361
1396.000000	1.863151
1397.000000	1.839778
1398.000000	1.838539
1399.000000	1.825066
1400.000000	1.853006
1401.000000	1.854253
1402.000000	1.832545
1403.000000	1.812385
1404.000000	1.835054
1405.000000	1.833752
1406.000000	1.829914
1407.000000	1.830458
1408.000000	1.840260
1409.000000	1.832287
1410.000000	1.823226
1411.000000	1.810299
1412.000000	1.808880
1413.000000	1.828839
1414.000000	1.821790
1415.000000	1.810769
1416.000000	1.823688
1417.000000	1.817493
1418.000000	1.814479
1419.000000	1.809500
1420.000000	1.805564
1421.000000	1.797599
1422.000000	1.806472
1423.000000	1.809613
1424.000000	1.812892
1425.000000	1.805455
1426.000000	1.797826
1427.000000	1.784878
1428.000000	1.779701
1429.000000	1.782461
1430.000000	1.788710
1431.000000	1.783853
1432.000000	1.799621
1433.000000	1.799177
1434.000000	1.800895
1435.000000	1.807761
1436.000000	1.785671
1437.000000	1.791700
1438.000000	1.805459
1439.000000	1.803195
1440.000000	1.800119
1441.000000	1.787074
1442.000000	1.788938
1443.000000	1.796633
1444.000000	1.801679
1445.000000	1.796728
1446.000000	1.804917
1447.000000	1.800454
1448.000000	1.794952
1449.000000	1.801397
1450.000000	1.795380
1451.000000	1.806665
1452.000000	1.816295
1453.000000	1.811786
1454.000000	1.815143
1455.000000	1.810929
1456.000000	1.808222
1457.000000	1.803628
1458.000000	1.802657
1459.000000	1.798610
1460.000000	1.800262
1461.000000	1.809557
1462.000000	1.811827
1463.000000	1.802816
1464.000000	1.802953
1465.000000	1.806643
1466.000000	1.801180
1467.000000	1.797124
1468.000000	1.799504
1469.000000	1.797389
1470.000000	1.795347
1471.000000	1.791113
1472.000000	1.785043
1473.000000	1.786648
1474.000000	1.793110
1475.000000	1.797801
1476.000000	1.795671
1477.000000	1.792996
1478.000000	1.782988
1479.000000	1.791765
1480.000000	1.796661
1481.000000	1.800739
1482.000000	1.797759
1483.000000	1.794857
1484.000000	1.793845
1485.000000	1.796350
1486.000000	1.799642
1487.000000	1.798248
1488.000000	1.798634
1489.000000	1.796888
1490.000000	1.795420
1491.000000	1.794182
1492.000000	1.793140
1493.000000	1.794614
1494.000000	1.802296
1495.000000	1.807762
1496.000000	1.810840
1497.000000	1.809371
1498.000000	1.807438
1499.000000	1.807160
1500.000000	1.813218
1501.000000	1.817772
1502.000000	1.820068
1503.000000	1.821172
1504.000000	1.827537
1505.000000	1.834049
1506.000000	1.837697
1507.000000	1.834598
1508.000000	1.834097
1509.000000	1.837976
1510.000000	1.839909
1511.000000	1.844175
1512.000000	1.851127
1513.000000	1.853828
1514.000000	1.865782
1515.000000	1.873046
1516.000000	1.865280
1517.000000	1.871236
1518.000000	1.873368
1519.000000	1.869475
1520.000000	1.871290
1521.000000	1.880143
1522.000000	1.886245
1523.000000	1.882489
1524.000000	1.877865
1525.000000	1.877604
1526.000000	1.885409
1527.000000	1.886257
1528.000000	1.886076
1529.000000	1.892336
1530.000000	1.901924
1531.000000	1.893949
1532.000000	1.898175
1533.000000	1.908172
1534.000000	1.909821
1535.000000	1.907890
1536.000000	1.906615
1537.000000	1.911344
1538.000000	1.915164
1539.000000	1.915480
1540.000000	1.913972
1541.000000	1.917272
1542.000000	1.921986
1543.000000	1.922809
1544.000000	1.922165
1545.000000	1.922859
1546.000000	1.926072
1547.000000	1.934686
1548.000000	1.935289
1549.000000	1.927531
1550.000000	1.925060
1551.000000	1.922020
1552.000000	1.926625
1553.000000	1.925757
1554.000000	1.925078
1555.000000	1.922469
1556.000000	1.929450
1557.000000	1.934143
1558.000000	1.932462
1559.000000	1.934510
1560.000000	1.934933
1561.000000	1.934340
1562.000000	1.940339
1563.000000	1.937909
1564.000000	1.933328
1565.000000	1.928674
1566.000000	1.932312
1567.000000	1.929565
1568.000000	1.927059
1569.000000	1.933416
1570.000000	1.926118
1571.000000	1.922819
1572.000000	1.923784
1573.000000	1.918726
1574.000000	1.924508
1575.000000	1.928160
1576.000000	1.926441
1577.000000	1.927303
1578.000000	1.929200
1579.000000	1.921359
1580.000000	1.923929
1581.000000	1.922894
1582.000000	1.926920
1583.000000	1.927667
1584.000000	1.916345
1585.000000	1.925206
1586.000000	1.923057
1587.000000	1.921306
1588.000000	1.928251
1589.000000	1.914650
1590.000000	1.914165
1591.000000	1.922350
1592.000000	1.919879
1593.000000	1.918077
1594.000000	1.924488
1595.000000	1.920010
1596.000000	1.924956
1597.000000	1.925565
1598.000000	1.929352
1599.000000	1.918445
1600.000000	1.916912
1601.000000	1.916836
1602.000000	1.924977
1603.000000	1.922920
1604.000000	1.923478
1605.000000	1.933461
1606.000000	1.931594
1607.000000	1.936015
1608.000000	1.929629
1609.000000	1.921197
1610.000000	1.925813
1611.000000	1.924134
1612.000000	1.921312
1613.000000	1.931191
1614.000000	1.925213
1615.000000	1.924435
1616.000000	1.916862
1617.000000	1.925865
1618.000000	1.927047
1619.000000	1.929267
1620.000000	1.927695
1621.000000	1.930083
1622.000000	1.929184
1623.000000	1.930414
1624.000000	1.920125
1625.000000	1.929031
1626.000000	1.922814
1627.000000	1.924808
1628.000000	1.928563
1629.000000	1.930523
1630.000000	1.925375
1631.000000	1.931202
1632.000000	1.920006
1633.000000	1.923112
1634.000000	1.944128
1635.000000	1.932659
1636.000000	1.933405
1637.000000	1.932797
1638.000000	1.934277
1639.000000	1.923312
1640.000000	1.931252
1641.000000	1.928521
1642.000000	1.931984
1643.000000	1.939177
1644.000000	1.943722
1645.000000	1.935449
1646.000000	1.934759
1647.000000	1.925535
1648.000000	1.936069
1649.000000	1.916225
1650.000000	1.920318
1651.000000	1.939094
1652.000000	1.913586
1653.000000	1.916006
1654.000000	1.929543
1655.000000	1.933466
1656.000000	1.921080
1657.000000	1.922822
1658.000000	1.916823
1659.000000	1.911194
1660.000000	1.919025
1661.000000	1.915837
1662.000000	1.911324
1663.000000	1.908153
1664.000000	1.901505
1665.000000	1.908021
1666.000000	1.917632
1667.000000	1.906454
1668.000000	1.890899
1669.000000	1.886405
1670.000000	1.871516
1671.000000	1.893004
1672.000000	1.888633
1673.000000	1.897705
1674.000000	1.876339
1675.000000	1.866797
1676.000000	1.874917
1677.000000	1.870642
1678.000000	1.876203
1679.000000	1.872555
1680.000000	1.878407
1681.000000	1.877255
1682.000000	1.883743
1683.000000	1.866499
1684.000000	1.873697
1685.000000	1.885431
1686.000000	1.873524
1687.000000	1.876480
1688.000000	1.883791
1689.000000	1.887414
1690.000000	1.892510
1691.000000	1.894388
1692.000000	1.884646
1693.000000	1.899539
1694.000000	1.900219
1695.000000	1.889218
1696.000000	1.908739
1697.000000	1.902623
1698.000000	1.907422
1699.000000	1.918509
1700.000000	1.916117
1701.000000	1.910906
1702.000000	1.912731
1703.000000	1.910655
1704.000000	1.916474
1705.000000	1.913875
1706.000000	1.905144
1707.000000	1.894650
1708.000000	1.896327
1709.000000	1.907132
1710.000000	1.900469
1711.000000	1.896470
1712.000000	1.891185
1713.000000	1.885229
1714.000000	1.882403
1715.000000	1.880682
1716.000000	1.874473
1717.000000	1.880036
1718.000000	1.873449
1719.000000	1.873706
1720.000000	1.876870
1721.000000	1.877730
1722.000000	1.873873
1723.000000	1.872937
1724.000000	1.869973
1725.000000	1.866265
1726.000000	1.871380
1727.000000	1.872637
1728.000000	1.876218
1729.000000	1.875596
1730.000000	1.880441
1731.000000	1.883037
1732.000000	1.887573
1733.000000	1.887738
1734.000000	1.888888
1735.000000	1.890690
1736.000000	1.901331
1737.000000	1.897910
1738.000000	1.901744
1739.000000	1.897344
1740.000000	1.904588
1741.000000	1.904987
1742.000000	1.913405
1743.000000	1.913764
1744.000000	1.901660
1745.000000	1.896215
1746.000000	1.898333
1747.000000	1.898692
1748.000000	1.898776
1749.000000	1.905320
1750.000000	1.909648
1751.000000	1.907083
1752.000000	1.898824
1753.000000	1.899974
1754.000000	1.900723
1755.000000	1.897219
1756.000000	1.903635
1757.000000	1.907673
1758.000000	1.903837
1759.000000	1.907798
1760.000000	1.904883
1761.000000	1.903513
1762.000000	1.899493
1763.000000	1.906603
1764.000000	1.900197
1765.000000	1.903132
1766.000000	1.906295
1767.000000	1.900266
1768.000000	1.899779
1769.000000	1.906530
1770.000000	1.906804
1771.000000	1.909428
1772.000000	1.906970
1773.000000	1.900152
1774.000000	1.911154
1775.000000	1.910602
1776.000000	1.904248
1777.000000	1.906853
1778.000000	1.913378
1779.000000	1.921724
1780.000000	1.920648
1781.000000	1.918573
1782.000000	1.925272
1783.000000	1.925062
1784.000000	1.922163
1785.000000	1.930841
1786.000000	1.929017
1787.000000	1.930586
1788.000000	1.932877
1789.000000	1.924124
1790.000000	1.910726
1791.000000	1.914108
1792.000000	1.928156
1793.000000	1.931949
1794.000000	1.943599
1795.000000	1.939503
1796.000000	1.933282
1797.000000	1.938291
1798.000000	1.929304
1799.000000	1.929266
1800.000000	1.936465
1801.000000	1.933949
1802.000000	1.932939
1803.000000	1.936368
1804.000000	1.938079
1805.000000	1.942034
1806.000000	1.946270
1807.000000	1.945301
1808.000000	1.939292
1809.000000	1.926875
1810.000000	1.926197
1811.000000	1.937051
1812.000000	1.941880
1813.000000	1.940411
1814.000000	1.942757
1815.000000	1.933837
1816.000000	1.925841
1817.000000	1.914926
1818.000000	1.900365
1819.000000	1.900883
1820.000000	1.926587
1821.000000	1.951226
1822.000000	1.955917
1823.000000	1.937273
1824.000000	1.915730
1825.000000	1.904497
1826.000000	1.898757
1827.000000	1.905969
1828.000000	1.911894
1829.000000	1.912790
1830.000000	1.921207
1831.000000	1.925791
1832.000000	1.908899
1833.000000	1.891137
1834.000000	1.882311
1835.000000	1.881663
1836.000000	1.882989
1837.000000	1.883142
1838.000000	1.887700
1839.000000	1.898989
1840.000000	1.921413
1841.000000	1.954128
1842.000000	1.960567
1843.000000	1.935895
1844.000000	1.894890
1845.000000	1.873155
1846.000000	1.872848
1847.000000	1.896378
1848.000000	1.947280
1849.000000	1.960318
1850.000000	1.944716
1851.000000	1.916240
1852.000000	1.908279
1853.000000	1.920574
1854.000000	1.912777
1855.000000	1.915681
1856.000000	1.916435
1857.000000	1.899079
1858.000000	1.899337
1859.000000	1.930969
1860.000000	1.936372
1861.000000	1.938506
1862.000000	1.942325
1863.000000	1.922950
1864.000000	1.887314
1865.000000	1.859216
1866.000000	1.829916
1867.000000	1.811802
1868.000000	1.794050
1869.000000	1.779634
1870.000000	1.795965
1871.000000	1.795466
1872.000000	1.807493
1873.000000	1.836726
1874.000000	1.834682
1875.000000	1.835380
1876.000000	1.850004
1877.000000	1.849061
1878.000000	1.833717
1879.000000	1.821752
1880.000000	1.809980
1881.000000	1.774739
1882.000000	1.742845
1883.000000	1.754926
1884.000000	1.746845
1885.000000	1.721683
1886.000000	1.709078
1887.000000	1.679546
1888.000000	1.656912
1889.000000	1.638345
1890.000000	1.615051
1891.000000	1.626518
1892.000000	1.621149
1893.000000	1.619386
1894.000000	1.588574
1895.000000	1.550806
1896.000000	1.518950
1897.000000	1.515936
1898.000000	1.494263
1899.000000	1.482120
1900.000000	1.461873
1901.000000	1.438326
1902.000000	1.440358
1903.000000	1.421786
1904.000000	1.415469
1905.000000	1.442571
1906.000000	1.452186
1907.000000	1.454504
1908.000000	1.437894
1909.000000	1.418827
1910.000000	1.398137
1911.000000	1.396188
1912.000000	1.392354
1913.000000	1.404423
1914.000000	1.400205
1915.000000	1.402934
1916.000000	1.405444
1917.000000	1.390515
1918.000000	1.367053
1919.000000	1.369981
1920.000000	1.377187
1921.000000	1.374950
1922.000000	1.387325
1923.000000	1.400009
1924.000000	1.405477
1925.000000	1.389807
1926.000000	1.374765
1927.000000	1.385708
1928.000000	1.379794
1929.000000	1.397362
1930.000000	1.406885
1931.000000	1.410903
1932.000000	1.415954
1933.000000	1.426787
1934.000000	1.416928
1935.000000	1.408750
1936.000000	1.420896
1937.000000	1.417838
1938.000000	1.409599
1939.000000	1.431433
1940.000000	1.418938
1941.000000	1.439182
1942.000000	1.449233
1943.000000	1.453694
1944.000000	1.432902
1945.000000	1.448949
1946.000000	1.451753
1947.000000	1.450728
1948.000000	1.453915
1949.000000	1.472298
1950.000000	1.458565
1951.000000	1.445667
1952.000000	1.446209
1953.000000	1.446408
1954.000000	1.462728
1955.000000	1.457976
1956.000000	1.455838
1957.000000	1.467387
1958.000000	1.464675
1959.000000	1.456421
1960.000000	1.466039
1961.000000	1.457490
1962.000000	1.468350
1963.000000	1.496461
1964.000000	1.484029
1965.000000	1.464705
1966.000000	1.475392
1967.000000	1.477797
1968.000000	1.484228
1969.000000	1.487273
1970.000000	1.476049
1971.000000	1.474099
1972.000000	1.486499
1973.000000	1.489167
1974.000000	1.495520
1975.000000	1.502956
1976.000000	1.498193
1977.000000	1.496045
1978.000000	1.488010
1979.000000	1.492022
1980.000000	1.513392
1981.000000	1.511531
1982.000000	1.504356
1983.000000	1.513827
1984.000000	1.521169
1985.000000	1.512124
1986.000000	1.518691
1987.000000	1.517413
1988.000000	1.516312
1989.000000	1.522531
1990.000000	1.517169
1991.000000	1.518282
1992.000000	1.528898
1993.000000	1.525569
1994.000000	1.527721
1995.000000	1.516828
1996.000000	1.530659
1997.000000	1.535508
1998.000000	1.531491
1999.000000	1.528982
