160ms
0ms
20X
3
Counts
3/1/2024 10:20:26 AM
10.00000000
0.00000000
Resolution=2&-1
Time1=160ms:Average1=10:Objective=20X:Aperture=3: (3/1/2024 10:20:26 AM)
350.16613620	350.60193709	351.03772818	351.47350942	351.90928082	352.34504234	352.78079397	353.21653569	353.65226748	354.08798932	354.52370120	354.95940309	355.39509497	355.83077683	356.26644864	356.70211039	357.13776206	357.57340363	358.00903508	358.44465639	358.88026755	359.31586852	359.75145930	360.18703986	360.62261019	361.05817026	361.49372007	361.92925958	362.36478878	362.80030765	363.23581617	363.67131432	364.10680209	364.54227945	364.97774638	365.41320287	365.84864890	366.28408445	366.71950949	367.15492401	367.59032800	368.02572142	368.46110427	368.89647652	369.33183815	369.76718915	370.20252950	370.63785917	371.07317815	371.50848642	371.94378395	372.37907074	372.81434676	373.24961199	373.68486642	374.12011002	374.55534277	374.99056467	375.42577567	375.86097578	376.29616497	376.73134321	377.16651050	377.60166680	378.03681211	378.47194641	378.90706966	379.34218187	379.77728300	380.21237303	380.64745196	381.08251975	381.51757640	381.95262187	382.38765616	382.82267924	383.25769109	383.69269170	384.12768105	384.56265911	384.99762586	385.43258130	385.86752540	386.30245813	386.73737949	387.17228945	387.60718799	388.04207509	388.47695074	388.91181492	389.34666760	389.78150877	390.21633841	390.65115650	391.08596302	391.52075795	391.95554127	392.39031297	392.82507302	393.25982140	393.69455810	394.12928310	394.56399638	394.99869791	395.43338769	395.86806568	396.30273188	396.73738625	397.17202880	397.60665948	398.04127829	398.47588521	398.91048022	399.34506329	399.77963441	400.21419356	400.64874072	401.08327588	401.51779900	401.95231008	402.38680910	402.82129603	403.25577086	403.69023356	404.12468412	404.55912252	404.99354874	405.42796276	405.86236457	406.29675414	406.73113145	407.16549648	407.59984922	408.03418965	408.46851774	408.90283349	409.33713686	409.77142784	410.20570642	410.63997256	411.07422626	411.50846749	411.94269624	412.37691248	412.81111621	413.24530738	413.67948600	414.11365204	414.54780547	414.98194629	415.41607447	415.85018999	416.28429284	416.71838299	417.15246043	417.58652514	418.02057709	418.45461627	418.88864266	419.32265625	419.75665700	420.19064491	420.62461995	421.05858210	421.49253135	421.92646768	422.36039106	422.79430148	423.22819892	423.66208336	424.09595478	424.52981316	424.96365849	425.39749074	425.83130989	426.26511593	426.69890883	427.13268858	427.56645516	428.00020855	428.43394873	428.86767568	429.30138939	429.73508982	430.16877697	430.60245081	431.03611133	431.46975851	431.90339232	432.33701276	432.77061979	433.20421340	433.63779357	434.07136029	434.50491352	434.93845327	435.37197949	435.80549219	436.23899132	436.67247689	437.10594887	437.53940723	437.97285197	438.40628306	438.83970048	439.27310421	439.70649424	440.13987054	440.57323310	441.00658189	441.43991690	441.87323811	442.30654551	442.73983906	443.17311875	443.60638457	444.03963649	444.47287449	444.90609856	445.33930868	445.77250482	446.20568697	446.63885511	447.07200922	447.50514928	447.93827527	448.37138718	448.80448497	449.23756865	449.67063818	450.10369354	450.53673472	450.96976170	451.40277446	451.83577298	452.26875725	452.70172723	453.13468291	453.56762428	454.00055132	454.43346400	454.86636230	455.29924622	455.73211572	456.16497079	456.59781142	457.03063757	457.46344923	457.89624639	458.32902903	458.76179711	459.19455064	459.62728958	460.06001392	460.49272363	460.92541871	461.35809913	461.79076486	462.22341591	462.65605223	463.08867382	463.52128065	463.95387271	464.38644998	464.81901243	465.25156005	465.68409283	466.11661073	466.54911374	466.98160185	467.41407503	467.84653327	468.27897654	468.71140483	469.14381811	469.57621637	470.00859960	470.44096776	470.87332084	471.30565882	471.73798169	472.17028942	472.60258200	473.03485940	473.46712160	473.89936860	474.33160036	474.76381687	475.19601811	475.62820407	476.06037471	476.49253003	476.92467000	477.35679461	477.78890383	478.22099765	478.65307605	479.08513900	479.51718650	479.94921851	480.38123503	480.81323602	481.24522149	481.67719139	482.10914572	482.54108446	482.97300758	483.40491507	483.83680691	484.26868308	484.70054356	485.13238833	485.56421738	485.99603067	486.42782820	486.85960995	487.29137589	487.72312601	488.15486029	488.58657870	489.01828124	489.44996788	489.88163860	490.31329338	490.74493220	491.17655505	491.60816190	492.03975274	492.47132755	492.90288631	493.33442899	493.76595559	494.19746607	494.62896043	495.06043864	495.49190069	495.92334655	496.35477620	496.78618963	497.21758682	497.64896774	498.08033239	498.51168074	498.94301276	499.37432845	499.80562778	500.23691074	500.66817730	501.09942745	501.53066116	501.96187842	502.39307921	502.82426351	503.25543130	503.68658256	504.11771727	504.54883542	504.97993698	505.41102193	505.84209026	506.27314195	506.70417698	507.13519532	507.56619696	507.99718189	508.42815007	508.85910150	509.29003615	509.72095401	510.15185505	510.58273926	511.01360661	511.44445709	511.87529069	512.30610737	512.73690712	513.16768992	513.59845576	514.02920461	514.45993645	514.89065127	515.32134905	515.75202976	516.18269339	516.61333992	517.04396933	517.47458160	517.90517671	518.33575465	518.76631539	519.19685891	519.62738520	520.05789424	520.48838600	520.91886048	521.34931764	521.77975747	522.21017995	522.64058507	523.07097279	523.50134312	523.93169601	524.36203147	524.79234945	525.22264996	525.65293297	526.08319845	526.51344640	526.94367678	527.37388959	527.80408480	528.23426240	528.66442236	529.09456467	529.52468930	529.95479624	530.38488547	530.81495697	531.24501072	531.67504671	532.10506490	532.53506529	532.96504785	533.39501257	533.82495942	534.25488839	534.68479946	535.11469261	535.54456782	535.97442507	536.40426434	536.83408561	537.26388887	537.69367409	538.12344125	538.55319035	538.98292135	539.41263423	539.84232899	540.27200560	540.70166404	541.13130429	541.56092633	541.99053015	542.42011572	542.84968303	543.27923205	543.70876277	544.13827517	544.56776923	544.99724493	545.42670225	545.85614117	546.28556168	546.71496375	547.14434736	547.57371250	548.00305915	548.43238728	548.86169688	549.29098794	549.72026042	550.14951431	550.57874960	551.00796626	551.43716427	551.86634362	552.29550429	552.72464625	553.15376949	553.58287399	554.01195973	554.44102669	554.87007485	555.29910419	555.72811470	556.15710635	556.58607912	557.01503300	557.44396797	557.87288401	558.30178110	558.73065921	559.15951834	559.58835846	560.01717955	560.44598160	560.87476458	561.30352847	561.73227326	562.16099893	562.58970546	563.01839282	563.44706101	563.87571000	564.30433977	564.73295030	565.16154157	565.59011358	566.01866628	566.44719967	566.87571373	567.30420844	567.73268378	568.16113973	568.58957627	569.01799338	569.44639105	569.87476924	570.30312796	570.73146717	571.15978685	571.58808700	572.01636758	572.44462858	572.87286998	573.30109177	573.72929391	574.15747640	574.58563922	575.01378234	575.44190574	575.87000941	576.29809333	576.72615748	577.15420184	577.58222639	578.01023111	578.43821598	578.86618099	579.29412611	579.72205133	580.14995662	580.57784197	581.00570736	581.43355276	581.86137817	582.28918356	582.71696890	583.14473420	583.57247941	584.00020453	584.42790954	584.85559441	585.28325913	585.71090368	586.13852803	586.56613218	586.99371610	587.42127977	587.84882317	588.27634629	588.70384910	589.13133159	589.55879373	589.98623551	590.41365691	590.84105791	591.26843849	591.69579863	592.12313831	592.55045752	592.97775623	593.40503442	593.83229208	594.25952919	594.68674573	595.11394167	595.54111700	595.96827171	596.39540576	596.82251915	597.24961185	597.67668385	598.10373512	598.53076564	598.95777541	599.38476439	599.81173257	600.23867993	600.66560645	601.09251211	601.51939690	601.94626078	602.37310376	602.79992580	603.22672688	603.65350699	604.08026611	604.50700422	604.93372130	605.36041733	605.78709229	606.21374616	606.64037893	607.06699057	607.49358107	607.92015040	608.34669856	608.77322551	609.19973124	609.62621572	610.05267896	610.47912091	610.90554156	611.33194090	611.75831891	612.18467556	612.61101083	613.03732472	613.46361719	613.88988823	614.31613782	614.74236595	615.16857258	615.59475771	616.02092131	616.44706337	616.87318386	617.29928278	617.72536008	618.15141577	618.57744982	619.00346220	619.42945291	619.85542192	620.28136922	620.70729478	621.13319858	621.55908061	621.98494085	622.41077927	622.83659587	623.26239061	623.68816348	624.11391447	624.53964355	624.96535070	625.39103591	625.81669915	626.24234041	626.66795966	627.09355689	627.51913209	627.94468522	628.37021627	628.79572523	629.22121207	629.64667677	630.07211931	630.49753969	630.92293786	631.34831383	631.77366756	632.19899905	632.62430826	633.04959519	633.47485980	633.90010209	634.32532203	634.75051961	635.17569481	635.60084760	636.02597797	636.45108589	636.87617136	637.30123435	637.72627483	638.15129281	638.57628824	639.00126112	639.42621142	639.85113913	640.27604422	640.70092669	641.12578650	641.55062364	641.97543809	642.40022983	642.82499885	643.24974512	643.67446862	644.09916934	644.52384726	644.94850235	645.37313460	645.79774399	646.22233050	646.64689411	647.07143480	647.49595255	647.92044735	648.34491917	648.76936800	649.19379381	649.61819659	650.04257632	650.46693298	650.89126655	651.31557701	651.73986434	652.16412852	652.58836954	653.01258737	653.43678200	653.86095340	654.28510156	654.70922646	655.13332808	655.55740640	655.98146140	656.40549307	656.82950137	657.25348630	657.67744784	658.10138596	658.52530064	658.94919188	659.37305964	659.79690391	660.22072468	660.64452191	661.06829560	661.49204572	661.91577225	662.33947518	662.76315449	663.18681015	663.61044215	664.03405047	664.45763509	664.88119598	665.30473314	665.72824655	666.15173617	666.57520200	666.99864402	667.42206220	667.84545653	668.26882699	668.69217355	669.11549621	669.53879494	669.96206971	670.38532052	670.80854735	671.23175017	671.65492896	672.07808371	672.50121440	672.92432101	673.34740351	673.77046190	674.19349615	674.61650623	675.03949215	675.46245386	675.88539136	676.30830463	676.73119364	677.15405838	677.57689882	677.99971496	678.42250677	678.84527423	679.26801732	679.69073602	680.11343032	680.53610019	680.95874562	681.38136658	681.80396307	682.22653505	682.64908251	683.07160543	683.49410379	683.91657758	684.33902677	684.76145134	685.18385128	685.60622656	686.02857717	686.45090309	686.87320430	687.29548077	687.71773250	688.13995946	688.56216163	688.98433899	689.40649153	689.82861923	690.25072206	690.67280001	691.09485305	691.51688118	691.93888436	692.36086259	692.78281583	693.20474408	693.62664732	694.04852552	694.47037866	694.89220673	695.31400971	695.73578757	696.15754031	696.57926789	697.00097031	697.42264753	697.84429955	698.26592635	698.68752790	699.10910418	699.53065518	699.95218088	700.37368126	700.79515630	701.21660597	701.63803027	702.05942917	702.48080265	702.90215070	703.32347329	703.74477041	704.16604204	704.58728815	705.00850873	705.42970376	705.85087322	706.27201710	706.69313536	707.11422800	707.53529499	707.95633632	708.37735196	708.79834190	709.21930612	709.64024460	710.06115731	710.48204425	710.90290539	711.32374071	711.74455020	712.16533383	712.58609158	713.00682344	713.42752939	713.84820941	714.26886347	714.68949157	715.11009368	715.53066977	715.95121984	716.37174387	716.79224183	717.21271370	717.63315947	718.05357912	718.47397263	718.89433997	719.31468114	719.73499610	720.15528485	720.57554736	720.99578362	721.41599360	721.83617729	722.25633466	722.67646570	723.09657039	723.51664871	723.93670063	724.35672615	724.77672524	725.19669789	725.61664407	726.03656376	726.45645695	726.87632362	727.29616374	727.71597730	728.13576429	728.55552467	728.97525843	729.39496556	729.81464603	730.23429983	730.65392692	731.07352731	731.49310096	731.91264786	732.33216799	732.75166133	733.17112786	733.59056756	734.00998042	734.42936640	734.84872550	735.26805770	735.68736298	736.10664131	736.52589267	736.94511706	737.36431445	737.78348482	738.20262815	738.62174442	739.04083362	739.45989572	739.87893071	740.29793856	740.71691926	741.13587279	741.55479913	741.97369826	742.39257016	742.81141481	743.23023219	743.64902229	744.06778508	744.48652055	744.90522868	745.32390944	745.74256282	746.16118880	746.57978736	746.99835849	747.41690215	747.83541834	748.25390703	748.67236821	749.09080185	749.50920794	749.92758646	750.34593739	750.76426070	751.18255639	751.60082443	752.01906480	752.43727748	752.85546246	753.27361971	753.69174922	754.10985097	754.52792493	754.94597109	755.36398944	755.78197994	756.19994258	756.61787735	757.03578422	757.45366318	757.87151420	758.28933727	758.70713236	759.12489946	759.54263856	759.96034962	760.37803263	760.79568758	761.21331443	761.63091318	762.04848381	762.46602629	762.88354061	763.30102674	763.71848468	764.13591439	764.55331586	764.97068908	765.38803401	765.80535065	766.22263898	766.63989896	767.05713060	767.47433386	767.89150873	768.30865518	768.72577321	769.14286278	769.55992389	769.97695651	770.39396062	770.81093621	771.22788325	771.64480173	772.06169163	772.47855292	772.89538559	773.31218962	773.72896499	774.14571169	774.56242968	774.97911896	775.39577950	775.81241129	776.22901431	776.64558853	777.06213394	777.47865052	777.89513825	778.31159710	778.72802708	779.14442814	779.56080028	779.97714347	780.39345769	780.80974294	781.22599918	781.64222640	782.05842457	782.47459369	782.89073373	783.30684467	783.72292649	784.13897918	784.55500271	784.97099707	785.38696224	785.80289819	786.21880491	786.63468238	787.05053057	787.46634949	787.88213909	788.29789936	788.71363029	789.12933186	789.54500404	789.96064681	790.37626017	790.79184408	791.20739853	791.62292351	792.03841898	792.45388494	792.86932136	793.28472822	793.70010551	794.11545321	794.53077129	794.94605974	795.36131853	795.77654766	796.19174710	796.60691683	797.02205683	797.43716709	797.85224758	798.26729829	798.68231919	799.09731027	799.51227150	799.92720288	800.34210438	800.75697597	801.17181765	801.58662939	802.00141118	802.41616299	802.83088480	803.24557660	803.66023837	804.07487008	804.48947173	804.90404329	805.31858473	805.73309605	806.14757722	806.56202823	806.97644905	807.39083966	807.80520005	808.21953020	808.63383009	809.04809970	809.46233901	809.87654799	810.29072665	810.70487494	811.11899286	811.53308038	811.94713749	812.36116416	812.77516039	813.18912614	813.60306140	814.01696615	814.43084037	814.84468405	815.25849716	815.67227968	816.08603160	816.49975289	816.91344354	817.32710353	817.74073284	818.15433144	818.56789933	818.98143648	819.39494287	819.80841849	820.22186330	820.63527731	821.04866048	821.46201280	821.87533424	822.28862480	822.70188444	823.11511316	823.52831093	823.94147773	824.35461354	824.76771835	825.18079213	825.59383487	826.00684655	826.41982715	826.83277664	827.24569502	827.65858225	828.07143833	828.48426323	828.89705694	829.30981943	829.72255068	830.13525068	830.54791941	830.96055685	831.37316298	831.78573777	832.19828122	832.61079330	833.02327400	833.43572328	833.84814115	834.26052757	834.67288252	835.08520599	835.49749796	835.90975842	836.32198733	836.73418468	837.14635046	837.55848463	837.97058720	838.38265813	838.79469740	839.20670500	839.61868091	840.03062511	840.44253757	840.85441829	841.26626724	841.67808440	842.08986976	842.50162329	842.91334498	843.32503480	843.73669274	844.14831877	844.55991289	844.97147506	845.38300528	845.79450352	846.20596976	846.61740399	847.02880618	847.44017631	847.85151437	848.26282034	848.67409420	849.08533592	849.49654550	849.90772291	850.31886813	850.72998114	851.14106193	851.55211047	851.96312674	852.37411074	852.78506243	853.19598180	853.60686882	854.01772349	854.42854578	854.83933568	855.25009315	855.66081819	856.07151078	856.48217089	856.89279850	857.30339361	857.71395618	858.12448620	858.53498366	858.94544852	859.35588078	859.76628041	860.17664740	860.58698172	860.99728335	861.40755229	861.81778850	862.22799197	862.63816268	863.04830061	863.45840574	863.86847805	864.27851753	864.68852415	865.09849790	865.50843876	865.91834670	866.32822171	866.73806377	867.14787286	867.55764895	867.96739205	868.37710211	868.78677913	869.19642308	869.60603395	870.01561171	870.42515635	870.83466785	871.24414619	871.65359135	872.06300331	872.47238206	872.88172756	873.29103981	873.70031878	874.10956446	874.51877683	874.92795586	875.33710155	875.74621386	876.15529278	876.56433830	876.97335038	877.38232902	877.79127419	878.20018588	878.60906407	879.01790873	879.42671984	879.83549740	880.24424138	880.65295176	881.06162852	881.47027164	881.87888110	882.28745689	882.69599898	883.10450736	883.51298201	883.92142291	884.32983003	884.73820337	885.14654289	885.55484859	885.96312043	886.37135842	886.77956251	887.18773271	887.59586898	888.00397130	888.41203966	888.82007405	889.22807443	889.63604079	890.04397312	890.45187139	890.85973558	891.26756568	891.67536166	892.08312351	892.49085121	892.89854473	893.30620407	893.71382919	894.12142009	894.52897673	894.93649911	895.34398721	895.75144100	896.15886046	896.56624558	896.97359634	897.38091272	897.78819470	898.19544225	898.60265537	899.00983403	899.41697822	899.82408791	900.23116308	900.63820372	901.04520981	901.45218132	901.85911824	902.26602056	902.67288824	903.07972127	903.48651964	903.89328332	904.30001230	904.70670655	905.11336605	905.51999079	905.92658076	906.33313592	906.73965626	907.14614176	907.55259240	907.95900816	908.36538903	908.77173498	909.17804600	909.58432207	909.99056316	910.39676926	910.80294035	911.20907641	911.61517742	912.02124336	912.42727422	912.83326996	913.23923059	913.64515607	914.05104638	914.45690152	914.86272145	915.26850616	915.67425563	916.07996984	916.48564877	916.89129241	917.29690073	917.70247372	918.10801135	918.51351361	918.91898047	919.32441193	919.72980795	920.13516853	920.54049363	920.94578325	921.35103736	921.75625595	922.16143899	922.56658647	922.97169836	923.37677465	923.78181532	924.18682035	924.59178972	924.99672341	925.40162141	925.80648369	926.21131023	926.61610102	927.02085603	927.42557525	927.83025866	928.23490624	928.63951796	929.04409382	929.44863379	929.85313785	930.25760599	930.66203818	931.06643441	931.47079465	931.87511889	932.27940711	932.68365929	933.08787540	933.49205544	933.89619938	934.30030721	934.70437889	935.10841442	935.51241378	935.91637694	936.32030390	936.72419462	937.12804908	937.53186728	937.93564919	938.33939480	938.74310407	939.14677700	939.55041357	939.95401375	940.35757752	940.76110488	941.16459579	941.56805025	941.97146822	942.37484969	942.77819465	943.18150307	943.58477494	943.98801022	944.39120892	944.79437100	945.19749645	945.60058525	946.00363738	946.40665282	946.80963155	947.21257356	947.61547881	948.01834730	948.42117901	948.82397391	949.22673199	949.62945323	950.03213761	950.43478511	950.83739570	951.23996938	951.64250613	952.04500591	952.44746872	952.84989454	953.25228334	953.65463511	954.05694983	954.45922747	954.86146803	955.26367148	955.66583780	956.06796697	956.47005898	956.87211380	957.27413142	957.67611181	958.07805496	958.47996085	958.88182946	959.28366077	959.68545476	960.08721142	960.48893071	960.89061263	961.29225716	961.69386427	962.09543395	962.49696617	962.89846092	963.29991819	963.70133794	964.10272017	964.50406485	964.90537196	965.30664148	965.70787340	966.10906770	966.51022435	966.91134334	967.31242465	967.71346826	968.11447415	968.51544230	968.91637270	969.31726532	969.71812014	970.11893715	970.51971632	970.92045764	971.32116109	971.72182665	972.12245430	972.52304402	972.92359579	973.32410959	973.72458541	974.12502322	974.52542301	974.92578475	975.32610843	975.72639403	976.12664153	976.52685091	976.92702215	977.32715523	977.72725014	978.12730685	978.52732534	978.92730560	979.32724760	979.72715134	980.12701678	980.52684391	980.92663271	981.32638316	981.72609525	982.12576895	982.52540424	982.92500111	983.32455953	983.72407949	984.12356097	984.52300394	984.92240840	985.32177431	985.72110167	986.12039045	986.51964064	986.91885220	987.31802514	987.71715942	988.11625502	988.51531193	988.91433014	989.31330961	989.71225033	990.11115229	990.51001546	990.90883982	991.30762535	991.70637204	992.10507987	992.50374881	992.90237886	993.30096998	993.69952216	994.09803538	994.49650962	994.89494487	995.29334110	995.69169830	996.09001644	996.48829550	996.88653548	997.28473634	997.68289807	998.08102066	998.47910407	998.87714829	999.27515331	999.67311910	1000.07104565	1000.46893293	1000.86678093	1001.26458963	1001.66235901	1002.06008904	1002.45777972	1002.85543101	1003.25304291	1003.65061539	1004.04814844	1004.44564203	1004.84309615	1005.24051077	1005.63788588	1006.03522146	1006.43251749	1006.82977395	1007.22699082	1007.62416809	1008.02130573	1008.41840372	1008.81546205	1009.21248069	1009.60945963	1010.00639885	1010.40329832	1010.80015804	1011.19697798	1011.59375812	1011.99049844	1012.38719893	1012.78385955	1013.18048031	1013.57706117	1013.97360212	1014.37010314	1014.76656420	1015.16298530	1015.55936641	1015.95570751	1016.35200858	1016.74826960	1017.14449056	1017.54067144	1017.93681221	1018.33291286	1018.72897337	1019.12499372	1019.52097388	1019.91691385	1020.31281360
1183.64000000	1182.42000000	1184.44000000	1182.68000000	1183.70000000	1190.86000000	1197.88000000	1196.34000000	1204.76000000	1199.18000000	1192.90000000	1185.68000000	1191.64000000	1179.16000000	1179.54000000	1181.98000000	1185.78000000	1181.52000000	1185.34000000	1189.52000000	1200.68000000	1209.72000000	1208.58000000	1208.16000000	1204.34000000	1193.40000000	1182.40000000	1185.90000000	1186.42000000	1189.96000000	1192.38000000	1193.28000000	1194.84000000	1204.94000000	1207.02000000	1201.00000000	1204.64000000	1204.66000000	1200.94000000	1196.20000000	1200.46000000	1206.22000000	1204.84000000	1199.92000000	1208.60000000	1199.88000000	1188.38000000	1194.54000000	1196.22000000	1193.18000000	1198.12000000	1206.30000000	1205.00000000	1201.50000000	1200.04000000	1201.72000000	1198.00000000	1189.86000000	1192.56000000	1196.48000000	1201.56000000	1205.84000000	1208.06000000	1206.22000000	1199.38000000	1194.56000000	1189.36000000	1191.76000000	1197.64000000	1197.52000000	1194.36000000	1199.18000000	1197.50000000	1191.18000000	1193.62000000	1194.16000000	1191.36000000	1196.88000000	1197.28000000	1201.38000000	1203.98000000	1204.16000000	1206.66000000	1212.40000000	1207.62000000	1206.24000000	1205.90000000	1207.74000000	1201.64000000	1202.04000000	1199.30000000	1198.56000000	1193.46000000	1197.46000000	1202.40000000	1211.46000000	1210.92000000	1204.28000000	1203.14000000	1195.30000000	1180.50000000	1187.90000000	1203.44000000	1200.36000000	1203.66000000	1211.70000000	1207.68000000	1198.60000000	1202.96000000	1198.82000000	1201.96000000	1194.18000000	1203.82000000	1206.68000000	1207.26000000	1207.36000000	1212.66000000	1204.42000000	1207.40000000	1209.74000000	1213.78000000	1214.24000000	1215.28000000	1212.66000000	1220.38000000	1224.33000000	1232.75000000	1241.13000000	1245.69000000	1258.11000000	1269.50000000	1282.44000000	1293.64000000	1319.72000000	1339.24000000	1370.16000000	1405.10000000	1448.30000000	1485.20000000	1524.68000000	1565.08000000	1610.12000000	1662.22000000	1719.72000000	1786.78000000	1856.86000000	1921.72000000	1986.72000000	2055.04000000	2117.50000000	2181.78000000	2253.90000000	2317.30000000	2392.38000000	2464.90000000	2530.46000000	2602.24000000	2675.30000000	2737.64000000	2813.56000000	2894.92000000	2958.52000000	3030.12000000	3100.32000000	3168.48000000	3224.72000000	3294.38000000	3358.78000000	3428.58000000	3487.74000000	3553.86000000	3618.12000000	3680.48000000	3732.42000000	3799.34000000	3857.84000000	3910.84000000	3971.30000000	4033.14000000	4076.32000000	4137.92000000	4202.78000000	4266.48000000	4333.48000000	4405.70000000	4463.70000000	4531.58000000	4585.60000000	4634.58000000	4688.50000000	4752.92000000	4801.36000000	4862.00000000	4924.24000000	4977.40000000	5026.66000000	5084.94000000	5138.34000000	5187.42000000	5236.54000000	5294.66000000	5352.72000000	5419.74000000	5488.44000000	5561.94000000	5632.82000000	5698.74000000	5753.90000000	5817.12000000	5876.60000000	5938.70000000	5994.86000000	6045.48000000	6073.70000000	6101.88000000	6137.74000000	6208.38000000	6283.14000000	6380.16000000	6472.70000000	6553.08000000	6614.26000000	6677.82000000	6740.36000000	6818.80000000	6903.16000000	6980.76000000	7064.28000000	7147.78000000	7223.34000000	7281.86000000	7346.62000000	7409.42000000	7474.78000000	7542.40000000	7613.58000000	7682.04000000	7750.24000000	7819.32000000	7884.12000000	7957.54000000	8037.44000000	8112.46000000	8180.96000000	8261.32000000	8339.14000000	8411.84000000	8493.88000000	8576.26000000	8662.74000000	8757.70000000	8856.96000000	8957.44000000	9051.94000000	9127.80000000	9207.16000000	9279.74000000	9346.42000000	9424.50000000	9509.04000000	9577.32000000	9642.92000000	9725.88000000	9803.90000000	9884.18000000	9963.62000000	10037.06000000	10103.48000000	10187.00000000	10276.04000000	10375.46000000	10492.58000000	10605.22000000	10718.22000000	10839.34000000	10950.38000000	11069.86000000	11196.98000000	11303.36000000	11407.86000000	11518.26000000	11612.02000000	11693.64000000	11774.64000000	11839.54000000	11905.66000000	11965.00000000	12023.18000000	12085.18000000	12159.16000000	12232.46000000	12309.74000000	12399.60000000	12503.42000000	12596.70000000	12691.34000000	12797.20000000	12904.10000000	13011.24000000	13131.76000000	13265.44000000	13394.24000000	13524.94000000	13653.82000000	13769.82000000	13893.12000000	14009.38000000	14121.02000000	14231.90000000	14346.54000000	14439.06000000	14532.10000000	14621.90000000	14699.06000000	14776.32000000	14851.88000000	14929.60000000	15006.26000000	15084.46000000	15164.16000000	15243.58000000	15335.26000000	15432.90000000	15540.62000000	15668.16000000	15799.74000000	15944.52000000	16092.76000000	16257.10000000	16410.84000000	16572.08000000	16704.84000000	16826.68000000	16938.96000000	17059.40000000	17178.92000000	17311.42000000	17432.50000000	17554.08000000	17656.60000000	17745.64000000	17832.80000000	17927.92000000	18021.68000000	18125.08000000	18237.80000000	18346.82000000	18484.94000000	18606.80000000	18722.38000000	18860.52000000	18995.24000000	19116.98000000	19251.82000000	19399.56000000	19547.16000000	19696.22000000	19858.10000000	20020.66000000	20182.70000000	20335.24000000	20496.46000000	20653.60000000	20814.88000000	20973.06000000	21101.02000000	21205.92000000	21283.10000000	21367.34000000	21470.40000000	21580.26000000	21686.24000000	21801.24000000	21894.66000000	21965.02000000	22034.96000000	22124.06000000	22219.02000000	22337.94000000	22451.48000000	22584.24000000	22736.24000000	22885.62000000	23026.76000000	23195.42000000	23347.52000000	23492.78000000	23655.54000000	23811.64000000	23955.48000000	24105.04000000	24254.06000000	24386.74000000	24521.16000000	24641.22000000	24771.24000000	24892.10000000	25032.42000000	25175.52000000	25311.16000000	25436.44000000	25555.66000000	25656.96000000	25757.84000000	25863.08000000	25921.18000000	25919.66000000	25906.60000000	25941.36000000	26019.80000000	26156.94000000	26377.16000000	26614.04000000	26811.27000000	26982.83000000	27164.81000000	27352.77000000	27552.49000000	27753.00000000	27952.02000000	28134.54000000	28314.36000000	28470.36000000	28614.56000000	28753.64000000	28890.80000000	29034.84000000	29171.68000000	29310.92000000	29415.30000000	29520.56000000	29598.62000000	29668.20000000	29722.94000000	29806.98000000	29873.06000000	29927.44000000	30000.94000000	30075.14000000	30147.95000000	30226.19500000	30305.81500000	30390.77500000	30493.95500000	30599.62500000	30715.52000000	30850.62000000	30988.36000000	31137.56000000	31297.32000000	31473.06000000	31678.04000000	31889.78000000	32099.24000000	32316.90000000	32545.04000000	32766.42000000	33001.80000000	33230.92000000	33437.46000000	33635.90000000	33806.46000000	33956.32000000	34092.56000000	34226.72000000	34319.04000000	34408.54000000	34489.68000000	34571.52000000	34635.62000000	34709.34000000	34795.10000000	34855.68000000	34920.60000000	34992.86000000	35065.28000000	35130.22000000	35196.24000000	35255.72000000	35348.24000000	35451.28000000	35554.24000000	35675.54000000	35808.44000000	35922.34000000	36039.76000000	36174.29000000	36334.79000000	36506.57000000	36687.73000000	36909.15000000	37120.96000000	37340.02000000	37550.20000000	37768.32000000	37941.94000000	38114.54000000	38270.24000000	38424.02000000	38552.22000000	38683.78000000	38798.66000000	38898.74000000	38981.36000000	39066.88000000	39137.74000000	39197.90000000	39244.90000000	39276.00000000	39310.16000000	39339.84000000	39379.38000000	39442.38000000	39516.08000000	39572.30000000	39653.06000000	39734.52000000	39807.20000000	39897.62000000	40006.32000000	40106.62000000	40205.80000000	40309.74000000	40420.76000000	40528.08000000	40627.46000000	40753.40000000	40859.38000000	40974.68000000	41110.74000000	41273.00000000	41416.96000000	41613.60000000	41789.28000000	41960.54000000	42117.12000000	42289.62000000	42432.66000000	42565.10000000	42680.24000000	42792.92000000	42892.20000000	42988.22000000	43091.70000000	43183.88000000	43268.36000000	43346.52000000	43393.10000000	43415.06000000	43444.18000000	43448.62000000	43427.46000000	43396.50000000	43375.54000000	43349.68000000	43361.70000000	43353.48000000	43380.58000000	43418.36000000	43428.80000000	43423.86000000	43454.54000000	43485.78000000	43516.50000000	43585.38000000	43682.94000000	43760.48000000	43837.58000000	43937.64000000	44060.86000000	44164.92000000	44302.72000000	44452.38000000	44581.50000000	44720.38000000	44861.58000000	45020.06000000	45208.38000000	45422.84000000	45590.60000000	45778.24000000	45921.72000000	46011.06000000	46078.50000000	46148.82000000	46189.00000000	46253.12000000	46316.46000000	46361.50000000	46389.68000000	46394.28000000	46388.68000000	46362.68000000	46340.30000000	46348.48000000	46398.12000000	46451.16000000	46508.96000000	46586.00000000	46639.66000000	46660.78000000	46664.52000000	46687.02000000	46661.88000000	46648.90000000	46648.00000000	46666.58000000	46688.76000000	46744.60000000	46810.14000000	46868.42000000	46908.26000000	46974.64000000	47065.84000000	47153.72000000	47261.30000000	47367.90000000	47444.14000000	47508.88000000	47586.24000000	47669.38000000	47763.02000000	47841.36000000	47930.28000000	47995.94000000	48057.20000000	48136.62000000	48229.42000000	48292.92000000	48341.74000000	48352.28000000	48329.32000000	48281.60000000	48239.66000000	48239.98000000	48243.48000000	48266.50000000	48285.52000000	48308.34000000	48297.56000000	48275.56000000	48239.50000000	48192.84000000	48144.22000000	48055.74000000	47990.10000000	47928.50000000	47895.52000000	47852.56000000	47871.32000000	47890.10000000	47921.88000000	47953.94000000	47966.40000000	47971.22000000	47986.28000000	47980.06000000	47973.38000000	48012.00000000	48028.22000000	48067.30000000	48143.96000000	48237.48000000	48320.04000000	48443.98000000	48552.36000000	48642.78000000	48706.30000000	48763.00000000	48800.08000000	48829.44000000	48832.46000000	48874.26000000	48916.88000000	48970.38000000	49003.20000000	49080.12000000	49118.04000000	49153.06000000	49149.16000000	49149.26000000	49122.44000000	49092.58000000	49042.60000000	48998.14000000	48950.78000000	48887.06000000	48828.10000000	48747.94000000	48673.88000000	48601.20000000	48526.26000000	48455.20000000	48393.08000000	48318.16000000	48250.02000000	48178.00000000	48117.82000000	48053.32000000	47991.08000000	47905.20000000	47813.94000000	47725.68000000	47634.96000000	47549.78000000	47485.94000000	47462.42000000	47429.92000000	47417.52000000	47417.50000000	47441.00000000	47410.82000000	47387.04000000	47374.40000000	47364.18000000	47353.94000000	47400.04000000	47468.68000000	47551.54000000	47667.00000000	47787.58000000	47908.52000000	47997.72000000	48068.20000000	48085.16000000	48073.48000000	48020.60000000	47936.70000000	47823.44000000	47672.86000000	47483.98000000	47266.84000000	47035.42000000	46804.18000000	46592.44000000	46401.22000000	46250.96000000	46145.42000000	46041.84000000	45966.60000000	45893.26000000	45845.42000000	45813.82000000	45846.06000000	45914.94000000	46007.78000000	46089.40000000	46138.68000000	46142.62000000	46094.26000000	46005.82000000	45865.54000000	45715.88000000	45549.24000000	45390.64000000	45258.98000000	45187.78000000	45179.16000000	45153.30000000	45070.98000000	44907.50000000	44708.12000000	44540.64000000	44484.56000000	44508.80000000	44596.32000000	44684.62000000	44700.92000000	44616.36000000	44500.90000000	44419.70000000	44362.48000000	44291.56000000	44254.30000000	44252.36000000	44248.62000000	44228.52000000	44246.74000000	44261.66000000	44254.74000000	44233.58000000	44214.86000000	44163.68000000	44100.18000000	44046.92000000	43995.62000000	43926.82000000	43848.34000000	43775.08000000	43675.76000000	43578.54000000	43498.84000000	43435.92000000	43358.28000000	43296.84000000	43197.36000000	43095.90000000	42980.92000000	42854.12000000	42713.78000000	42575.74000000	42412.48000000	42227.74000000	42069.50000000	41901.52000000	41764.40000000	41653.56000000	41568.98000000	41464.08000000	41362.20000000	41286.34000000	41153.44000000	40994.88000000	40829.56000000	40640.98000000	40420.62000000	40225.72000000	40057.64000000	39901.92000000	39783.48000000	39649.86000000	39533.82000000	39396.76000000	39254.30000000	39084.12000000	38904.88000000	38744.46000000	38603.48000000	38485.12000000	38402.04000000	38366.54000000	38295.14000000	38220.58000000	38147.08000000	38056.94000000	37936.42000000	37839.16000000	37734.20000000	37603.84000000	37458.22000000	37323.52000000	37194.68000000	37069.96000000	36991.24000000	36942.78000000	36888.58000000	36852.06000000	36823.44000000	36776.64000000	36737.84000000	36680.36000000	36584.88000000	36457.96000000	36303.06000000	36095.06000000	35892.06000000	35685.62000000	35472.00000000	35274.14000000	35106.20000000	34937.38000000	34770.88000000	34629.78000000	34499.30000000	34359.74000000	34215.78000000	34102.36000000	33979.62000000	33841.50000000	33725.24000000	33631.72000000	33517.90000000	33436.40000000	33372.08000000	33290.72000000	33221.96000000	33158.46000000	33085.50000000	33015.36000000	32982.86000000	32935.06000000	32897.50000000	32864.20000000	32830.14000000	32753.28000000	32698.02000000	32630.74000000	32553.46000000	32484.22000000	32433.24000000	32362.18000000	32298.78000000	32236.98000000	32135.84000000	32018.00000000	31896.74000000	31762.40000000	31637.46000000	31515.44000000	31407.94000000	31272.08000000	31158.78000000	31033.16000000	30933.00000000	30811.16000000	30735.50000000	30642.42000000	30552.66000000	30421.32000000	30284.46000000	30135.76000000	30006.52000000	29901.64000000	29858.02000000	29835.02000000	29758.04000000	29670.74000000	29547.98000000	29409.52000000	29295.42000000	29243.16000000	29188.88000000	29122.24000000	29034.12000000	28924.56000000	28783.86000000	28641.86000000	28513.76000000	28362.10000000	28205.14000000	28055.88000000	27899.56000000	27765.14000000	27659.58000000	27542.22000000	27428.06000000	27305.42000000	27157.80000000	27000.46000000	26839.74000000	26686.64000000	26539.68000000	26397.40000000	26256.70000000	26124.28000000	25973.20000000	25799.18000000	25633.52000000	25441.84000000	25249.12000000	25070.42000000	24887.10000000	24709.48000000	24562.50000000	24398.86000000	24233.34000000	24096.40000000	23968.52000000	23822.98000000	23719.76000000	23608.34000000	23506.88000000	23373.90000000	23254.38000000	23120.26000000	23007.08000000	22874.10000000	22755.40000000	22637.42000000	22500.62000000	22359.52000000	22241.12000000	22135.78000000	22045.92000000	21974.62000000	21901.28000000	21820.50000000	21737.70000000	21653.68000000	21565.96000000	21483.00000000	21375.20000000	21219.40000000	21000.66000000	20741.36000000	20476.92000000	20284.98000000	20187.00000000	20203.34000000	20266.42000000	20308.46000000	20293.12000000	20222.88000000	20076.24000000	19923.90000000	19783.36000000	19641.46000000	19513.12000000	19357.96000000	19184.78000000	18993.96000000	18819.74000000	18657.70000000	18542.84000000	18446.46000000	18381.26000000	18306.14000000	18199.86000000	18088.42000000	17962.80000000	17829.88000000	17686.36000000	17523.88000000	17339.58000000	17173.64000000	17022.98000000	16886.16000000	16785.98000000	16715.10000000	16625.08000000	16518.64000000	16392.04000000	16257.46000000	16107.02000000	15982.32000000	15858.38000000	15738.80000000	15619.74000000	15517.80000000	15407.12000000	15294.70000000	15202.32000000	15095.44000000	14991.30000000	14891.06000000	14797.54000000	14711.90000000	14645.70000000	14577.88000000	14515.40000000	14453.90000000	14389.08000000	14303.00000000	14221.64000000	14122.98000000	14032.22000000	13941.88000000	13876.34000000	13808.34000000	13751.40000000	13708.64000000	13658.22000000	13614.50000000	13577.30000000	13545.30000000	13498.96000000	13463.82000000	13423.62000000	13372.06000000	13330.78000000	13296.00000000	13265.54000000	13227.38000000	13209.38000000	13192.60000000	13177.54000000	13162.20000000	13154.42000000	13143.66000000	13130.72000000	13119.50000000	13100.24000000	13071.72000000	13032.74000000	12989.60000000	12932.32000000	12877.36000000	12825.78000000	12782.08000000	12732.64000000	12685.58000000	12629.72000000	12561.48000000	12487.66000000	12408.36000000	12324.28000000	12241.18000000	12173.86000000	12086.38000000	12008.92000000	11928.08000000	11859.24000000	11774.80000000	11698.38000000	11603.50000000	11523.88000000	11430.34000000	11358.68000000	11281.90000000	11225.94000000	11157.46000000	11120.66000000	11048.78000000	10987.86000000	10908.30000000	10828.56000000	10728.94000000	10646.54000000	10560.58000000	10481.12000000	10398.86000000	10310.58000000	10227.18000000	10146.68000000	10059.60000000	9987.46000000	9908.94000000	9830.56000000	9746.88000000	9676.60000000	9596.60000000	9515.70000000	9431.76000000	9353.44000000	9276.42000000	9206.76000000	9151.64000000	9107.74000000	9052.52000000	9005.06000000	8967.20000000	8919.98000000	8880.52000000	8842.34000000	8798.04000000	8741.06000000	8683.88000000	8619.14000000	8573.14000000	8532.20000000	8485.60000000	8458.78000000	8434.30000000	8401.36000000	8372.76000000	8352.12000000	8316.84000000	8277.32000000	8253.68000000	8219.86000000	8183.56000000	8156.76000000	8132.58000000	8099.88000000	8067.70000000	8039.72000000	8000.06000000	7960.72000000	7924.16000000	7883.56000000	7848.40000000	7812.20000000	7781.92000000	7747.28000000	7717.64000000	7679.32000000	7649.90000000	7601.48000000	7556.68000000	7516.66000000	7464.00000000	7409.94000000	7358.80000000	7298.78000000	7237.72000000	7201.82000000	7163.86000000	7129.18000000	7094.58000000	7064.20000000	7019.38000000	6971.62000000	6926.42000000	6891.94000000	6840.44000000	6795.18000000	6759.50000000	6718.72000000	6671.58000000	6623.82000000	6581.26000000	6523.64000000	6469.94000000	6415.72000000	6376.26000000	6313.72000000	6265.64000000	6227.28000000	6172.88000000	6122.14000000	6083.64000000	6034.60000000	5974.28000000	5932.44000000	5885.04000000	5832.08000000	5782.04000000	5741.08000000	5698.84000000	5654.02000000	5607.22000000	5568.12000000	5522.58000000	5481.68000000	5448.88000000	5431.70000000	5410.54000000	5392.16000000	5380.62000000	5358.22000000	5344.38000000	5327.22000000	5315.40000000	5291.14000000	5278.16000000	5252.12000000	5237.20000000	5215.14000000	5209.88000000	5188.44000000	5176.66000000	5164.24000000	5155.30000000	5138.92000000	5129.40000000	5116.30000000	5095.18000000	5082.86000000	5073.70000000	5073.34000000	5062.32000000	5062.42000000	5050.68000000	5041.46000000	5021.02000000	5016.90000000	5002.48000000	4998.92000000	4988.72000000	4983.34000000	4973.66000000	4965.74000000	4958.26000000	4941.08000000	4925.94000000	4910.62000000	4902.10000000	4887.60000000	4874.14000000	4863.52000000	4846.22000000	4829.72000000	4819.52000000	4808.36000000	4795.24000000	4777.06000000	4750.02000000	4728.92000000	4705.18000000	4682.56000000	4671.40000000	4654.60000000	4627.38000000	4615.20000000	4592.82000000	4553.80000000	4533.96000000	4515.06000000	4483.12000000	4461.76000000	4445.48000000	4421.72000000	4390.24000000	4361.12000000	4332.82000000	4304.24000000	4266.38000000	4236.86000000	4208.96000000	4173.78000000	4145.84000000	4119.22000000	4082.74000000	4044.36000000	4007.88000000	3959.82000000	3925.00000000	3893.50000000	3866.22000000	3833.12000000	3813.92000000	3783.44000000	3751.86000000	3720.60000000	3697.00000000	3660.58000000	3624.90000000	3595.42000000	3562.82000000	3524.98000000	3504.00000000	3488.26000000	3458.94000000	3432.90000000	3417.34000000	3392.88000000	3377.26000000	3362.04000000	3344.64000000	3319.82000000	3309.80000000	3287.92000000	3274.62000000	3262.10000000	3254.54000000	3234.54000000	3223.42000000	3208.42000000	3191.96000000	3179.86000000	3172.68000000	3151.92000000	3149.72000000	3137.38000000	3127.40000000	3112.40000000	3106.26000000	3091.60000000	3089.24000000	3073.46000000	3064.14000000	3043.82000000	3029.58000000	3026.14000000	3010.30000000	2997.84000000	2990.54000000	2977.12000000	2952.88000000	2945.14000000	2929.80000000	2915.04000000	2900.06000000	2891.66000000	2889.28000000	2882.46000000	2874.10000000	2864.42000000	2849.72000000	2828.40000000	2823.80000000	2814.70000000	2810.38000000	2809.22000000	2808.68000000	2793.14000000	2799.50000000	2794.72000000	2781.36000000	2766.10000000	2753.02000000	2730.72000000	2706.52000000	2691.46000000	2680.58000000	2673.88000000	2661.50000000	2653.34000000	2641.38000000	2633.40000000	2608.18000000	2585.58000000	2568.44000000	2552.76000000	2539.66000000	2534.10000000	2535.34000000	2524.88000000	2510.44000000	2493.38000000	2476.74000000	2450.08000000	2438.94000000	2428.32000000	2420.42000000	2409.76000000	2400.14000000	2384.58000000	2366.76000000	2332.26000000	2314.58000000	2294.86000000	2280.68000000	2267.84000000	2264.40000000	2251.00000000	2243.82000000	2226.84000000	2212.20000000	2203.96000000	2189.46000000	2173.02000000	2161.76000000	2149.02000000	2129.28000000	2124.18000000	2119.14000000	2103.84000000	2094.70000000	2088.44000000	2066.46000000	2046.10000000	2027.68000000	2014.80000000	2004.16000000	1999.24000000	1995.18000000	1997.88000000	1985.66000000	1976.30000000	1966.22000000	1949.56000000	1937.00000000	1926.48000000	1902.76000000	1897.64000000	1889.08000000	1875.34000000	1868.70000000	1865.22000000	1848.64000000	1848.90000000	1851.30000000	1840.74000000	1835.80000000	1834.00000000	1820.48000000	1796.14000000	1794.92000000	1786.30000000	1770.40000000	1757.90000000	1765.76000000	1759.56000000	1752.16000000	1746.08000000	1732.48000000	1714.98000000	1705.16000000	1695.62000000	1696.00000000	1695.48000000	1690.52000000	1678.20000000	1681.08000000	1669.44000000	1665.98000000	1668.16000000	1669.20000000	1662.22000000	1653.02000000	1651.66000000	1640.06000000	1632.22000000	1628.62000000	1623.22000000	1620.36000000	1613.46000000	1608.70000000	1600.66000000	1603.62000000	1601.42000000	1592.34000000	1589.86000000	1584.82000000	1580.34000000	1568.72000000	1577.82000000	1567.38000000	1560.14000000	1545.20000000	1536.62000000	1525.08000000	1519.74000000	1509.04000000	1516.84000000	1509.24000000	1501.92000000	1499.98000000	1492.90000000	1480.04000000	1477.64000000	1479.48000000	1470.86000000	1477.70000000	1470.84000000	1466.88000000	1447.40000000	1441.90000000	1427.14000000	1423.02000000	1413.60000000	1413.42000000	1401.44000000	1403.66000000	1397.64000000	1394.50000000	1386.14000000	1398.06000000	1388.54000000	1385.74000000	1379.52000000	1373.18000000	1358.88000000	1360.80000000	1351.92000000	1355.98000000	1358.14000000	1358.62000000	1354.04000000	1354.24000000	1339.26000000	1333.42000000	1331.58000000	1320.12000000	1318.30000000	1324.94000000	1321.86000000	1311.56000000	1311.02000000	1299.40000000	1290.46000000	1298.92000000	1298.98000000	1295.72000000	1299.36000000	1296.44000000	1279.48000000	1273.26000000	1272.50000000	1264.96000000	1263.08000000	1258.28000000	1263.50000000	1259.40000000	1267.32000000	1268.66000000	1272.38000000	1267.90000000	1264.70000000	1254.92000000	1249.10000000	1244.40000000	1243.48000000	1231.98000000	1231.70000000	1229.16000000	1232.04000000	1235.66000000	1238.02000000	1234.48000000	1232.86000000	1231.08000000	1209.66000000	1207.84000000	1208.12000000	1204.36000000	1208.64000000	1214.96000000	1220.12000000	1221.08000000	1220.98000000	1216.76000000	1210.36000000	1208.36000000	1205.58000000	1204.46000000	1203.56000000	1211.92000000	1206.14000000	1200.86000000	1201.24000000	1192.32000000	1189.92000000	1188.94000000	1190.15000000	1186.80000000
