PE UV       SUBTECH     SPECTRUM    ASCII       PEDS        4.00        
   -1
CICIMAUCR0141-3.Sample.ASC
24/04/22
09:38:58.00
24/04/22
09:38:58.00
Vinicio Soto Monge
C. kalinini
250,000000
1
Lambda 1050
1050L1511233
PerkinElmer UV WinLab 6.3.2.0749 / 2.02.05 Lambda 900 UV/VIS/NIR, Aug  7 2015 09:38:08

0
0
3350/servo 860,8/2
0
0
UV/VIS
1
1
1
DoubleDePol,CommonBeamDepol,RBeamAtt,SBeamAtt,60mm sphere, WB InGaAs Detector
0
0
0
0
Program
Program
3350/servo 860,8/2
3350/0,2 860,8/0,2
3350/0,2 860,8/0,2
0
15.00
 
 
 
0
 
860,8
319,2
860,8
Front
100
on
S:100 R:100
0
0
0
0
 
0
 
 
 
0
 
 
0
0
0
0
0
 
 
 
 
0
0


0
0
#HDR
-1
-1
#GR
nm
%R
1.0
0.0
2500,000000
-1,000000
2251
8
96,279600
5,742600
#DATA
250.000000	0.118540
251.000000	0.125256
252.000000	0.082071
253.000000	0.096317
254.000000	0.103486
255.000000	0.108690
256.000000	0.104618
257.000000	0.109012
258.000000	0.108165
259.000000	0.072085
260.000000	0.067961
261.000000	0.080686
262.000000	0.047489
263.000000	0.078612
264.000000	0.102068
265.000000	0.092774
266.000000	0.077915
267.000000	0.061121
268.000000	0.100546
269.000000	0.086322
270.000000	0.097651
271.000000	0.106995
272.000000	0.084652
273.000000	0.098927
274.000000	0.087441
275.000000	0.058792
276.000000	0.064482
277.000000	0.088651
278.000000	0.087195
279.000000	0.070323
280.000000	0.096397
281.000000	0.123662
282.000000	0.079186
283.000000	0.058707
284.000000	0.069540
285.000000	0.093132
286.000000	0.094131
287.000000	0.077602
288.000000	0.098185
289.000000	0.106253
290.000000	0.088542
291.000000	0.078771
292.000000	0.100552
293.000000	0.069580
294.000000	0.074619
295.000000	0.057758
296.000000	0.067301
297.000000	0.084698
298.000000	0.077770
299.000000	0.054463
300.000000	0.078876
301.000000	0.102370
302.000000	0.055600
303.000000	0.072302
304.000000	0.091527
305.000000	0.086755
306.000000	0.078290
307.000000	0.039469
308.000000	0.050803
309.000000	0.059814
310.000000	0.092157
311.000000	0.072431
312.000000	0.060030
313.000000	0.058708
314.000000	0.029462
315.000000	0.075777
316.000000	0.012331
317.000000	0.209544
318.000000	0.100049
319.000000	0.282224
320.000000	0.352077
321.000000	0.230953
322.000000	0.298444
323.000000	0.159523
324.000000	0.220413
325.000000	0.311820
326.000000	0.099911
327.000000	0.137438
328.000000	0.082563
329.000000	0.090804
330.000000	0.147242
331.000000	0.170265
332.000000	0.101677
333.000000	0.080165
334.000000	0.091450
335.000000	0.049543
336.000000	0.053695
337.000000	0.043416
338.000000	0.055573
339.000000	0.029654
340.000000	0.018367
341.000000	0.051522
342.000000	0.028477
343.000000	0.020626
344.000000	0.073380
345.000000	0.062038
346.000000	0.044059
347.000000	0.065855
348.000000	0.041151
349.000000	0.064347
350.000000	0.056029
351.000000	0.010187
352.000000	0.081407
353.000000	0.013597
354.000000	0.049188
355.000000	0.044666
356.000000	0.078864
357.000000	0.063162
358.000000	0.036305
359.000000	0.118488
360.000000	0.087799
361.000000	0.024217
362.000000	0.054916
363.000000	0.098858
364.000000	0.093912
365.000000	0.127854
366.000000	0.115220
367.000000	0.076335
368.000000	0.089712
369.000000	0.195416
370.000000	0.227656
371.000000	0.198958
372.000000	0.160096
373.000000	0.252555
374.000000	0.310052
375.000000	0.214449
376.000000	0.083081
377.000000	0.045387
378.000000	0.065967
379.000000	0.070792
380.000000	0.062482
381.000000	0.059207
382.000000	0.063686
383.000000	0.080286
384.000000	0.081282
385.000000	0.071304
386.000000	0.072477
387.000000	0.078784
388.000000	0.097006
389.000000	0.102370
390.000000	0.118174
391.000000	0.128634
392.000000	0.139000
393.000000	0.145824
394.000000	0.152773
395.000000	0.165042
396.000000	0.170386
397.000000	0.195746
398.000000	0.212775
399.000000	0.227778
400.000000	0.243307
401.000000	0.260658
402.000000	0.285269
403.000000	0.309937
404.000000	0.339294
405.000000	0.372650
406.000000	0.389308
407.000000	0.403515
408.000000	0.429648
409.000000	0.468151
410.000000	0.493602
411.000000	0.522667
412.000000	0.555708
413.000000	0.583217
414.000000	0.615459
415.000000	0.638988
416.000000	0.663529
417.000000	0.693003
418.000000	0.721149
419.000000	0.744595
420.000000	0.758426
421.000000	0.774704
422.000000	0.795978
423.000000	0.806759
424.000000	0.818093
425.000000	0.822118
426.000000	0.816624
427.000000	0.819315
428.000000	0.819647
429.000000	0.801043
430.000000	0.793234
431.000000	0.790124
432.000000	0.783109
433.000000	0.759031
434.000000	0.742939
435.000000	0.734649
436.000000	0.711110
437.000000	0.684447
438.000000	0.672429
439.000000	0.665591
440.000000	0.654711
441.000000	0.638500
442.000000	0.612886
443.000000	0.587921
444.000000	0.561139
445.000000	0.546299
446.000000	0.543202
447.000000	0.535090
448.000000	0.518830
449.000000	0.502590
450.000000	0.486225
451.000000	0.470625
452.000000	0.462278
453.000000	0.440035
454.000000	0.422324
455.000000	0.414827
456.000000	0.401719
457.000000	0.388359
458.000000	0.368283
459.000000	0.351892
460.000000	0.332530
461.000000	0.325665
462.000000	0.309385
463.000000	0.271243
464.000000	0.251377
465.000000	0.233079
466.000000	0.203405
467.000000	0.175618
468.000000	0.154450
469.000000	0.144095
470.000000	0.127256
471.000000	0.103602
472.000000	0.079204
473.000000	0.076852
474.000000	0.077802
475.000000	0.077593
476.000000	0.092448
477.000000	0.097486
478.000000	0.094834
479.000000	0.091838
480.000000	0.093235
481.000000	0.110411
482.000000	0.125630
483.000000	0.141802
484.000000	0.159066
485.000000	0.197875
486.000000	0.246766
487.000000	0.297502
488.000000	0.361251
489.000000	0.440750
490.000000	0.523309
491.000000	0.617878
492.000000	0.701227
493.000000	0.793106
494.000000	0.888392
495.000000	0.983539
496.000000	1.061878
497.000000	1.155867
498.000000	1.249593
499.000000	1.323017
500.000000	1.381420
501.000000	1.436364
502.000000	1.491810
503.000000	1.538638
504.000000	1.553846
505.000000	1.574557
506.000000	1.593463
507.000000	1.612045
508.000000	1.623636
509.000000	1.626656
510.000000	1.641238
511.000000	1.646648
512.000000	1.638017
513.000000	1.653916
514.000000	1.658377
515.000000	1.662717
516.000000	1.666853
517.000000	1.672403
518.000000	1.694109
519.000000	1.729645
520.000000	1.773547
521.000000	1.810905
522.000000	1.839515
523.000000	1.894903
524.000000	1.939464
525.000000	1.984447
526.000000	2.040703
527.000000	2.079132
528.000000	2.128278
529.000000	2.169260
530.000000	2.204953
531.000000	2.222694
532.000000	2.244762
533.000000	2.257321
534.000000	2.269424
535.000000	2.284401
536.000000	2.284483
537.000000	2.275196
538.000000	2.266750
539.000000	2.244541
540.000000	2.236336
541.000000	2.206928
542.000000	2.174862
543.000000	2.145252
544.000000	2.106797
545.000000	2.074905
546.000000	2.035320
547.000000	1.983195
548.000000	1.960299
549.000000	1.909231
550.000000	1.869755
551.000000	1.825126
552.000000	1.783345
553.000000	1.730760
554.000000	1.701759
555.000000	1.668382
556.000000	1.615700
557.000000	1.601851
558.000000	1.572918
559.000000	1.513393
560.000000	1.449807
561.000000	1.404506
562.000000	1.398384
563.000000	1.355113
564.000000	1.332314
565.000000	1.330223
566.000000	1.302371
567.000000	1.283731
568.000000	1.223752
569.000000	1.191241
570.000000	1.154034
571.000000	1.143473
572.000000	1.115570
573.000000	1.138095
574.000000	1.111224
575.000000	1.082226
576.000000	1.054629
577.000000	1.012218
578.000000	0.973869
579.000000	0.916611
580.000000	0.827488
581.000000	0.820743
582.000000	0.791822
583.000000	0.743463
584.000000	0.742391
585.000000	0.748678
586.000000	0.772127
587.000000	0.770837
588.000000	0.782621
589.000000	0.755220
590.000000	0.781303
591.000000	0.748499
592.000000	0.746758
593.000000	0.741898
594.000000	0.789746
595.000000	0.775856
596.000000	0.831576
597.000000	0.852903
598.000000	0.868649
599.000000	0.858514
600.000000	0.859181
601.000000	0.838914
602.000000	0.782896
603.000000	0.725612
604.000000	0.691751
605.000000	0.639015
606.000000	0.601537
607.000000	0.528074
608.000000	0.474274
609.000000	0.446395
610.000000	0.389202
611.000000	0.330134
612.000000	0.322470
613.000000	0.251120
614.000000	0.229745
615.000000	0.240761
616.000000	0.238115
617.000000	0.250988
618.000000	0.235978
619.000000	0.278961
620.000000	0.303020
621.000000	0.323472
622.000000	0.364343
623.000000	0.426986
624.000000	0.432204
625.000000	0.499163
626.000000	0.502338
627.000000	0.530011
628.000000	0.592302
629.000000	0.585191
630.000000	0.563485
631.000000	0.609472
632.000000	0.582832
633.000000	0.596302
634.000000	0.576374
635.000000	0.585614
636.000000	0.641987
637.000000	0.652766
638.000000	0.731296
639.000000	0.814520
640.000000	0.902347
641.000000	0.918136
642.000000	1.003514
643.000000	1.062146
644.000000	1.068151
645.000000	1.124837
646.000000	1.137927
647.000000	1.167294
648.000000	1.215734
649.000000	1.217693
650.000000	1.250197
651.000000	1.268291
652.000000	1.253123
653.000000	1.278680
654.000000	1.266157
655.000000	1.261674
656.000000	1.270368
657.000000	1.299586
658.000000	1.344348
659.000000	1.339563
660.000000	1.411370
661.000000	1.517061
662.000000	1.593062
663.000000	1.704309
664.000000	1.842344
665.000000	1.927574
666.000000	2.045285
667.000000	2.140335
668.000000	2.210295
669.000000	2.260797
670.000000	2.333517
671.000000	2.393802
672.000000	2.382219
673.000000	2.343900
674.000000	2.302150
675.000000	2.250216
676.000000	2.228651
677.000000	2.172814
678.000000	2.118540
679.000000	2.099316
680.000000	2.085750
681.000000	2.033626
682.000000	2.012023
683.000000	2.006483
684.000000	1.995161
685.000000	1.989005
686.000000	1.993481
687.000000	1.959095
688.000000	1.915970
689.000000	1.872870
690.000000	1.839561
691.000000	1.747458
692.000000	1.707402
693.000000	1.628692
694.000000	1.562867
695.000000	1.476113
696.000000	1.419240
697.000000	1.389372
698.000000	1.370089
699.000000	1.368165
700.000000	1.334944
701.000000	1.331932
702.000000	1.377194
703.000000	1.438287
704.000000	1.484884
705.000000	1.520886
706.000000	1.569250
707.000000	1.634163
708.000000	1.702190
709.000000	1.772220
710.000000	1.806102
711.000000	1.908601
712.000000	1.963708
713.000000	1.973471
714.000000	2.023410
715.000000	2.033235
716.000000	2.064715
717.000000	2.120944
718.000000	2.118884
719.000000	2.117607
720.000000	2.140308
721.000000	2.158872
722.000000	2.138766
723.000000	2.139953
724.000000	2.153587
725.000000	2.133211
726.000000	2.134897
727.000000	2.168149
728.000000	2.217871
729.000000	2.168404
730.000000	2.159748
731.000000	2.159717
732.000000	2.113853
733.000000	2.073415
734.000000	2.024980
735.000000	2.035225
736.000000	2.010841
737.000000	1.984130
738.000000	1.966069
739.000000	1.874791
740.000000	1.829000
741.000000	1.812754
742.000000	1.795112
743.000000	1.776262
744.000000	1.715912
745.000000	1.710070
746.000000	1.721633
747.000000	1.680803
748.000000	1.718206
749.000000	1.710803
750.000000	1.723835
751.000000	1.765974
752.000000	1.728966
753.000000	1.738972
754.000000	1.778538
755.000000	1.732525
756.000000	1.700505
757.000000	1.692735
758.000000	1.616425
759.000000	1.597830
760.000000	1.606094
761.000000	1.590517
762.000000	1.605662
763.000000	1.612662
764.000000	1.545214
765.000000	1.517870
766.000000	1.466961
767.000000	1.385294
768.000000	1.393750
769.000000	1.482558
770.000000	1.528238
771.000000	1.480437
772.000000	1.410481
773.000000	1.401317
774.000000	1.366842
775.000000	1.347157
776.000000	1.354706
777.000000	1.357283
778.000000	1.259529
779.000000	1.236085
780.000000	1.281309
781.000000	1.233266
782.000000	1.270476
783.000000	1.275713
784.000000	1.244629
785.000000	1.235903
786.000000	1.241307
787.000000	1.322736
788.000000	1.422559
789.000000	1.434655
790.000000	1.372686
791.000000	1.379450
792.000000	1.287018
793.000000	1.308952
794.000000	1.274276
795.000000	1.385615
796.000000	1.379292
797.000000	1.344257
798.000000	1.326141
799.000000	1.392512
800.000000	1.434669
801.000000	1.425389
802.000000	1.378668
803.000000	1.291368
804.000000	1.202435
805.000000	1.207996
806.000000	1.269433
807.000000	1.316164
808.000000	1.219366
809.000000	1.183668
810.000000	1.107808
811.000000	1.019284
812.000000	1.059935
813.000000	1.039236
814.000000	0.912065
815.000000	0.811420
816.000000	0.882509
817.000000	0.873383
818.000000	0.891492
819.000000	0.819980
820.000000	0.706373
821.000000	0.674800
822.000000	0.575227
823.000000	0.510421
824.000000	0.500677
825.000000	0.567001
826.000000	0.662545
827.000000	0.540042
828.000000	0.429122
829.000000	0.467299
830.000000	0.419634
831.000000	0.468423
832.000000	0.473497
833.000000	0.568214
834.000000	0.426853
835.000000	0.371110
836.000000	0.327981
837.000000	0.476022
838.000000	0.465620
839.000000	0.540683
840.000000	0.596134
841.000000	0.398931
842.000000	0.384881
843.000000	0.528221
844.000000	0.500887
845.000000	0.610026
846.000000	0.403788
847.000000	0.571665
848.000000	0.519452
849.000000	0.370122
850.000000	0.553918
851.000000	0.437280
852.000000	0.414143
853.000000	0.341223
854.000000	0.511597
855.000000	0.622993
856.000000	0.662823
857.000000	0.582027
858.000000	0.620348
859.000000	0.581735
860.000000	0.576951
861.000000	0.539328
862.000000	0.573337
863.000000	0.634842
864.000000	0.697872
865.000000	0.762263
866.000000	0.859599
867.000000	0.953107
868.000000	1.058970
869.000000	1.164290
870.000000	1.283261
871.000000	1.369548
872.000000	1.486147
873.000000	1.565014
874.000000	1.641121
875.000000	1.750007
876.000000	1.817601
877.000000	1.915921
878.000000	1.988794
879.000000	2.037060
880.000000	2.087212
881.000000	2.163953
882.000000	2.213465
883.000000	2.263996
884.000000	2.368799
885.000000	2.430219
886.000000	2.475244
887.000000	2.514986
888.000000	2.562543
889.000000	2.597132
890.000000	2.646773
891.000000	2.734017
892.000000	2.815987
893.000000	2.865245
894.000000	2.900093
895.000000	2.941346
896.000000	2.996835
897.000000	3.028328
898.000000	3.084245
899.000000	3.112228
900.000000	3.143117
901.000000	3.224466
902.000000	3.268864
903.000000	3.303363
904.000000	3.275005
905.000000	3.305485
906.000000	3.404110
907.000000	3.442137
908.000000	3.466435
909.000000	3.444697
910.000000	3.484984
911.000000	3.533861
912.000000	3.618963
913.000000	3.655007
914.000000	3.640102
915.000000	3.676202
916.000000	3.721759
917.000000	3.776068
918.000000	3.797999
919.000000	3.843453
920.000000	3.896082
921.000000	3.949620
922.000000	3.927520
923.000000	3.955318
924.000000	3.992930
925.000000	4.015867
926.000000	4.052386
927.000000	4.047648
928.000000	4.074277
929.000000	4.106184
930.000000	4.122528
931.000000	4.136167
932.000000	4.130462
933.000000	4.119926
934.000000	4.127692
935.000000	4.141291
936.000000	4.152609
937.000000	4.170624
938.000000	4.194983
939.000000	4.178024
940.000000	4.176609
941.000000	4.199935
942.000000	4.163970
943.000000	4.166558
944.000000	4.170933
945.000000	4.136559
946.000000	4.138326
947.000000	4.141134
948.000000	4.125733
949.000000	4.116657
950.000000	4.115645
951.000000	4.099132
952.000000	4.088012
953.000000	4.108097
954.000000	4.098582
955.000000	4.065892
956.000000	4.047739
957.000000	4.043758
958.000000	4.031096
959.000000	4.033303
960.000000	4.004465
961.000000	4.006400
962.000000	3.985630
963.000000	3.971146
964.000000	3.965565
965.000000	3.953324
966.000000	3.940768
967.000000	3.919869
968.000000	3.909988
969.000000	3.924272
970.000000	3.902790
971.000000	3.880188
972.000000	3.894114
973.000000	3.902313
974.000000	3.887784
975.000000	3.884086
976.000000	3.880945
977.000000	3.887386
978.000000	3.886221
979.000000	3.874067
980.000000	3.873551
981.000000	3.881547
982.000000	3.886723
983.000000	3.866842
984.000000	3.867264
985.000000	3.876002
986.000000	3.878140
987.000000	3.881910
988.000000	3.878010
989.000000	3.893127
990.000000	3.891361
991.000000	3.879469
992.000000	3.888998
993.000000	3.915118
994.000000	3.922394
995.000000	3.922826
996.000000	3.924774
997.000000	3.924322
998.000000	3.934529
999.000000	3.935733
1000.000000	3.933404
1001.000000	3.946814
1002.000000	3.960538
1003.000000	3.956942
1004.000000	3.961479
1005.000000	3.968346
1006.000000	3.963836
1007.000000	3.967192
1008.000000	3.972510
1009.000000	3.981378
1010.000000	3.979209
1011.000000	3.973679
1012.000000	3.988862
1013.000000	3.999542
1014.000000	4.001452
1015.000000	4.012907
1016.000000	4.017970
1017.000000	4.023153
1018.000000	4.029325
1019.000000	4.039896
1020.000000	4.050194
1021.000000	4.055059
1022.000000	4.049591
1023.000000	4.055631
1024.000000	4.074458
1025.000000	4.085719
1026.000000	4.088694
1027.000000	4.098224
1028.000000	4.100873
1029.000000	4.104648
1030.000000	4.121679
1031.000000	4.137144
1032.000000	4.148128
1033.000000	4.157262
1034.000000	4.172738
1035.000000	4.183931
1036.000000	4.194433
1037.000000	4.210263
1038.000000	4.222564
1039.000000	4.227010
1040.000000	4.243731
1041.000000	4.269440
1042.000000	4.283935
1043.000000	4.301677
1044.000000	4.320302
1045.000000	4.335983
1046.000000	4.344727
1047.000000	4.364045
1048.000000	4.382810
1049.000000	4.399414
1050.000000	4.429132
1051.000000	4.435028
1052.000000	4.449637
1053.000000	4.469250
1054.000000	4.478178
1055.000000	4.497129
1056.000000	4.514009
1057.000000	4.531588
1058.000000	4.552648
1059.000000	4.565927
1060.000000	4.580970
1061.000000	4.593295
1062.000000	4.598723
1063.000000	4.604655
1064.000000	4.619498
1065.000000	4.630915
1066.000000	4.647340
1067.000000	4.656737
1068.000000	4.662398
1069.000000	4.668419
1070.000000	4.678511
1071.000000	4.694015
1072.000000	4.706356
1073.000000	4.708233
1074.000000	4.721823
1075.000000	4.741785
1076.000000	4.747606
1077.000000	4.752316
1078.000000	4.758380
1079.000000	4.767736
1080.000000	4.772383
1081.000000	4.781058
1082.000000	4.799443
1083.000000	4.803143
1084.000000	4.809924
1085.000000	4.816848
1086.000000	4.835883
1087.000000	4.838749
1088.000000	4.844863
1089.000000	4.862473
1090.000000	4.886959
1091.000000	4.904199
1092.000000	4.910573
1093.000000	4.921268
1094.000000	4.938646
1095.000000	4.967091
1096.000000	4.967614
1097.000000	4.988564
1098.000000	4.998147
1099.000000	5.012291
1100.000000	5.039135
1101.000000	5.035570
1102.000000	5.059723
1103.000000	5.073849
1104.000000	5.088096
1105.000000	5.105384
1106.000000	5.108894
1107.000000	5.132844
1108.000000	5.134109
1109.000000	5.148019
1110.000000	5.162360
1111.000000	5.179791
1112.000000	5.188104
1113.000000	5.200199
1114.000000	5.205853
1115.000000	5.219044
1116.000000	5.213413
1117.000000	5.226883
1118.000000	5.223242
1119.000000	5.241123
1120.000000	5.251512
1121.000000	5.246882
1122.000000	5.256436
1123.000000	5.258907
1124.000000	5.269504
1125.000000	5.272631
1126.000000	5.268361
1127.000000	5.249707
1128.000000	5.275451
1129.000000	5.279711
1130.000000	5.239341
1131.000000	5.239161
1132.000000	5.242495
1133.000000	5.235647
1134.000000	5.229211
1135.000000	5.207507
1136.000000	5.196749
1137.000000	5.190610
1138.000000	5.158100
1139.000000	5.136719
1140.000000	5.146102
1141.000000	5.144363
1142.000000	5.134075
1143.000000	5.117980
1144.000000	5.106728
1145.000000	5.106702
1146.000000	5.098664
1147.000000	5.091715
1148.000000	5.073756
1149.000000	5.064135
1150.000000	5.048522
1151.000000	5.056695
1152.000000	5.051404
1153.000000	5.044888
1154.000000	5.039028
1155.000000	5.022300
1156.000000	5.011081
1157.000000	4.990923
1158.000000	4.963612
1159.000000	4.953846
1160.000000	4.937413
1161.000000	4.913709
1162.000000	4.896245
1163.000000	4.881045
1164.000000	4.861031
1165.000000	4.843867
1166.000000	4.814582
1167.000000	4.819981
1168.000000	4.802790
1169.000000	4.791295
1170.000000	4.760230
1171.000000	4.756138
1172.000000	4.740369
1173.000000	4.737695
1174.000000	4.731960
1175.000000	4.731467
1176.000000	4.711716
1177.000000	4.702480
1178.000000	4.695254
1179.000000	4.670657
1180.000000	4.678694
1181.000000	4.675182
1182.000000	4.677243
1183.000000	4.654968
1184.000000	4.647881
1185.000000	4.660310
1186.000000	4.659722
1187.000000	4.659339
1188.000000	4.681658
1189.000000	4.688127
1190.000000	4.707292
1191.000000	4.700674
1192.000000	4.733975
1193.000000	4.740891
1194.000000	4.761631
1195.000000	4.777380
1196.000000	4.799424
1197.000000	4.809054
1198.000000	4.830344
1199.000000	4.837703
1200.000000	4.854341
1201.000000	4.868459
1202.000000	4.893509
1203.000000	4.905838
1204.000000	4.909830
1205.000000	4.930195
1206.000000	4.936652
1207.000000	4.950448
1208.000000	4.967964
1209.000000	4.974496
1210.000000	4.989945
1211.000000	5.019047
1212.000000	5.028754
1213.000000	5.037336
1214.000000	5.041065
1215.000000	5.060699
1216.000000	5.071141
1217.000000	5.088095
1218.000000	5.098812
1219.000000	5.111899
1220.000000	5.119275
1221.000000	5.138202
1222.000000	5.147716
1223.000000	5.151274
1224.000000	5.160280
1225.000000	5.166616
1226.000000	5.172230
1227.000000	5.185600
1228.000000	5.190774
1229.000000	5.201869
1230.000000	5.210764
1231.000000	5.219239
1232.000000	5.227349
1233.000000	5.221257
1234.000000	5.224782
1235.000000	5.234064
1236.000000	5.238888
1237.000000	5.256194
1238.000000	5.264103
1239.000000	5.267243
1240.000000	5.276362
1241.000000	5.274910
1242.000000	5.299487
1243.000000	5.302056
1244.000000	5.309140
1245.000000	5.323061
1246.000000	5.330142
1247.000000	5.344051
1248.000000	5.367771
1249.000000	5.372972
1250.000000	5.372756
1251.000000	5.370965
1252.000000	5.382836
1253.000000	5.398201
1254.000000	5.388526
1255.000000	5.392749
1256.000000	5.410106
1257.000000	5.419114
1258.000000	5.425688
1259.000000	5.422143
1260.000000	5.434908
1261.000000	5.443254
1262.000000	5.442754
1263.000000	5.442435
1264.000000	5.457500
1265.000000	5.456315
1266.000000	5.455294
1267.000000	5.465845
1268.000000	5.469777
1269.000000	5.472204
1270.000000	5.478670
1271.000000	5.480560
1272.000000	5.485753
1273.000000	5.484457
1274.000000	5.489761
1275.000000	5.504826
1276.000000	5.515204
1277.000000	5.513270
1278.000000	5.513961
1279.000000	5.524536
1280.000000	5.528326
1281.000000	5.533427
1282.000000	5.536905
1283.000000	5.544782
1284.000000	5.558343
1285.000000	5.568554
1286.000000	5.573957
1287.000000	5.577076
1288.000000	5.581293
1289.000000	5.578749
1290.000000	5.585459
1291.000000	5.592544
1292.000000	5.597395
1293.000000	5.598160
1294.000000	5.598811
1295.000000	5.592754
1296.000000	5.588253
1297.000000	5.589675
1298.000000	5.585194
1299.000000	5.580595
1300.000000	5.585930
1301.000000	5.587911
1302.000000	5.581974
1303.000000	5.577668
1304.000000	5.565673
1305.000000	5.553923
1306.000000	5.550523
1307.000000	5.536348
1308.000000	5.528554
1309.000000	5.525778
1310.000000	5.512145
1311.000000	5.508672
1312.000000	5.491774
1313.000000	5.471516
1314.000000	5.464845
1315.000000	5.458193
1316.000000	5.449078
1317.000000	5.435527
1318.000000	5.416684
1319.000000	5.401584
1320.000000	5.385498
1321.000000	5.371783
1322.000000	5.371138
1323.000000	5.350191
1324.000000	5.323492
1325.000000	5.318558
1326.000000	5.306004
1327.000000	5.289625
1328.000000	5.271180
1329.000000	5.257601
1330.000000	5.236269
1331.000000	5.221010
1332.000000	5.201099
1333.000000	5.183012
1334.000000	5.157794
1335.000000	5.128078
1336.000000	5.113905
1337.000000	5.095605
1338.000000	5.064503
1339.000000	5.046649
1340.000000	5.026578
1341.000000	4.998767
1342.000000	4.959652
1343.000000	4.933773
1344.000000	4.913681
1345.000000	4.884344
1346.000000	4.841176
1347.000000	4.798714
1348.000000	4.771916
1349.000000	4.731693
1350.000000	4.713851
1351.000000	4.685914
1352.000000	4.650757
1353.000000	4.651830
1354.000000	4.636488
1355.000000	4.579670
1356.000000	4.549126
1357.000000	4.548936
1358.000000	4.538483
1359.000000	4.521715
1360.000000	4.502580
1361.000000	4.504020
1362.000000	4.474465
1363.000000	4.404570
1364.000000	4.419133
1365.000000	4.402092
1366.000000	4.360739
1367.000000	4.347117
1368.000000	4.335532
1369.000000	4.293376
1370.000000	4.285659
1371.000000	4.256237
1372.000000	4.219556
1373.000000	4.180583
1374.000000	4.155708
1375.000000	4.136324
1376.000000	4.112358
1377.000000	4.083716
1378.000000	4.044879
1379.000000	4.015516
1380.000000	3.977138
1381.000000	3.954389
1382.000000	3.897400
1383.000000	3.831379
1384.000000	3.786441
1385.000000	3.679336
1386.000000	3.638407
1387.000000	3.589841
1388.000000	3.546975
1389.000000	3.412280
1390.000000	3.380056
1391.000000	3.342476
1392.000000	3.269108
1393.000000	3.163512
1394.000000	3.150402
1395.000000	3.119634
1396.000000	3.028710
1397.000000	2.895897
1398.000000	2.866488
1399.000000	2.850997
1400.000000	2.785999
1401.000000	2.686825
1402.000000	2.582128
1403.000000	2.560935
1404.000000	2.470066
1405.000000	2.458940
1406.000000	2.371797
1407.000000	2.322506
1408.000000	2.287533
1409.000000	2.243925
1410.000000	2.190617
1411.000000	2.155629
1412.000000	2.122409
1413.000000	2.105488
1414.000000	2.078137
1415.000000	2.033544
1416.000000	2.005598
1417.000000	1.967465
1418.000000	1.993305
1419.000000	1.967909
1420.000000	1.939602
1421.000000	1.914512
1422.000000	1.894019
1423.000000	1.890395
1424.000000	1.890507
1425.000000	1.858681
1426.000000	1.845499
1427.000000	1.839197
1428.000000	1.838333
1429.000000	1.809958
1430.000000	1.814494
1431.000000	1.794382
1432.000000	1.787537
1433.000000	1.781376
1434.000000	1.770435
1435.000000	1.753517
1436.000000	1.753265
1437.000000	1.735965
1438.000000	1.734771
1439.000000	1.699700
1440.000000	1.705631
1441.000000	1.700397
1442.000000	1.692644
1443.000000	1.688604
1444.000000	1.679599
1445.000000	1.655954
1446.000000	1.664697
1447.000000	1.631223
1448.000000	1.624311
1449.000000	1.620714
1450.000000	1.629375
1451.000000	1.590390
1452.000000	1.583874
1453.000000	1.575145
1454.000000	1.569945
1455.000000	1.557602
1456.000000	1.547165
1457.000000	1.537649
1458.000000	1.523943
1459.000000	1.516630
1460.000000	1.514950
1461.000000	1.507034
1462.000000	1.505602
1463.000000	1.497513
1464.000000	1.479144
1465.000000	1.482449
1466.000000	1.479409
1467.000000	1.477695
1468.000000	1.456144
1469.000000	1.452500
1470.000000	1.461510
1471.000000	1.454579
1472.000000	1.429346
1473.000000	1.439548
1474.000000	1.441191
1475.000000	1.436211
1476.000000	1.442559
1477.000000	1.434765
1478.000000	1.427457
1479.000000	1.438897
1480.000000	1.447180
1481.000000	1.446682
1482.000000	1.440011
1483.000000	1.451502
1484.000000	1.452474
1485.000000	1.454097
1486.000000	1.460788
1487.000000	1.467454
1488.000000	1.478248
1489.000000	1.468322
1490.000000	1.478436
1491.000000	1.480718
1492.000000	1.484185
1493.000000	1.497381
1494.000000	1.505584
1495.000000	1.507369
1496.000000	1.513994
1497.000000	1.526877
1498.000000	1.537793
1499.000000	1.543436
1500.000000	1.543800
1501.000000	1.546560
1502.000000	1.556510
1503.000000	1.570490
1504.000000	1.589787
1505.000000	1.599295
1506.000000	1.598075
1507.000000	1.608654
1508.000000	1.610501
1509.000000	1.632392
1510.000000	1.635028
1511.000000	1.646306
1512.000000	1.663722
1513.000000	1.665233
1514.000000	1.671804
1515.000000	1.680879
1516.000000	1.687076
1517.000000	1.686430
1518.000000	1.698604
1519.000000	1.700106
1520.000000	1.700873
1521.000000	1.700724
1522.000000	1.709359
1523.000000	1.711745
1524.000000	1.715041
1525.000000	1.715430
1526.000000	1.721656
1527.000000	1.725944
1528.000000	1.738095
1529.000000	1.730754
1530.000000	1.731358
1531.000000	1.737776
1532.000000	1.737505
1533.000000	1.747701
1534.000000	1.742592
1535.000000	1.735905
1536.000000	1.736658
1537.000000	1.732774
1538.000000	1.728628
1539.000000	1.726473
1540.000000	1.731598
1541.000000	1.728492
1542.000000	1.728836
1543.000000	1.729382
1544.000000	1.725302
1545.000000	1.730079
1546.000000	1.727787
1547.000000	1.728994
1548.000000	1.733967
1549.000000	1.735569
1550.000000	1.730373
1551.000000	1.724719
1552.000000	1.731954
1553.000000	1.730238
1554.000000	1.724586
1555.000000	1.719003
1556.000000	1.713769
1557.000000	1.711904
1558.000000	1.709700
1559.000000	1.707660
1560.000000	1.707622
1561.000000	1.703854
1562.000000	1.692780
1563.000000	1.688448
1564.000000	1.689352
1565.000000	1.685832
1566.000000	1.680713
1567.000000	1.679936
1568.000000	1.673661
1569.000000	1.669254
1570.000000	1.671507
1571.000000	1.668124
1572.000000	1.672146
1573.000000	1.669847
1574.000000	1.676736
1575.000000	1.681541
1576.000000	1.676953
1577.000000	1.680689
1578.000000	1.690889
1579.000000	1.693679
1580.000000	1.697845
1581.000000	1.707138
1582.000000	1.722789
1583.000000	1.738302
1584.000000	1.726651
1585.000000	1.735995
1586.000000	1.755289
1587.000000	1.764858
1588.000000	1.765213
1589.000000	1.766012
1590.000000	1.785805
1591.000000	1.794728
1592.000000	1.803719
1593.000000	1.815037
1594.000000	1.824146
1595.000000	1.840081
1596.000000	1.864617
1597.000000	1.873942
1598.000000	1.880587
1599.000000	1.893633
1600.000000	1.897097
1601.000000	1.911438
1602.000000	1.929146
1603.000000	1.936012
1604.000000	1.941678
1605.000000	1.957831
1606.000000	1.971429
1607.000000	1.978654
1608.000000	1.992204
1609.000000	2.002894
1610.000000	2.003370
1611.000000	2.004953
1612.000000	2.016502
1613.000000	2.024877
1614.000000	2.032903
1615.000000	2.044880
1616.000000	2.053954
1617.000000	2.051145
1618.000000	2.057038
1619.000000	2.073978
1620.000000	2.079712
1621.000000	2.083843
1622.000000	2.092235
1623.000000	2.095189
1624.000000	2.101269
1625.000000	2.114011
1626.000000	2.119960
1627.000000	2.129211
1628.000000	2.127755
1629.000000	2.133909
1630.000000	2.135849
1631.000000	2.149380
1632.000000	2.152143
1633.000000	2.148987
1634.000000	2.161369
1635.000000	2.159933
1636.000000	2.160064
1637.000000	2.156789
1638.000000	2.173068
1639.000000	2.169518
1640.000000	2.171178
1641.000000	2.164807
1642.000000	2.170505
1643.000000	2.170714
1644.000000	2.176578
1645.000000	2.173321
1646.000000	2.165487
1647.000000	2.167996
1648.000000	2.179642
1649.000000	2.177899
1650.000000	2.171143
1651.000000	2.172454
1652.000000	2.168998
1653.000000	2.159275
1654.000000	2.161899
1655.000000	2.150690
1656.000000	2.145176
1657.000000	2.132947
1658.000000	2.127074
1659.000000	2.119089
1660.000000	2.104328
1661.000000	2.103145
1662.000000	2.090634
1663.000000	2.079409
1664.000000	2.053651
1665.000000	2.048069
1666.000000	2.033037
1667.000000	2.024700
1668.000000	1.979228
1669.000000	1.958220
1670.000000	1.958996
1671.000000	1.928757
1672.000000	1.920392
1673.000000	1.911842
1674.000000	1.882953
1675.000000	1.887101
1676.000000	1.876939
1677.000000	1.858059
1678.000000	1.826505
1679.000000	1.811737
1680.000000	1.789415
1681.000000	1.766568
1682.000000	1.740276
1683.000000	1.720497
1684.000000	1.708676
1685.000000	1.718531
1686.000000	1.708039
1687.000000	1.703711
1688.000000	1.711238
1689.000000	1.717941
1690.000000	1.739715
1691.000000	1.741841
1692.000000	1.739432
1693.000000	1.733140
1694.000000	1.738806
1695.000000	1.723391
1696.000000	1.723352
1697.000000	1.722206
1698.000000	1.718969
1699.000000	1.714870
1700.000000	1.717111
1701.000000	1.716245
1702.000000	1.712309
1703.000000	1.716003
1704.000000	1.707576
1705.000000	1.706385
1706.000000	1.688992
1707.000000	1.697087
1708.000000	1.691053
1709.000000	1.688398
1710.000000	1.683910
1711.000000	1.664843
1712.000000	1.667654
1713.000000	1.670970
1714.000000	1.655748
1715.000000	1.646440
1716.000000	1.639396
1717.000000	1.626412
1718.000000	1.633969
1719.000000	1.628855
1720.000000	1.621885
1721.000000	1.637461
1722.000000	1.636546
1723.000000	1.659501
1724.000000	1.665111
1725.000000	1.678519
1726.000000	1.680998
1727.000000	1.694376
1728.000000	1.711751
1729.000000	1.712636
1730.000000	1.727176
1731.000000	1.731036
1732.000000	1.750649
1733.000000	1.765949
1734.000000	1.759446
1735.000000	1.757925
1736.000000	1.762782
1737.000000	1.776092
1738.000000	1.777726
1739.000000	1.784194
1740.000000	1.797729
1741.000000	1.802206
1742.000000	1.799820
1743.000000	1.816304
1744.000000	1.820815
1745.000000	1.817578
1746.000000	1.809240
1747.000000	1.827280
1748.000000	1.822708
1749.000000	1.825160
1750.000000	1.826517
1751.000000	1.825807
1752.000000	1.829729
1753.000000	1.828230
1754.000000	1.812951
1755.000000	1.829325
1756.000000	1.836493
1757.000000	1.831668
1758.000000	1.828487
1759.000000	1.841348
1760.000000	1.835669
1761.000000	1.842401
1762.000000	1.851615
1763.000000	1.852066
1764.000000	1.860124
1765.000000	1.851439
1766.000000	1.855590
1767.000000	1.872800
1768.000000	1.868807
1769.000000	1.863597
1770.000000	1.866730
1771.000000	1.865914
1772.000000	1.862041
1773.000000	1.874143
1774.000000	1.868702
1775.000000	1.877747
1776.000000	1.873715
1777.000000	1.871012
1778.000000	1.874779
1779.000000	1.872016
1780.000000	1.875451
1781.000000	1.882296
1782.000000	1.880592
1783.000000	1.876293
1784.000000	1.872420
1785.000000	1.873698
1786.000000	1.865341
1787.000000	1.857471
1788.000000	1.853086
1789.000000	1.864760
1790.000000	1.860242
1791.000000	1.854855
1792.000000	1.854621
1793.000000	1.855237
1794.000000	1.859106
1795.000000	1.856644
1796.000000	1.858726
1797.000000	1.859238
1798.000000	1.851172
1799.000000	1.853834
1800.000000	1.861385
1801.000000	1.860470
1802.000000	1.856053
1803.000000	1.850185
1804.000000	1.843637
1805.000000	1.856288
1806.000000	1.862863
1807.000000	1.863949
1808.000000	1.858375
1809.000000	1.853565
1810.000000	1.857927
1811.000000	1.872143
1812.000000	1.870355
1813.000000	1.864815
1814.000000	1.856944
1815.000000	1.857711
1816.000000	1.856125
1817.000000	1.851176
1818.000000	1.856635
1819.000000	1.863873
1820.000000	1.863879
1821.000000	1.859509
1822.000000	1.846690
1823.000000	1.843951
1824.000000	1.860227
1825.000000	1.873654
1826.000000	1.881210
1827.000000	1.878372
1828.000000	1.884849
1829.000000	1.890388
1830.000000	1.889133
1831.000000	1.893106
1832.000000	1.896132
1833.000000	1.900495
1834.000000	1.900942
1835.000000	1.896410
1836.000000	1.904074
1837.000000	1.913420
1838.000000	1.906851
1839.000000	1.910107
1840.000000	1.917256
1841.000000	1.927775
1842.000000	1.927110
1843.000000	1.922167
1844.000000	1.932043
1845.000000	1.925322
1846.000000	1.923244
1847.000000	1.930231
1848.000000	1.935710
1849.000000	1.929566
1850.000000	1.921599
1851.000000	1.915537
1852.000000	1.894438
1853.000000	1.905425
1854.000000	1.909766
1855.000000	1.897454
1856.000000	1.901305
1857.000000	1.892076
1858.000000	1.877152
1859.000000	1.868880
1860.000000	1.853737
1861.000000	1.846486
1862.000000	1.840380
1863.000000	1.817857
1864.000000	1.804503
1865.000000	1.781715
1866.000000	1.766413
1867.000000	1.742044
1868.000000	1.708566
1869.000000	1.679996
1870.000000	1.653922
1871.000000	1.632530
1872.000000	1.603157
1873.000000	1.586694
1874.000000	1.556632
1875.000000	1.525075
1876.000000	1.513077
1877.000000	1.492739
1878.000000	1.457204
1879.000000	1.424035
1880.000000	1.393460
1881.000000	1.351476
1882.000000	1.296086
1883.000000	1.267664
1884.000000	1.237637
1885.000000	1.194892
1886.000000	1.179835
1887.000000	1.148264
1888.000000	1.107505
1889.000000	1.059461
1890.000000	1.049112
1891.000000	1.030763
1892.000000	1.018503
1893.000000	1.024440
1894.000000	1.000823
1895.000000	0.971847
1896.000000	0.942184
1897.000000	0.901838
1898.000000	0.867522
1899.000000	0.874392
1900.000000	0.891859
1901.000000	0.877767
1902.000000	0.855427
1903.000000	0.830748
1904.000000	0.806291
1905.000000	0.819027
1906.000000	0.837768
1907.000000	0.832918
1908.000000	0.832022
1909.000000	0.806767
1910.000000	0.765443
1911.000000	0.736063
1912.000000	0.737581
1913.000000	0.745382
1914.000000	0.740097
1915.000000	0.753244
1916.000000	0.740683
1917.000000	0.714846
1918.000000	0.687410
1919.000000	0.674753
1920.000000	0.661612
1921.000000	0.676798
1922.000000	0.680842
1923.000000	0.690970
1924.000000	0.670167
1925.000000	0.655849
1926.000000	0.644505
1927.000000	0.643027
1928.000000	0.631097
1929.000000	0.635668
1930.000000	0.661796
1931.000000	0.643688
1932.000000	0.643335
1933.000000	0.643351
1934.000000	0.633280
1935.000000	0.629083
1936.000000	0.619549
1937.000000	0.606494
1938.000000	0.611895
1939.000000	0.626425
1940.000000	0.632527
1941.000000	0.634019
1942.000000	0.620054
1943.000000	0.605553
1944.000000	0.608071
1945.000000	0.605214
1946.000000	0.615420
1947.000000	0.620097
1948.000000	0.606584
1949.000000	0.610350
1950.000000	0.595520
1951.000000	0.619880
1952.000000	0.616520
1953.000000	0.605801
1954.000000	0.604189
1955.000000	0.603355
1956.000000	0.620692
1957.000000	0.609513
1958.000000	0.616404
1959.000000	0.617349
1960.000000	0.602297
1961.000000	0.606982
1962.000000	0.603641
1963.000000	0.619916
1964.000000	0.617198
1965.000000	0.603285
1966.000000	0.619553
1967.000000	0.614287
1968.000000	0.610455
1969.000000	0.612534
1970.000000	0.607970
1971.000000	0.602522
1972.000000	0.608615
1973.000000	0.606540
1974.000000	0.604209
1975.000000	0.604939
1976.000000	0.628953
1977.000000	0.616945
1978.000000	0.611657
1979.000000	0.621263
1980.000000	0.622924
1981.000000	0.622835
1982.000000	0.632498
1983.000000	0.617521
1984.000000	0.626527
1985.000000	0.628826
1986.000000	0.630167
1987.000000	0.620456
1988.000000	0.618141
1989.000000	0.623459
1990.000000	0.631566
1991.000000	0.628797
1992.000000	0.650344
1993.000000	0.638918
1994.000000	0.648319
1995.000000	0.645099
1996.000000	0.638926
1997.000000	0.645866
1998.000000	0.647782
1999.000000	0.648010
2000.000000	0.652381
2001.000000	0.651957
2002.000000	0.642181
2003.000000	0.660197
2004.000000	0.663588
2005.000000	0.658760
2006.000000	0.661665
2007.000000	0.669777
2008.000000	0.675348
2009.000000	0.676438
2010.000000	0.667689
2011.000000	0.670411
2012.000000	0.681714
2013.000000	0.671217
2014.000000	0.669192
2015.000000	0.669883
2016.000000	0.676424
2017.000000	0.686028
2018.000000	0.686801
2019.000000	0.682181
2020.000000	0.679038
2021.000000	0.688628
2022.000000	0.687267
2023.000000	0.693384
2024.000000	0.684672
2025.000000	0.687007
2026.000000	0.696640
2027.000000	0.692607
2028.000000	0.694251
2029.000000	0.695949
2030.000000	0.695154
2031.000000	0.697473
2032.000000	0.700758
2033.000000	0.690446
2034.000000	0.688028
2035.000000	0.697817
2036.000000	0.691588
2037.000000	0.683674
2038.000000	0.677625
2039.000000	0.680534
2040.000000	0.679240
2041.000000	0.687388
2042.000000	0.682142
2043.000000	0.671795
2044.000000	0.658637
2045.000000	0.658187
2046.000000	0.649260
2047.000000	0.648813
2048.000000	0.648798
2049.000000	0.636819
2050.000000	0.643277
2051.000000	0.650583
2052.000000	0.628377
2053.000000	0.628574
2054.000000	0.644443
2055.000000	0.645598
2056.000000	0.643991
2057.000000	0.653444
2058.000000	0.659029
2059.000000	0.649303
2060.000000	0.649894
2061.000000	0.652330
2062.000000	0.653713
2063.000000	0.642115
2064.000000	0.642271
2065.000000	0.655255
2066.000000	0.657680
2067.000000	0.658904
2068.000000	0.651475
2069.000000	0.644487
2070.000000	0.639025
2071.000000	0.632659
2072.000000	0.638273
2073.000000	0.634286
2074.000000	0.629047
2075.000000	0.624805
2076.000000	0.628223
2077.000000	0.618759
2078.000000	0.607089
2079.000000	0.600079
2080.000000	0.603223
2081.000000	0.599761
2082.000000	0.599166
2083.000000	0.596117
2084.000000	0.587025
2085.000000	0.588889
2086.000000	0.572897
2087.000000	0.573800
2088.000000	0.568909
2089.000000	0.558835
2090.000000	0.563455
2091.000000	0.558229
2092.000000	0.545885
2093.000000	0.542109
2094.000000	0.540856
2095.000000	0.532529
2096.000000	0.528622
2097.000000	0.529903
2098.000000	0.526647
2099.000000	0.522073
2100.000000	0.519776
2101.000000	0.509215
2102.000000	0.495106
2103.000000	0.500589
2104.000000	0.495571
2105.000000	0.488184
2106.000000	0.487313
2107.000000	0.480148
2108.000000	0.477169
2109.000000	0.473352
2110.000000	0.467137
2111.000000	0.453066
2112.000000	0.448630
2113.000000	0.445988
2114.000000	0.438292
2115.000000	0.434878
2116.000000	0.425282
2117.000000	0.424235
2118.000000	0.413166
2119.000000	0.406851
2120.000000	0.408481
2121.000000	0.403894
2122.000000	0.406109
2123.000000	0.394472
2124.000000	0.380254
2125.000000	0.382596
2126.000000	0.384042
2127.000000	0.380684
2128.000000	0.371840
2129.000000	0.369640
2130.000000	0.369907
2131.000000	0.370543
2132.000000	0.368329
2133.000000	0.369525
2134.000000	0.356079
2135.000000	0.336364
2136.000000	0.333483
2137.000000	0.338852
2138.000000	0.341296
2139.000000	0.332459
2140.000000	0.318499
2141.000000	0.329122
2142.000000	0.332337
2143.000000	0.320479
2144.000000	0.318444
2145.000000	0.318654
2146.000000	0.316530
2147.000000	0.314198
2148.000000	0.305128
2149.000000	0.311024
2150.000000	0.303225
2151.000000	0.302038
2152.000000	0.317935
2153.000000	0.312402
2154.000000	0.311146
2155.000000	0.305232
2156.000000	0.307281
2157.000000	0.323342
2158.000000	0.323091
2159.000000	0.318549
2160.000000	0.311453
2161.000000	0.330489
2162.000000	0.331238
2163.000000	0.319776
2164.000000	0.314900
2165.000000	0.321917
2166.000000	0.328269
2167.000000	0.335736
2168.000000	0.331865
2169.000000	0.325373
2170.000000	0.330583
2171.000000	0.335015
2172.000000	0.345313
2173.000000	0.339476
2174.000000	0.338897
2175.000000	0.340022
2176.000000	0.340222
2177.000000	0.347110
2178.000000	0.348696
2179.000000	0.349190
2180.000000	0.355106
2181.000000	0.359321
2182.000000	0.357735
2183.000000	0.373705
2184.000000	0.366742
2185.000000	0.363956
2186.000000	0.360059
2187.000000	0.365872
2188.000000	0.362038
2189.000000	0.354002
2190.000000	0.367594
2191.000000	0.369555
2192.000000	0.370609
2193.000000	0.369872
2194.000000	0.367146
2195.000000	0.371649
2196.000000	0.366123
2197.000000	0.362948
2198.000000	0.355058
2199.000000	0.363285
2200.000000	0.379755
2201.000000	0.364997
2202.000000	0.356602
2203.000000	0.357271
2204.000000	0.362344
2205.000000	0.352471
2206.000000	0.359673
2207.000000	0.381443
2208.000000	0.387528
2209.000000	0.361560
2210.000000	0.358621
2211.000000	0.377608
2212.000000	0.381345
2213.000000	0.366451
2214.000000	0.371243
2215.000000	0.370483
2216.000000	0.367668
2217.000000	0.370139
2218.000000	0.377964
2219.000000	0.387325
2220.000000	0.384837
2221.000000	0.376150
2222.000000	0.375544
2223.000000	0.380509
2224.000000	0.390446
2225.000000	0.374347
2226.000000	0.365108
2227.000000	0.364700
2228.000000	0.356617
2229.000000	0.352539
2230.000000	0.373119
2231.000000	0.345643
2232.000000	0.351431
2233.000000	0.337168
2234.000000	0.340932
2235.000000	0.327022
2236.000000	0.338575
2237.000000	0.324906
2238.000000	0.332593
2239.000000	0.313296
2240.000000	0.330801
2241.000000	0.326750
2242.000000	0.303863
2243.000000	0.291156
2244.000000	0.292747
2245.000000	0.297142
2246.000000	0.306347
2247.000000	0.282299
2248.000000	0.295427
2249.000000	0.275757
2250.000000	0.287982
2251.000000	0.297293
2252.000000	0.283380
2253.000000	0.261380
2254.000000	0.272124
2255.000000	0.284074
2256.000000	0.272336
2257.000000	0.254610
2258.000000	0.254967
2259.000000	0.266360
2260.000000	0.258776
2261.000000	0.268796
2262.000000	0.252905
2263.000000	0.257234
2264.000000	0.255927
2265.000000	0.258404
2266.000000	0.246008
2267.000000	0.237020
2268.000000	0.230539
2269.000000	0.245491
2270.000000	0.246377
2271.000000	0.242470
2272.000000	0.238353
2273.000000	0.230415
2274.000000	0.223903
2275.000000	0.222454
2276.000000	0.222989
2277.000000	0.226914
2278.000000	0.226137
2279.000000	0.216041
2280.000000	0.209626
2281.000000	0.202528
2282.000000	0.204761
2283.000000	0.205104
2284.000000	0.210702
2285.000000	0.192600
2286.000000	0.196830
2287.000000	0.201624
2288.000000	0.194810
2289.000000	0.192064
2290.000000	0.193158
2291.000000	0.191058
2292.000000	0.180844
2293.000000	0.175799
2294.000000	0.179784
2295.000000	0.184279
2296.000000	0.187383
2297.000000	0.176352
2298.000000	0.172679
2299.000000	0.168141
2300.000000	0.164192
2301.000000	0.162181
2302.000000	0.164889
2303.000000	0.162384
2304.000000	0.151964
2305.000000	0.147955
2306.000000	0.161492
2307.000000	0.156304
2308.000000	0.149420
2309.000000	0.150680
2310.000000	0.157305
2311.000000	0.154412
2312.000000	0.142355
2313.000000	0.131572
2314.000000	0.147704
2315.000000	0.147964
2316.000000	0.137050
2317.000000	0.141555
2318.000000	0.142585
2319.000000	0.141831
2320.000000	0.138328
2321.000000	0.131633
2322.000000	0.140613
2323.000000	0.151339
2324.000000	0.144050
2325.000000	0.141245
2326.000000	0.146218
2327.000000	0.141291
2328.000000	0.147717
2329.000000	0.137361
2330.000000	0.133760
2331.000000	0.142141
2332.000000	0.140532
2333.000000	0.140880
2334.000000	0.145990
2335.000000	0.153039
2336.000000	0.143156
2337.000000	0.138467
2338.000000	0.141132
2339.000000	0.141105
2340.000000	0.146560
2341.000000	0.151285
2342.000000	0.146793
2343.000000	0.151346
2344.000000	0.139130
2345.000000	0.131123
2346.000000	0.144876
2347.000000	0.144060
2348.000000	0.135571
2349.000000	0.143447
2350.000000	0.157314
2351.000000	0.150682
2352.000000	0.139097
2353.000000	0.147160
2354.000000	0.149251
2355.000000	0.144139
2356.000000	0.146515
2357.000000	0.149759
2358.000000	0.154865
2359.000000	0.156978
2360.000000	0.146527
2361.000000	0.151552
2362.000000	0.165079
2363.000000	0.159519
2364.000000	0.161179
2365.000000	0.174087
2366.000000	0.180552
2367.000000	0.173352
2368.000000	0.172233
2369.000000	0.179302
2370.000000	0.184201
2371.000000	0.180714
2372.000000	0.188711
2373.000000	0.200545
2374.000000	0.200346
2375.000000	0.190806
2376.000000	0.193721
2377.000000	0.205233
2378.000000	0.203023
2379.000000	0.195635
2380.000000	0.205894
2381.000000	0.211013
2382.000000	0.203404
2383.000000	0.210487
2384.000000	0.222172
2385.000000	0.222605
2386.000000	0.230894
2387.000000	0.235221
2388.000000	0.231760
2389.000000	0.230824
2390.000000	0.239075
2391.000000	0.254574
2392.000000	0.265815
2393.000000	0.260392
2394.000000	0.259352
2395.000000	0.261288
2396.000000	0.261901
2397.000000	0.272301
2398.000000	0.282518
2399.000000	0.280635
2400.000000	0.286506
2401.000000	0.289463
2402.000000	0.281724
2403.000000	0.290470
2404.000000	0.300138
2405.000000	0.315564
2406.000000	0.313927
2407.000000	0.309226
2408.000000	0.326322
2409.000000	0.330392
2410.000000	0.320061
2411.000000	0.325767
2412.000000	0.337691
2413.000000	0.335289
2414.000000	0.346045
2415.000000	0.358741
2416.000000	0.369124
2417.000000	0.363315
2418.000000	0.368737
2419.000000	0.356191
2420.000000	0.367773
2421.000000	0.371635
2422.000000	0.379507
2423.000000	0.395376
2424.000000	0.405716
2425.000000	0.409918
2426.000000	0.422505
2427.000000	0.429079
2428.000000	0.425276
2429.000000	0.424206
2430.000000	0.428507
2431.000000	0.421064
2432.000000	0.408922
2433.000000	0.413965
2434.000000	0.423654
2435.000000	0.427092
2436.000000	0.435643
2437.000000	0.420018
2438.000000	0.421762
2439.000000	0.423958
2440.000000	0.424752
2441.000000	0.431826
2442.000000	0.425372
2443.000000	0.418386
2444.000000	0.411812
2445.000000	0.413756
2446.000000	0.404965
2447.000000	0.413331
2448.000000	0.413188
2449.000000	0.403046
2450.000000	0.395274
2451.000000	0.400370
2452.000000	0.393302
2453.000000	0.405735
2454.000000	0.399696
2455.000000	0.407559
2456.000000	0.406462
2457.000000	0.423399
2458.000000	0.408879
2459.000000	0.403088
2460.000000	0.401178
2461.000000	0.404452
2462.000000	0.401176
2463.000000	0.407589
2464.000000	0.406663
2465.000000	0.406400
2466.000000	0.375210
2467.000000	0.412652
2468.000000	0.387331
2469.000000	0.371214
2470.000000	0.407684
2471.000000	0.408391
2472.000000	0.397119
2473.000000	0.381338
2474.000000	0.350292
2475.000000	0.367439
2476.000000	0.385268
2477.000000	0.386165
2478.000000	0.395489
2479.000000	0.383314
2480.000000	0.348918
2481.000000	0.371884
2482.000000	0.348143
2483.000000	0.362443
2484.000000	0.363649
2485.000000	0.375698
2486.000000	0.337291
2487.000000	0.306939
2488.000000	0.345409
2489.000000	0.371358
2490.000000	0.330674
2491.000000	0.362662
2492.000000	0.352816
2493.000000	0.310828
2494.000000	0.372987
2495.000000	0.312905
2496.000000	0.336265
2497.000000	0.356476
2498.000000	0.365379
2499.000000	0.362982
2500.000000	0.404821
