PE UV       SUBTECH     SPECTRUM    ASCII       PEDS        4.00        
   -1
CICIMAUCR0113-6.Sample.ASC
24/04/25
11:40:20.00
24/04/25
11:40:20.00
Vinicio Soto Monge
C. kalinini
250,000000
1
Lambda 1050
1050L1511233
PerkinElmer UV WinLab 6.3.2.0749 / 2.02.05 Lambda 900 UV/VIS/NIR, Aug  7 2015 09:38:08

0
0
3350/servo 860,8/2
0
0
UV/VIS
1
1
1
DoubleDePol,CommonBeamDepol,RBeamAtt,SBeamAtt,60mm sphere, WB InGaAs Detector
0
0
0
0
Program
Program
3350/servo 860,8/2
3350/0,2 860,8/0,2
3350/0,2 860,8/0,2
0
15.00
 
 
 
0
 
860,8
319,2
860,8
Front
100
on
S:100 R:100
0
0
0
0
 
0
 
 
 
0
 
 
0
0
0
0
0
 
 
 
 
0
0


0
0
#HDR
-1
-1
#GR
nm
%R
1.0
0.0
2500,000000
-1,000000
2251
8
101,774400
5,807200
#DATA
250.000000	0.486771
251.000000	0.488341
252.000000	0.456655
253.000000	0.441235
254.000000	0.439457
255.000000	0.442410
256.000000	0.487324
257.000000	0.476408
258.000000	0.456349
259.000000	0.457352
260.000000	0.435001
261.000000	0.447376
262.000000	0.468562
263.000000	0.454658
264.000000	0.440232
265.000000	0.438196
266.000000	0.422498
267.000000	0.422181
268.000000	0.387787
269.000000	0.414268
270.000000	0.418467
271.000000	0.394964
272.000000	0.428745
273.000000	0.422091
274.000000	0.415218
275.000000	0.432687
276.000000	0.412694
277.000000	0.387539
278.000000	0.409712
279.000000	0.390968
280.000000	0.437663
281.000000	0.373498
282.000000	0.390632
283.000000	0.392937
284.000000	0.378292
285.000000	0.341191
286.000000	0.375175
287.000000	0.401466
288.000000	0.391253
289.000000	0.381261
290.000000	0.380222
291.000000	0.393736
292.000000	0.385742
293.000000	0.347770
294.000000	0.364585
295.000000	0.351875
296.000000	0.369262
297.000000	0.375182
298.000000	0.359099
299.000000	0.363105
300.000000	0.372401
301.000000	0.363529
302.000000	0.375370
303.000000	0.397312
304.000000	0.381414
305.000000	0.336417
306.000000	0.395702
307.000000	0.389576
308.000000	0.374794
309.000000	0.387010
310.000000	0.404484
311.000000	0.369500
312.000000	0.348332
313.000000	0.364533
314.000000	0.359886
315.000000	0.353329
316.000000	0.393131
317.000000	0.643822
318.000000	0.898369
319.000000	0.834460
320.000000	0.615233
321.000000	0.495626
322.000000	0.784302
323.000000	0.871387
324.000000	0.708942
325.000000	0.581224
326.000000	0.647637
327.000000	0.563625
328.000000	0.560486
329.000000	0.676966
330.000000	0.534230
331.000000	0.572972
332.000000	0.457469
333.000000	0.509169
334.000000	0.563646
335.000000	0.423606
336.000000	0.390119
337.000000	0.440686
338.000000	0.424738
339.000000	0.427865
340.000000	0.414221
341.000000	0.457853
342.000000	0.510708
343.000000	0.440828
344.000000	0.460824
345.000000	0.417811
346.000000	0.471611
347.000000	0.414121
348.000000	0.415686
349.000000	0.341649
350.000000	0.395932
351.000000	0.443175
352.000000	0.449804
353.000000	0.363163
354.000000	0.404980
355.000000	0.401731
356.000000	0.387850
357.000000	0.415172
358.000000	0.429033
359.000000	0.378609
360.000000	0.319676
361.000000	0.349621
362.000000	0.298457
363.000000	0.309637
364.000000	0.350537
365.000000	0.309972
366.000000	0.286599
367.000000	0.267071
368.000000	0.275327
369.000000	0.302772
370.000000	0.305164
371.000000	0.257474
372.000000	0.267658
373.000000	0.212949
374.000000	0.122040
375.000000	0.218852
376.000000	0.340125
377.000000	0.273966
378.000000	0.269178
379.000000	0.274929
380.000000	0.263857
381.000000	0.257416
382.000000	0.251821
383.000000	0.243795
384.000000	0.241576
385.000000	0.226300
386.000000	0.211892
387.000000	0.197749
388.000000	0.194105
389.000000	0.195370
390.000000	0.194484
391.000000	0.176751
392.000000	0.171752
393.000000	0.167255
394.000000	0.148541
395.000000	0.148454
396.000000	0.148621
397.000000	0.168466
398.000000	0.157587
399.000000	0.168161
400.000000	0.190669
401.000000	0.197063
402.000000	0.204921
403.000000	0.211806
404.000000	0.230116
405.000000	0.242476
406.000000	0.246751
407.000000	0.257997
408.000000	0.264332
409.000000	0.266046
410.000000	0.265584
411.000000	0.272346
412.000000	0.284033
413.000000	0.269383
414.000000	0.254716
415.000000	0.251408
416.000000	0.235940
417.000000	0.219668
418.000000	0.200111
419.000000	0.182168
420.000000	0.172443
421.000000	0.165719
422.000000	0.162994
423.000000	0.178321
424.000000	0.208649
425.000000	0.235272
426.000000	0.264613
427.000000	0.301297
428.000000	0.346502
429.000000	0.396153
430.000000	0.452450
431.000000	0.519616
432.000000	0.581516
433.000000	0.629447
434.000000	0.689492
435.000000	0.753664
436.000000	0.808647
437.000000	0.865853
438.000000	0.924765
439.000000	0.986220
440.000000	1.043313
441.000000	1.084313
442.000000	1.135620
443.000000	1.194820
444.000000	1.241737
445.000000	1.284984
446.000000	1.341627
447.000000	1.409368
448.000000	1.457896
449.000000	1.495105
450.000000	1.534607
451.000000	1.575715
452.000000	1.617096
453.000000	1.645633
454.000000	1.684092
455.000000	1.724458
456.000000	1.757064
457.000000	1.793676
458.000000	1.826069
459.000000	1.868167
460.000000	1.898914
461.000000	1.928706
462.000000	1.961945
463.000000	1.989617
464.000000	2.015377
465.000000	2.051926
466.000000	2.070585
467.000000	2.085496
468.000000	2.106485
469.000000	2.120528
470.000000	2.133787
471.000000	2.135730
472.000000	2.135269
473.000000	2.136693
474.000000	2.118139
475.000000	2.100304
476.000000	2.087146
477.000000	2.070342
478.000000	2.041976
479.000000	2.004563
480.000000	1.942062
481.000000	1.886481
482.000000	1.820993
483.000000	1.751159
484.000000	1.685831
485.000000	1.613446
486.000000	1.541054
487.000000	1.461091
488.000000	1.389467
489.000000	1.318011
490.000000	1.244516
491.000000	1.176620
492.000000	1.075902
493.000000	1.004581
494.000000	0.949653
495.000000	0.895907
496.000000	0.847776
497.000000	0.809266
498.000000	0.785511
499.000000	0.768640
500.000000	0.748631
501.000000	0.733196
502.000000	0.709527
503.000000	0.683746
504.000000	0.664681
505.000000	0.642080
506.000000	0.613283
507.000000	0.582462
508.000000	0.556741
509.000000	0.538910
510.000000	0.506403
511.000000	0.491596
512.000000	0.492360
513.000000	0.489092
514.000000	0.490655
515.000000	0.507318
516.000000	0.535669
517.000000	0.550627
518.000000	0.583674
519.000000	0.620912
520.000000	0.674799
521.000000	0.719740
522.000000	0.751915
523.000000	0.785653
524.000000	0.806541
525.000000	0.832110
526.000000	0.863300
527.000000	0.868006
528.000000	0.904540
529.000000	0.916852
530.000000	0.922765
531.000000	0.954801
532.000000	0.972985
533.000000	0.994679
534.000000	1.046452
535.000000	1.089079
536.000000	1.141647
537.000000	1.209009
538.000000	1.290030
539.000000	1.378622
540.000000	1.477001
541.000000	1.615946
542.000000	1.736410
543.000000	1.868170
544.000000	1.990773
545.000000	2.121418
546.000000	2.270257
547.000000	2.417660
548.000000	2.550789
549.000000	2.718424
550.000000	2.877755
551.000000	3.039614
552.000000	3.160455
553.000000	3.349064
554.000000	3.503947
555.000000	3.660756
556.000000	3.797105
557.000000	3.962925
558.000000	4.087058
559.000000	4.205121
560.000000	4.349193
561.000000	4.460285
562.000000	4.584697
563.000000	4.683890
564.000000	4.790925
565.000000	4.878376
566.000000	4.961869
567.000000	5.042553
568.000000	5.160222
569.000000	5.222435
570.000000	5.321808
571.000000	5.410739
572.000000	5.502387
573.000000	5.564012
574.000000	5.658248
575.000000	5.752483
576.000000	5.838238
577.000000	5.937707
578.000000	6.016716
579.000000	6.144822
580.000000	6.269957
581.000000	6.342263
582.000000	6.488298
583.000000	6.581731
584.000000	6.659334
585.000000	6.751821
586.000000	6.869370
587.000000	6.936873
588.000000	7.019407
589.000000	7.091147
590.000000	7.195345
591.000000	7.258635
592.000000	7.275457
593.000000	7.349678
594.000000	7.380215
595.000000	7.379814
596.000000	7.408318
597.000000	7.422571
598.000000	7.438920
599.000000	7.467853
600.000000	7.512645
601.000000	7.512149
602.000000	7.560525
603.000000	7.586358
604.000000	7.635771
605.000000	7.639277
606.000000	7.662254
607.000000	7.664051
608.000000	7.694235
609.000000	7.770403
610.000000	7.737953
611.000000	7.765897
612.000000	7.815085
613.000000	7.790178
614.000000	7.779897
615.000000	7.736628
616.000000	7.684570
617.000000	7.661252
618.000000	7.570399
619.000000	7.512961
620.000000	7.437165
621.000000	7.322392
622.000000	7.196757
623.000000	7.063257
624.000000	6.927607
625.000000	6.761690
626.000000	6.585870
627.000000	6.412822
628.000000	6.253146
629.000000	6.073045
630.000000	5.912055
631.000000	5.749908
632.000000	5.584477
633.000000	5.405141
634.000000	5.231124
635.000000	5.094653
636.000000	4.949571
637.000000	4.846951
638.000000	4.720664
639.000000	4.640424
640.000000	4.560522
641.000000	4.479929
642.000000	4.414821
643.000000	4.333584
644.000000	4.254882
645.000000	4.189502
646.000000	4.145735
647.000000	4.082911
648.000000	4.037648
649.000000	3.999067
650.000000	3.931215
651.000000	3.838319
652.000000	3.816978
653.000000	3.812335
654.000000	3.773561
655.000000	3.733416
656.000000	3.743448
657.000000	3.729659
658.000000	3.710370
659.000000	3.709630
660.000000	3.731494
661.000000	3.712318
662.000000	3.686448
663.000000	3.753077
664.000000	3.767300
665.000000	3.779065
666.000000	3.777387
667.000000	3.800501
668.000000	3.796881
669.000000	3.818692
670.000000	3.796480
671.000000	3.811422
672.000000	3.820221
673.000000	3.880271
674.000000	3.943512
675.000000	3.932769
676.000000	3.954956
677.000000	4.037370
678.000000	4.068550
679.000000	4.115922
680.000000	4.188548
681.000000	4.246652
682.000000	4.252638
683.000000	4.343010
684.000000	4.405112
685.000000	4.471167
686.000000	4.513119
687.000000	4.548174
688.000000	4.594312
689.000000	4.632977
690.000000	4.695775
691.000000	4.731797
692.000000	4.778521
693.000000	4.805904
694.000000	4.835427
695.000000	4.850718
696.000000	4.845969
697.000000	4.828831
698.000000	4.805043
699.000000	4.827296
700.000000	4.832648
701.000000	4.819867
702.000000	4.821045
703.000000	4.804651
704.000000	4.765685
705.000000	4.721497
706.000000	4.678855
707.000000	4.615535
708.000000	4.547489
709.000000	4.567078
710.000000	4.560140
711.000000	4.486995
712.000000	4.429767
713.000000	4.385724
714.000000	4.328067
715.000000	4.312465
716.000000	4.300092
717.000000	4.310031
718.000000	4.314264
719.000000	4.355551
720.000000	4.425180
721.000000	4.406940
722.000000	4.377518
723.000000	4.430344
724.000000	4.486958
725.000000	4.524755
726.000000	4.603774
727.000000	4.681653
728.000000	4.680592
729.000000	4.700160
730.000000	4.770047
731.000000	4.825964
732.000000	4.889376
733.000000	4.904162
734.000000	4.917656
735.000000	5.028902
736.000000	5.023514
737.000000	5.049152
738.000000	5.141862
739.000000	5.099520
740.000000	5.120073
741.000000	5.210323
742.000000	5.259964
743.000000	5.314132
744.000000	5.334021
745.000000	5.369285
746.000000	5.449250
747.000000	5.530709
748.000000	5.581349
749.000000	5.620158
750.000000	5.631570
751.000000	5.634372
752.000000	5.723670
753.000000	5.788835
754.000000	5.747982
755.000000	5.791997
756.000000	5.853687
757.000000	5.887210
758.000000	5.883162
759.000000	5.875334
760.000000	5.937457
761.000000	6.017365
762.000000	5.995040
763.000000	5.972828
764.000000	6.031072
765.000000	6.082437
766.000000	6.103165
767.000000	6.095768
768.000000	6.051903
769.000000	6.121453
770.000000	6.206285
771.000000	6.105089
772.000000	6.122628
773.000000	6.325234
774.000000	6.380856
775.000000	6.397767
776.000000	6.417204
777.000000	6.413939
778.000000	6.482555
779.000000	6.524695
780.000000	6.528671
781.000000	6.599992
782.000000	6.620960
783.000000	6.743588
784.000000	6.909205
785.000000	6.857892
786.000000	6.874822
787.000000	7.005762
788.000000	7.098342
789.000000	7.116155
790.000000	7.141734
791.000000	7.207764
792.000000	7.197025
793.000000	7.242635
794.000000	7.326843
795.000000	7.417477
796.000000	7.427038
797.000000	7.470707
798.000000	7.616542
799.000000	7.688309
800.000000	7.651135
801.000000	7.622670
802.000000	7.728920
803.000000	7.658762
804.000000	7.697612
805.000000	7.737225
806.000000	7.786331
807.000000	7.834046
808.000000	7.836730
809.000000	7.822973
810.000000	7.828563
811.000000	7.832749
812.000000	7.863800
813.000000	7.887946
814.000000	7.715034
815.000000	7.600183
816.000000	7.672975
817.000000	7.755400
818.000000	7.760139
819.000000	7.811990
820.000000	7.709444
821.000000	7.660092
822.000000	7.661350
823.000000	7.603736
824.000000	7.594722
825.000000	7.579215
826.000000	7.606413
827.000000	7.640023
828.000000	7.536307
829.000000	7.514865
830.000000	7.617460
831.000000	7.607347
832.000000	7.643930
833.000000	7.507918
834.000000	7.514042
835.000000	7.524114
836.000000	7.359456
837.000000	7.314767
838.000000	7.430457
839.000000	7.397844
840.000000	7.539947
841.000000	7.497197
842.000000	7.541902
843.000000	7.747788
844.000000	7.628446
845.000000	7.567336
846.000000	7.762881
847.000000	7.732745
848.000000	7.578565
849.000000	7.575255
850.000000	7.595311
851.000000	7.709513
852.000000	7.795052
853.000000	7.840924
854.000000	7.579278
855.000000	7.801285
856.000000	8.045653
857.000000	8.128564
858.000000	7.991450
859.000000	6.988769
860.000000	6.965159
861.000000	6.908618
862.000000	6.882072
863.000000	6.867362
864.000000	6.828417
865.000000	6.797593
866.000000	6.810468
867.000000	6.985103
868.000000	7.333919
869.000000	7.765659
870.000000	8.140363
871.000000	8.538054
872.000000	8.905805
873.000000	9.219722
874.000000	9.450330
875.000000	9.728657
876.000000	9.953336
877.000000	10.217419
878.000000	10.428243
879.000000	10.650978
880.000000	10.824441
881.000000	11.069750
882.000000	11.222059
883.000000	11.410421
884.000000	11.535325
885.000000	11.681421
886.000000	11.772756
887.000000	11.891416
888.000000	11.957798
889.000000	12.084186
890.000000	12.215395
891.000000	12.272354
892.000000	12.299405
893.000000	12.376320
894.000000	12.456048
895.000000	12.476282
896.000000	12.477886
897.000000	12.481908
898.000000	12.494125
899.000000	12.494675
900.000000	12.496321
901.000000	12.484064
902.000000	12.540423
903.000000	12.522554
904.000000	12.491940
905.000000	12.490868
906.000000	12.454668
907.000000	12.460444
908.000000	12.433061
909.000000	12.400753
910.000000	12.387703
911.000000	12.385498
912.000000	12.366531
913.000000	12.306892
914.000000	12.333378
915.000000	12.304502
916.000000	12.267284
917.000000	12.243949
918.000000	12.188505
919.000000	12.150936
920.000000	12.166701
921.000000	12.095856
922.000000	12.051616
923.000000	11.984124
924.000000	11.956734
925.000000	11.916926
926.000000	11.868124
927.000000	11.794330
928.000000	11.758212
929.000000	11.675544
930.000000	11.625968
931.000000	11.569853
932.000000	11.487209
933.000000	11.435408
934.000000	11.388582
935.000000	11.335126
936.000000	11.264442
937.000000	11.178717
938.000000	11.111280
939.000000	11.049721
940.000000	10.981963
941.000000	10.900201
942.000000	10.816861
943.000000	10.766386
944.000000	10.703083
945.000000	10.624445
946.000000	10.576074
947.000000	10.508062
948.000000	10.429123
949.000000	10.352726
950.000000	10.298125
951.000000	10.216322
952.000000	10.162659
953.000000	10.082169
954.000000	10.023643
955.000000	9.958143
956.000000	9.867094
957.000000	9.793935
958.000000	9.739266
959.000000	9.680590
960.000000	9.596033
961.000000	9.528911
962.000000	9.463456
963.000000	9.402521
964.000000	9.341806
965.000000	9.284315
966.000000	9.209559
967.000000	9.143590
968.000000	9.081795
969.000000	9.031553
970.000000	8.980746
971.000000	8.939153
972.000000	8.878318
973.000000	8.828311
974.000000	8.783713
975.000000	8.748386
976.000000	8.694801
977.000000	8.640389
978.000000	8.596060
979.000000	8.551699
980.000000	8.498201
981.000000	8.461386
982.000000	8.423675
983.000000	8.360700
984.000000	8.333035
985.000000	8.275888
986.000000	8.238456
987.000000	8.198384
988.000000	8.148096
989.000000	8.116913
990.000000	8.072119
991.000000	8.023197
992.000000	7.982450
993.000000	7.946457
994.000000	7.911030
995.000000	7.876359
996.000000	7.822009
997.000000	7.787786
998.000000	7.757744
999.000000	7.729033
1000.000000	7.692710
1001.000000	7.661838
1002.000000	7.629040
1003.000000	7.591454
1004.000000	7.556038
1005.000000	7.527188
1006.000000	7.493800
1007.000000	7.458085
1008.000000	7.431214
1009.000000	7.412459
1010.000000	7.375782
1011.000000	7.336772
1012.000000	7.304712
1013.000000	7.279773
1014.000000	7.263886
1015.000000	7.252593
1016.000000	7.224984
1017.000000	7.216069
1018.000000	7.218215
1019.000000	7.202462
1020.000000	7.193619
1021.000000	7.196119
1022.000000	7.179869
1023.000000	7.177866
1024.000000	7.182028
1025.000000	7.168383
1026.000000	7.166558
1027.000000	7.181002
1028.000000	7.183705
1029.000000	7.165358
1030.000000	7.168487
1031.000000	7.171654
1032.000000	7.158855
1033.000000	7.158043
1034.000000	7.164345
1035.000000	7.141845
1036.000000	7.127601
1037.000000	7.134729
1038.000000	7.126977
1039.000000	7.103653
1040.000000	7.088552
1041.000000	7.084972
1042.000000	7.073376
1043.000000	7.063846
1044.000000	7.059727
1045.000000	7.040730
1046.000000	7.024121
1047.000000	7.012899
1048.000000	7.008245
1049.000000	7.010235
1050.000000	7.001429
1051.000000	7.001173
1052.000000	6.995950
1053.000000	6.997945
1054.000000	6.996461
1055.000000	7.005484
1056.000000	7.007928
1057.000000	7.007572
1058.000000	7.009824
1059.000000	7.025413
1060.000000	7.045115
1061.000000	7.048846
1062.000000	7.055024
1063.000000	7.064654
1064.000000	7.067797
1065.000000	7.082718
1066.000000	7.093844
1067.000000	7.100892
1068.000000	7.112184
1069.000000	7.123880
1070.000000	7.123688
1071.000000	7.132584
1072.000000	7.139536
1073.000000	7.133689
1074.000000	7.145355
1075.000000	7.157586
1076.000000	7.168019
1077.000000	7.182880
1078.000000	7.188963
1079.000000	7.191159
1080.000000	7.178146
1081.000000	7.179446
1082.000000	7.174760
1083.000000	7.194034
1084.000000	7.201571
1085.000000	7.202821
1086.000000	7.205880
1087.000000	7.215406
1088.000000	7.213406
1089.000000	7.236624
1090.000000	7.222902
1091.000000	7.219972
1092.000000	7.238587
1093.000000	7.243462
1094.000000	7.236358
1095.000000	7.241429
1096.000000	7.244523
1097.000000	7.254663
1098.000000	7.252837
1099.000000	7.252690
1100.000000	7.234138
1101.000000	7.246576
1102.000000	7.239265
1103.000000	7.246201
1104.000000	7.256354
1105.000000	7.245732
1106.000000	7.248553
1107.000000	7.241381
1108.000000	7.231596
1109.000000	7.235612
1110.000000	7.231478
1111.000000	7.224358
1112.000000	7.228906
1113.000000	7.228191
1114.000000	7.231700
1115.000000	7.235918
1116.000000	7.223288
1117.000000	7.234468
1118.000000	7.233023
1119.000000	7.227997
1120.000000	7.214570
1121.000000	7.189423
1122.000000	7.189320
1123.000000	7.178323
1124.000000	7.176690
1125.000000	7.132437
1126.000000	7.108637
1127.000000	7.098486
1128.000000	7.053044
1129.000000	7.032273
1130.000000	6.987722
1131.000000	6.933032
1132.000000	6.852661
1133.000000	6.779516
1134.000000	6.687645
1135.000000	6.618273
1136.000000	6.512934
1137.000000	6.401506
1138.000000	6.286315
1139.000000	6.166861
1140.000000	6.049842
1141.000000	5.964544
1142.000000	5.861470
1143.000000	5.768053
1144.000000	5.669019
1145.000000	5.585334
1146.000000	5.516575
1147.000000	5.441151
1148.000000	5.402073
1149.000000	5.381897
1150.000000	5.386660
1151.000000	5.396276
1152.000000	5.379853
1153.000000	5.392600
1154.000000	5.395150
1155.000000	5.383322
1156.000000	5.353329
1157.000000	5.324945
1158.000000	5.254718
1159.000000	5.197608
1160.000000	5.129309
1161.000000	5.052589
1162.000000	4.958483
1163.000000	4.905054
1164.000000	4.826803
1165.000000	4.752312
1166.000000	4.665332
1167.000000	4.604671
1168.000000	4.534831
1169.000000	4.490017
1170.000000	4.439857
1171.000000	4.387238
1172.000000	4.348073
1173.000000	4.301947
1174.000000	4.262895
1175.000000	4.239637
1176.000000	4.197570
1177.000000	4.193282
1178.000000	4.178761
1179.000000	4.177593
1180.000000	4.166036
1181.000000	4.150620
1182.000000	4.171054
1183.000000	4.155413
1184.000000	4.152496
1185.000000	4.141067
1186.000000	4.115355
1187.000000	4.116673
1188.000000	4.087584
1189.000000	4.062130
1190.000000	4.042243
1191.000000	4.031361
1192.000000	4.005058
1193.000000	3.998827
1194.000000	4.024567
1195.000000	4.028413
1196.000000	4.060154
1197.000000	4.093064
1198.000000	4.099523
1199.000000	4.119214
1200.000000	4.140970
1201.000000	4.144973
1202.000000	4.160159
1203.000000	4.174105
1204.000000	4.174162
1205.000000	4.182234
1206.000000	4.170321
1207.000000	4.189114
1208.000000	4.193379
1209.000000	4.187057
1210.000000	4.180506
1211.000000	4.181218
1212.000000	4.183138
1213.000000	4.195274
1214.000000	4.204492
1215.000000	4.214822
1216.000000	4.203615
1217.000000	4.215770
1218.000000	4.209482
1219.000000	4.219492
1220.000000	4.225232
1221.000000	4.249181
1222.000000	4.251657
1223.000000	4.258834
1224.000000	4.263370
1225.000000	4.279991
1226.000000	4.294734
1227.000000	4.306799
1228.000000	4.308707
1229.000000	4.329477
1230.000000	4.352624
1231.000000	4.358038
1232.000000	4.370779
1233.000000	4.407272
1234.000000	4.416084
1235.000000	4.426038
1236.000000	4.440724
1237.000000	4.465404
1238.000000	4.495582
1239.000000	4.505250
1240.000000	4.523249
1241.000000	4.549015
1242.000000	4.569339
1243.000000	4.600129
1244.000000	4.631300
1245.000000	4.655759
1246.000000	4.671045
1247.000000	4.689372
1248.000000	4.731337
1249.000000	4.739741
1250.000000	4.751992
1251.000000	4.777390
1252.000000	4.794942
1253.000000	4.818123
1254.000000	4.842185
1255.000000	4.856140
1256.000000	4.865064
1257.000000	4.883644
1258.000000	4.903207
1259.000000	4.904990
1260.000000	4.909518
1261.000000	4.916513
1262.000000	4.929074
1263.000000	4.926271
1264.000000	4.944300
1265.000000	4.959067
1266.000000	4.969013
1267.000000	4.971731
1268.000000	4.977924
1269.000000	4.991481
1270.000000	5.000413
1271.000000	5.000215
1272.000000	5.011361
1273.000000	5.023416
1274.000000	5.031431
1275.000000	5.028275
1276.000000	5.024828
1277.000000	5.032211
1278.000000	5.038354
1279.000000	5.048334
1280.000000	5.057728
1281.000000	5.066767
1282.000000	5.071773
1283.000000	5.079659
1284.000000	5.101039
1285.000000	5.112937
1286.000000	5.126913
1287.000000	5.137394
1288.000000	5.137034
1289.000000	5.148675
1290.000000	5.153400
1291.000000	5.146412
1292.000000	5.154403
1293.000000	5.155539
1294.000000	5.147165
1295.000000	5.149030
1296.000000	5.159239
1297.000000	5.153174
1298.000000	5.138425
1299.000000	5.134869
1300.000000	5.127216
1301.000000	5.120518
1302.000000	5.110429
1303.000000	5.100622
1304.000000	5.091497
1305.000000	5.087706
1306.000000	5.085078
1307.000000	5.079813
1308.000000	5.069805
1309.000000	5.060346
1310.000000	5.042855
1311.000000	5.034262
1312.000000	5.024076
1313.000000	5.004553
1314.000000	4.988575
1315.000000	4.974920
1316.000000	4.961234
1317.000000	4.950927
1318.000000	4.929907
1319.000000	4.915028
1320.000000	4.898221
1321.000000	4.880709
1322.000000	4.882723
1323.000000	4.869735
1324.000000	4.851160
1325.000000	4.838667
1326.000000	4.820854
1327.000000	4.802608
1328.000000	4.791802
1329.000000	4.774652
1330.000000	4.756825
1331.000000	4.730955
1332.000000	4.712089
1333.000000	4.706770
1334.000000	4.682375
1335.000000	4.656019
1336.000000	4.631713
1337.000000	4.609272
1338.000000	4.577396
1339.000000	4.546876
1340.000000	4.517083
1341.000000	4.469130
1342.000000	4.442328
1343.000000	4.423983
1344.000000	4.379705
1345.000000	4.334653
1346.000000	4.295462
1347.000000	4.252265
1348.000000	4.217487
1349.000000	4.186382
1350.000000	4.141747
1351.000000	4.105612
1352.000000	4.075541
1353.000000	4.018134
1354.000000	3.995660
1355.000000	3.992553
1356.000000	3.949259
1357.000000	3.901740
1358.000000	3.882846
1359.000000	3.893330
1360.000000	3.882595
1361.000000	3.864221
1362.000000	3.857369
1363.000000	3.887149
1364.000000	3.851750
1365.000000	3.855800
1366.000000	3.850900
1367.000000	3.850776
1368.000000	3.848168
1369.000000	3.866884
1370.000000	3.871556
1371.000000	3.867733
1372.000000	3.865158
1373.000000	3.878001
1374.000000	3.880370
1375.000000	3.882919
1376.000000	3.890088
1377.000000	3.880823
1378.000000	3.880026
1379.000000	3.874954
1380.000000	3.872881
1381.000000	3.842045
1382.000000	3.856102
1383.000000	3.849902
1384.000000	3.852624
1385.000000	3.843993
1386.000000	3.829280
1387.000000	3.811408
1388.000000	3.800212
1389.000000	3.796122
1390.000000	3.782305
1391.000000	3.752899
1392.000000	3.744082
1393.000000	3.728649
1394.000000	3.719963
1395.000000	3.709758
1396.000000	3.712699
1397.000000	3.680613
1398.000000	3.653699
1399.000000	3.623695
1400.000000	3.606395
1401.000000	3.619803
1402.000000	3.583808
1403.000000	3.564782
1404.000000	3.566100
1405.000000	3.560713
1406.000000	3.546890
1407.000000	3.529768
1408.000000	3.533732
1409.000000	3.502216
1410.000000	3.498788
1411.000000	3.489142
1412.000000	3.467574
1413.000000	3.437641
1414.000000	3.417539
1415.000000	3.400211
1416.000000	3.377722
1417.000000	3.374173
1418.000000	3.343782
1419.000000	3.321372
1420.000000	3.342001
1421.000000	3.324068
1422.000000	3.298800
1423.000000	3.294011
1424.000000	3.275552
1425.000000	3.279789
1426.000000	3.273217
1427.000000	3.264624
1428.000000	3.267695
1429.000000	3.260726
1430.000000	3.243336
1431.000000	3.249586
1432.000000	3.234071
1433.000000	3.231770
1434.000000	3.217475
1435.000000	3.228877
1436.000000	3.222446
1437.000000	3.212126
1438.000000	3.205120
1439.000000	3.197952
1440.000000	3.182844
1441.000000	3.186038
1442.000000	3.180442
1443.000000	3.198827
1444.000000	3.178169
1445.000000	3.200718
1446.000000	3.195888
1447.000000	3.184238
1448.000000	3.169414
1449.000000	3.179454
1450.000000	3.189062
1451.000000	3.184959
1452.000000	3.190010
1453.000000	3.183510
1454.000000	3.188757
1455.000000	3.186395
1456.000000	3.187550
1457.000000	3.158095
1458.000000	3.183329
1459.000000	3.177021
1460.000000	3.183686
1461.000000	3.189814
1462.000000	3.190503
1463.000000	3.194928
1464.000000	3.192383
1465.000000	3.190816
1466.000000	3.193824
1467.000000	3.197293
1468.000000	3.196298
1469.000000	3.213287
1470.000000	3.204335
1471.000000	3.201225
1472.000000	3.194518
1473.000000	3.198046
1474.000000	3.202329
1475.000000	3.191922
1476.000000	3.198176
1477.000000	3.207831
1478.000000	3.207319
1479.000000	3.202290
1480.000000	3.201798
1481.000000	3.200787
1482.000000	3.204573
1483.000000	3.193140
1484.000000	3.190501
1485.000000	3.196426
1486.000000	3.204702
1487.000000	3.209724
1488.000000	3.203968
1489.000000	3.212207
1490.000000	3.219417
1491.000000	3.210030
1492.000000	3.213613
1493.000000	3.216161
1494.000000	3.201094
1495.000000	3.194795
1496.000000	3.206381
1497.000000	3.206199
1498.000000	3.207781
1499.000000	3.184687
1500.000000	3.190735
1501.000000	3.196159
1502.000000	3.192494
1503.000000	3.191568
1504.000000	3.201120
1505.000000	3.203701
1506.000000	3.192327
1507.000000	3.191340
1508.000000	3.207817
1509.000000	3.217902
1510.000000	3.212293
1511.000000	3.208592
1512.000000	3.209398
1513.000000	3.217434
1514.000000	3.225279
1515.000000	3.237102
1516.000000	3.229131
1517.000000	3.220620
1518.000000	3.227114
1519.000000	3.238162
1520.000000	3.242632
1521.000000	3.248187
1522.000000	3.253891
1523.000000	3.257938
1524.000000	3.268538
1525.000000	3.286403
1526.000000	3.277183
1527.000000	3.276023
1528.000000	3.285830
1529.000000	3.296351
1530.000000	3.303081
1531.000000	3.317868
1532.000000	3.310897
1533.000000	3.301365
1534.000000	3.303440
1535.000000	3.319752
1536.000000	3.333526
1537.000000	3.337494
1538.000000	3.330531
1539.000000	3.330087
1540.000000	3.333661
1541.000000	3.349922
1542.000000	3.354237
1543.000000	3.368951
1544.000000	3.376369
1545.000000	3.379070
1546.000000	3.395235
1547.000000	3.398721
1548.000000	3.403004
1549.000000	3.418518
1550.000000	3.415879
1551.000000	3.428949
1552.000000	3.430745
1553.000000	3.432530
1554.000000	3.446901
1555.000000	3.454188
1556.000000	3.465917
1557.000000	3.472810
1558.000000	3.474782
1559.000000	3.487413
1560.000000	3.489716
1561.000000	3.495298
1562.000000	3.498817
1563.000000	3.491715
1564.000000	3.494020
1565.000000	3.498212
1566.000000	3.501133
1567.000000	3.503746
1568.000000	3.506114
1569.000000	3.516999
1570.000000	3.518346
1571.000000	3.510300
1572.000000	3.514709
1573.000000	3.523704
1574.000000	3.529032
1575.000000	3.533490
1576.000000	3.538673
1577.000000	3.542265
1578.000000	3.549363
1579.000000	3.552177
1580.000000	3.554619
1581.000000	3.557855
1582.000000	3.569061
1583.000000	3.587430
1584.000000	3.592503
1585.000000	3.585277
1586.000000	3.579079
1587.000000	3.588001
1588.000000	3.598132
1589.000000	3.598660
1590.000000	3.605885
1591.000000	3.618089
1592.000000	3.620836
1593.000000	3.614159
1594.000000	3.630311
1595.000000	3.633277
1596.000000	3.638541
1597.000000	3.643934
1598.000000	3.654650
1599.000000	3.651289
1600.000000	3.638719
1601.000000	3.651114
1602.000000	3.659229
1603.000000	3.660312
1604.000000	3.670976
1605.000000	3.683110
1606.000000	3.688573
1607.000000	3.684456
1608.000000	3.688996
1609.000000	3.690690
1610.000000	3.695112
1611.000000	3.697230
1612.000000	3.688557
1613.000000	3.689264
1614.000000	3.689507
1615.000000	3.694625
1616.000000	3.690392
1617.000000	3.691968
1618.000000	3.706273
1619.000000	3.704741
1620.000000	3.697900
1621.000000	3.712836
1622.000000	3.713216
1623.000000	3.709298
1624.000000	3.706449
1625.000000	3.725967
1626.000000	3.715945
1627.000000	3.708344
1628.000000	3.723979
1629.000000	3.719017
1630.000000	3.716964
1631.000000	3.729007
1632.000000	3.728754
1633.000000	3.716503
1634.000000	3.728616
1635.000000	3.727595
1636.000000	3.732007
1637.000000	3.729445
1638.000000	3.715628
1639.000000	3.735432
1640.000000	3.737663
1641.000000	3.746789
1642.000000	3.730045
1643.000000	3.746356
1644.000000	3.736950
1645.000000	3.738033
1646.000000	3.730713
1647.000000	3.736237
1648.000000	3.738468
1649.000000	3.733250
1650.000000	3.732503
1651.000000	3.735754
1652.000000	3.717532
1653.000000	3.722051
1654.000000	3.721465
1655.000000	3.711013
1656.000000	3.714947
1657.000000	3.705688
1658.000000	3.707369
1659.000000	3.692415
1660.000000	3.670924
1661.000000	3.684881
1662.000000	3.663877
1663.000000	3.660802
1664.000000	3.651236
1665.000000	3.656633
1666.000000	3.637946
1667.000000	3.634999
1668.000000	3.640327
1669.000000	3.607502
1670.000000	3.602424
1671.000000	3.582692
1672.000000	3.573607
1673.000000	3.574233
1674.000000	3.559554
1675.000000	3.549452
1676.000000	3.516530
1677.000000	3.491105
1678.000000	3.466783
1679.000000	3.418890
1680.000000	3.398484
1681.000000	3.358098
1682.000000	3.331962
1683.000000	3.314317
1684.000000	3.301351
1685.000000	3.313664
1686.000000	3.310796
1687.000000	3.305602
1688.000000	3.296051
1689.000000	3.295703
1690.000000	3.275542
1691.000000	3.229564
1692.000000	3.234670
1693.000000	3.218274
1694.000000	3.224592
1695.000000	3.215757
1696.000000	3.221111
1697.000000	3.253591
1698.000000	3.268469
1699.000000	3.289338
1700.000000	3.319225
1701.000000	3.334293
1702.000000	3.333090
1703.000000	3.335246
1704.000000	3.365366
1705.000000	3.362654
1706.000000	3.368247
1707.000000	3.340762
1708.000000	3.373315
1709.000000	3.356522
1710.000000	3.336298
1711.000000	3.347694
1712.000000	3.328359
1713.000000	3.316236
1714.000000	3.304935
1715.000000	3.285781
1716.000000	3.270561
1717.000000	3.263940
1718.000000	3.256036
1719.000000	3.238962
1720.000000	3.219214
1721.000000	3.222461
1722.000000	3.209090
1723.000000	3.178214
1724.000000	3.178815
1725.000000	3.182653
1726.000000	3.173805
1727.000000	3.144266
1728.000000	3.130086
1729.000000	3.115630
1730.000000	3.131061
1731.000000	3.105657
1732.000000	3.095574
1733.000000	3.105730
1734.000000	3.105613
1735.000000	3.118902
1736.000000	3.143858
1737.000000	3.146219
1738.000000	3.173583
1739.000000	3.205373
1740.000000	3.220750
1741.000000	3.259303
1742.000000	3.254163
1743.000000	3.277242
1744.000000	3.271042
1745.000000	3.289185
1746.000000	3.296202
1747.000000	3.309034
1748.000000	3.304677
1749.000000	3.305955
1750.000000	3.312068
1751.000000	3.304197
1752.000000	3.290973
1753.000000	3.289367
1754.000000	3.294302
1755.000000	3.282443
1756.000000	3.276855
1757.000000	3.273778
1758.000000	3.257106
1759.000000	3.261160
1760.000000	3.260834
1761.000000	3.271950
1762.000000	3.262371
1763.000000	3.268040
1764.000000	3.280476
1765.000000	3.283992
1766.000000	3.292198
1767.000000	3.299089
1768.000000	3.306656
1769.000000	3.315510
1770.000000	3.337985
1771.000000	3.339097
1772.000000	3.339661
1773.000000	3.340960
1774.000000	3.352322
1775.000000	3.378557
1776.000000	3.380461
1777.000000	3.377765
1778.000000	3.376985
1779.000000	3.376109
1780.000000	3.386023
1781.000000	3.371670
1782.000000	3.375416
1783.000000	3.377692
1784.000000	3.377879
1785.000000	3.378050
1786.000000	3.370240
1787.000000	3.362720
1788.000000	3.369369
1789.000000	3.358907
1790.000000	3.364735
1791.000000	3.371600
1792.000000	3.364116
1793.000000	3.367330
1794.000000	3.366379
1795.000000	3.371869
1796.000000	3.376877
1797.000000	3.374130
1798.000000	3.360370
1799.000000	3.361675
1800.000000	3.381492
1801.000000	3.382747
1802.000000	3.387903
1803.000000	3.383902
1804.000000	3.390344
1805.000000	3.396685
1806.000000	3.386295
1807.000000	3.386406
1808.000000	3.391454
1809.000000	3.388453
1810.000000	3.380540
1811.000000	3.383754
1812.000000	3.393454
1813.000000	3.390065
1814.000000	3.374623
1815.000000	3.379593
1816.000000	3.388963
1817.000000	3.393309
1818.000000	3.386142
1819.000000	3.376752
1820.000000	3.379402
1821.000000	3.396477
1822.000000	3.407424
1823.000000	3.398656
1824.000000	3.383057
1825.000000	3.373381
1826.000000	3.368741
1827.000000	3.367767
1828.000000	3.365473
1829.000000	3.371213
1830.000000	3.375571
1831.000000	3.378511
1832.000000	3.373868
1833.000000	3.351607
1834.000000	3.333944
1835.000000	3.325561
1836.000000	3.320873
1837.000000	3.313915
1838.000000	3.314694
1839.000000	3.322138
1840.000000	3.317889
1841.000000	3.323584
1842.000000	3.340046
1843.000000	3.336903
1844.000000	3.310695
1845.000000	3.281629
1846.000000	3.262630
1847.000000	3.263239
1848.000000	3.277732
1849.000000	3.304499
1850.000000	3.288292
1851.000000	3.253037
1852.000000	3.223060
1853.000000	3.204910
1854.000000	3.196056
1855.000000	3.194343
1856.000000	3.177589
1857.000000	3.149768
1858.000000	3.133492
1859.000000	3.126976
1860.000000	3.124338
1861.000000	3.116367
1862.000000	3.100022
1863.000000	3.080823
1864.000000	3.040019
1865.000000	2.997247
1866.000000	2.964981
1867.000000	2.949146
1868.000000	2.942632
1869.000000	2.932171
1870.000000	2.912196
1871.000000	2.904485
1872.000000	2.906833
1873.000000	2.897955
1874.000000	2.881585
1875.000000	2.863387
1876.000000	2.846504
1877.000000	2.821223
1878.000000	2.807102
1879.000000	2.779435
1880.000000	2.747006
1881.000000	2.709639
1882.000000	2.678151
1883.000000	2.629538
1884.000000	2.587492
1885.000000	2.580851
1886.000000	2.557165
1887.000000	2.513668
1888.000000	2.473751
1889.000000	2.432328
1890.000000	2.395318
1891.000000	2.368197
1892.000000	2.341009
1893.000000	2.299676
1894.000000	2.251257
1895.000000	2.224291
1896.000000	2.175768
1897.000000	2.142823
1898.000000	2.091297
1899.000000	2.067406
1900.000000	2.023776
1901.000000	2.002798
1902.000000	1.971173
1903.000000	1.932398
1904.000000	1.901048
1905.000000	1.870175
1906.000000	1.829278
1907.000000	1.812475
1908.000000	1.778572
1909.000000	1.753578
1910.000000	1.727393
1911.000000	1.683292
1912.000000	1.669619
1913.000000	1.640372
1914.000000	1.606259
1915.000000	1.593972
1916.000000	1.573860
1917.000000	1.545463
1918.000000	1.553047
1919.000000	1.509624
1920.000000	1.477221
1921.000000	1.468636
1922.000000	1.460994
1923.000000	1.435216
1924.000000	1.423716
1925.000000	1.410971
1926.000000	1.389825
1927.000000	1.374990
1928.000000	1.372424
1929.000000	1.363020
1930.000000	1.351342
1931.000000	1.368249
1932.000000	1.357441
1933.000000	1.355361
1934.000000	1.341219
1935.000000	1.340534
1936.000000	1.331317
1937.000000	1.334426
1938.000000	1.321073
1939.000000	1.335205
1940.000000	1.352599
1941.000000	1.340939
1942.000000	1.345638
1943.000000	1.348562
1944.000000	1.350639
1945.000000	1.360821
1946.000000	1.368461
1947.000000	1.355591
1948.000000	1.375489
1949.000000	1.382879
1950.000000	1.395464
1951.000000	1.413313
1952.000000	1.421258
1953.000000	1.424416
1954.000000	1.434343
1955.000000	1.425995
1956.000000	1.437909
1957.000000	1.455254
1958.000000	1.452436
1959.000000	1.446882
1960.000000	1.476932
1961.000000	1.474779
1962.000000	1.488678
1963.000000	1.498823
1964.000000	1.502996
1965.000000	1.502731
1966.000000	1.522605
1967.000000	1.521130
1968.000000	1.540499
1969.000000	1.555719
1970.000000	1.554663
1971.000000	1.562506
1972.000000	1.568117
1973.000000	1.578435
1974.000000	1.576682
1975.000000	1.597148
1976.000000	1.592083
1977.000000	1.603593
1978.000000	1.619025
1979.000000	1.621602
1980.000000	1.630929
1981.000000	1.646928
1982.000000	1.653028
1983.000000	1.668755
1984.000000	1.656408
1985.000000	1.666022
1986.000000	1.680346
1987.000000	1.677603
1988.000000	1.692078
1989.000000	1.699744
1990.000000	1.685937
1991.000000	1.706340
1992.000000	1.700261
1993.000000	1.713122
1994.000000	1.717745
1995.000000	1.733555
1996.000000	1.735982
1997.000000	1.757769
1998.000000	1.773191
1999.000000	1.745896
2000.000000	1.757990
2001.000000	1.750115
2002.000000	1.761315
2003.000000	1.763066
2004.000000	1.765630
2005.000000	1.759540
2006.000000	1.751257
2007.000000	1.767811
2008.000000	1.765496
2009.000000	1.768330
2010.000000	1.762160
2011.000000	1.755837
2012.000000	1.766064
2013.000000	1.757901
2014.000000	1.762661
2015.000000	1.758580
2016.000000	1.745019
2017.000000	1.727427
2018.000000	1.730867
2019.000000	1.732054
2020.000000	1.731132
2021.000000	1.721643
2022.000000	1.701386
2023.000000	1.706810
2024.000000	1.699948
2025.000000	1.709360
2026.000000	1.693705
2027.000000	1.674383
2028.000000	1.673428
2029.000000	1.668384
2030.000000	1.659336
2031.000000	1.649064
2032.000000	1.636012
2033.000000	1.628699
2034.000000	1.623511
2035.000000	1.600051
2036.000000	1.582808
2037.000000	1.575378
2038.000000	1.562959
2039.000000	1.544445
2040.000000	1.531258
2041.000000	1.514805
2042.000000	1.503583
2043.000000	1.479605
2044.000000	1.471871
2045.000000	1.447054
2046.000000	1.428621
2047.000000	1.420521
2048.000000	1.416480
2049.000000	1.389690
2050.000000	1.386122
2051.000000	1.379564
2052.000000	1.368383
2053.000000	1.363022
2054.000000	1.364229
2055.000000	1.353840
2056.000000	1.353735
2057.000000	1.372809
2058.000000	1.381484
2059.000000	1.373848
2060.000000	1.356961
2061.000000	1.369753
2062.000000	1.382431
2063.000000	1.387434
2064.000000	1.396346
2065.000000	1.403202
2066.000000	1.409423
2067.000000	1.417171
2068.000000	1.432878
2069.000000	1.436345
2070.000000	1.429503
2071.000000	1.442911
2072.000000	1.441396
2073.000000	1.445971
2074.000000	1.466171
2075.000000	1.465673
2076.000000	1.481215
2077.000000	1.490840
2078.000000	1.481628
2079.000000	1.473933
2080.000000	1.490895
2081.000000	1.507899
2082.000000	1.506689
2083.000000	1.512090
2084.000000	1.521850
2085.000000	1.517008
2086.000000	1.518102
2087.000000	1.530971
2088.000000	1.542932
2089.000000	1.532149
2090.000000	1.531253
2091.000000	1.549811
2092.000000	1.545059
2093.000000	1.540463
2094.000000	1.552819
2095.000000	1.557662
2096.000000	1.566557
2097.000000	1.571864
2098.000000	1.569881
2099.000000	1.573088
2100.000000	1.583236
2101.000000	1.596820
2102.000000	1.590029
2103.000000	1.590088
2104.000000	1.599023
2105.000000	1.595601
2106.000000	1.591615
2107.000000	1.595270
2108.000000	1.601196
2109.000000	1.598067
2110.000000	1.609496
2111.000000	1.618208
2112.000000	1.613467
2113.000000	1.617857
2114.000000	1.614228
2115.000000	1.611554
2116.000000	1.615665
2117.000000	1.619891
2118.000000	1.616782
2119.000000	1.609768
2120.000000	1.618690
2121.000000	1.627806
2122.000000	1.613669
2123.000000	1.612998
2124.000000	1.612286
2125.000000	1.610370
2126.000000	1.595317
2127.000000	1.587448
2128.000000	1.596816
2129.000000	1.589832
2130.000000	1.585119
2131.000000	1.584672
2132.000000	1.576287
2133.000000	1.570160
2134.000000	1.560980
2135.000000	1.553323
2136.000000	1.551704
2137.000000	1.537366
2138.000000	1.535791
2139.000000	1.524314
2140.000000	1.518707
2141.000000	1.524573
2142.000000	1.516912
2143.000000	1.500546
2144.000000	1.498483
2145.000000	1.481286
2146.000000	1.476988
2147.000000	1.455913
2148.000000	1.442929
2149.000000	1.447130
2150.000000	1.431518
2151.000000	1.427005
2152.000000	1.421098
2153.000000	1.423506
2154.000000	1.406570
2155.000000	1.400474
2156.000000	1.392025
2157.000000	1.384059
2158.000000	1.373845
2159.000000	1.380163
2160.000000	1.370745
2161.000000	1.370050
2162.000000	1.364831
2163.000000	1.354566
2164.000000	1.351240
2165.000000	1.338009
2166.000000	1.348635
2167.000000	1.345254
2168.000000	1.340936
2169.000000	1.337681
2170.000000	1.339962
2171.000000	1.336245
2172.000000	1.333163
2173.000000	1.337898
2174.000000	1.344134
2175.000000	1.329746
2176.000000	1.324324
2177.000000	1.318834
2178.000000	1.337443
2179.000000	1.352822
2180.000000	1.331458
2181.000000	1.334070
2182.000000	1.332860
2183.000000	1.330877
2184.000000	1.339894
2185.000000	1.335437
2186.000000	1.345734
2187.000000	1.348317
2188.000000	1.357952
2189.000000	1.350167
2190.000000	1.338616
2191.000000	1.355425
2192.000000	1.344644
2193.000000	1.345426
2194.000000	1.352065
2195.000000	1.366972
2196.000000	1.347771
2197.000000	1.349661
2198.000000	1.350005
2199.000000	1.353892
2200.000000	1.348318
2201.000000	1.333189
2202.000000	1.355308
2203.000000	1.370767
2204.000000	1.348163
2205.000000	1.365290
2206.000000	1.368464
2207.000000	1.389539
2208.000000	1.397060
2209.000000	1.390454
2210.000000	1.379475
2211.000000	1.393850
2212.000000	1.394064
2213.000000	1.422234
2214.000000	1.408812
2215.000000	1.412720
2216.000000	1.419552
2217.000000	1.417695
2218.000000	1.418117
2219.000000	1.434017
2220.000000	1.435488
2221.000000	1.435746
2222.000000	1.470871
2223.000000	1.466998
2224.000000	1.464376
2225.000000	1.449509
2226.000000	1.469841
2227.000000	1.470794
2228.000000	1.460618
2229.000000	1.464990
2230.000000	1.444081
2231.000000	1.459568
2232.000000	1.445762
2233.000000	1.439617
2234.000000	1.434704
2235.000000	1.449571
2236.000000	1.434554
2237.000000	1.425916
2238.000000	1.412492
2239.000000	1.409265
2240.000000	1.393886
2241.000000	1.379009
2242.000000	1.359220
2243.000000	1.345533
2244.000000	1.345613
2245.000000	1.316349
2246.000000	1.293532
2247.000000	1.294550
2248.000000	1.262783
2249.000000	1.245832
2250.000000	1.193653
2251.000000	1.167466
2252.000000	1.142237
2253.000000	1.087018
2254.000000	1.041710
2255.000000	1.051919
2256.000000	1.009543
2257.000000	0.995875
2258.000000	0.939102
2259.000000	0.912408
2260.000000	0.867225
2261.000000	0.843830
2262.000000	0.810188
2263.000000	0.793141
2264.000000	0.783390
2265.000000	0.769077
2266.000000	0.749516
2267.000000	0.739938
2268.000000	0.730468
2269.000000	0.733762
2270.000000	0.727716
2271.000000	0.731918
2272.000000	0.727276
2273.000000	0.726286
2274.000000	0.737227
2275.000000	0.735741
2276.000000	0.724767
2277.000000	0.745042
2278.000000	0.752414
2279.000000	0.757938
2280.000000	0.758681
2281.000000	0.770816
2282.000000	0.754980
2283.000000	0.765324
2284.000000	0.794796
2285.000000	0.792129
2286.000000	0.790643
2287.000000	0.780919
2288.000000	0.788372
2289.000000	0.799062
2290.000000	0.799688
2291.000000	0.793305
2292.000000	0.795889
2293.000000	0.771935
2294.000000	0.752764
2295.000000	0.759347
2296.000000	0.741583
2297.000000	0.718146
2298.000000	0.703995
2299.000000	0.699527
2300.000000	0.701067
2301.000000	0.681308
2302.000000	0.683582
2303.000000	0.663532
2304.000000	0.654397
2305.000000	0.660343
2306.000000	0.645003
2307.000000	0.661757
2308.000000	0.680239
2309.000000	0.684753
2310.000000	0.675779
2311.000000	0.681396
2312.000000	0.702585
2313.000000	0.720459
2314.000000	0.745984
2315.000000	0.757047
2316.000000	0.777861
2317.000000	0.787441
2318.000000	0.784875
2319.000000	0.805906
2320.000000	0.831188
2321.000000	0.847234
2322.000000	0.863299
2323.000000	0.876437
2324.000000	0.868266
2325.000000	0.887438
2326.000000	0.921187
2327.000000	0.913575
2328.000000	0.919816
2329.000000	0.922295
2330.000000	0.932441
2331.000000	0.937537
2332.000000	0.940279
2333.000000	0.946537
2334.000000	0.964357
2335.000000	0.952742
2336.000000	0.958826
2337.000000	0.972508
2338.000000	0.978088
2339.000000	0.966648
2340.000000	0.958404
2341.000000	0.950887
2342.000000	0.953231
2343.000000	0.961495
2344.000000	0.951746
2345.000000	0.940760
2346.000000	0.944712
2347.000000	0.938051
2348.000000	0.939694
2349.000000	0.938799
2350.000000	0.934175
2351.000000	0.932169
2352.000000	0.930803
2353.000000	0.932087
2354.000000	0.936769
2355.000000	0.946062
2356.000000	0.961481
2357.000000	0.975714
2358.000000	0.981391
2359.000000	0.998674
2360.000000	1.010841
2361.000000	1.009492
2362.000000	1.017077
2363.000000	1.027638
2364.000000	1.039108
2365.000000	1.048889
2366.000000	1.064285
2367.000000	1.082700
2368.000000	1.086676
2369.000000	1.084276
2370.000000	1.088537
2371.000000	1.105504
2372.000000	1.111486
2373.000000	1.119601
2374.000000	1.128245
2375.000000	1.136257
2376.000000	1.142626
2377.000000	1.147368
2378.000000	1.157406
2379.000000	1.147902
2380.000000	1.161492
2381.000000	1.186104
2382.000000	1.186320
2383.000000	1.187044
2384.000000	1.183387
2385.000000	1.192400
2386.000000	1.199502
2387.000000	1.189750
2388.000000	1.203508
2389.000000	1.216382
2390.000000	1.215011
2391.000000	1.212688
2392.000000	1.211864
2393.000000	1.232424
2394.000000	1.250116
2395.000000	1.242081
2396.000000	1.242936
2397.000000	1.236049
2398.000000	1.247065
2399.000000	1.263437
2400.000000	1.269221
2401.000000	1.277142
2402.000000	1.287398
2403.000000	1.287321
2404.000000	1.287155
2405.000000	1.286510
2406.000000	1.282027
2407.000000	1.294594
2408.000000	1.317712
2409.000000	1.333287
2410.000000	1.344729
2411.000000	1.362600
2412.000000	1.373257
2413.000000	1.369108
2414.000000	1.367247
2415.000000	1.366955
2416.000000	1.384689
2417.000000	1.375359
2418.000000	1.366761
2419.000000	1.373494
2420.000000	1.364665
2421.000000	1.378951
2422.000000	1.388303
2423.000000	1.409744
2424.000000	1.448339
2425.000000	1.444814
2426.000000	1.442028
2427.000000	1.434543
2428.000000	1.419801
2429.000000	1.404850
2430.000000	1.398114
2431.000000	1.403640
2432.000000	1.391088
2433.000000	1.380470
2434.000000	1.360422
2435.000000	1.342298
2436.000000	1.324255
2437.000000	1.311015
2438.000000	1.314533
2439.000000	1.300875
2440.000000	1.272724
2441.000000	1.256835
2442.000000	1.250314
2443.000000	1.238032
2444.000000	1.244804
2445.000000	1.227879
2446.000000	1.205418
2447.000000	1.183844
2448.000000	1.173549
2449.000000	1.162387
2450.000000	1.154354
2451.000000	1.134420
2452.000000	1.127344
2453.000000	1.121200
2454.000000	1.097329
2455.000000	1.092007
2456.000000	1.047662
2457.000000	1.058200
2458.000000	1.042650
2459.000000	1.024513
2460.000000	1.009668
2461.000000	0.972519
2462.000000	0.982394
2463.000000	0.996956
2464.000000	1.004006
2465.000000	0.988667
2466.000000	0.961930
2467.000000	0.952081
2468.000000	0.940012
2469.000000	0.977285
2470.000000	0.889270
2471.000000	0.882587
2472.000000	0.918626
2473.000000	0.943860
2474.000000	0.910032
2475.000000	0.901811
2476.000000	0.879704
2477.000000	0.949559
2478.000000	0.917145
2479.000000	0.890102
2480.000000	0.890942
2481.000000	0.936290
2482.000000	0.887137
2483.000000	0.899988
2484.000000	0.899037
2485.000000	0.921059
2486.000000	0.850691
2487.000000	0.874960
2488.000000	0.902393
2489.000000	0.890179
2490.000000	0.936482
2491.000000	0.871191
2492.000000	0.838681
2493.000000	0.881380
2494.000000	0.899604
2495.000000	0.843815
2496.000000	0.819182
2497.000000	0.805590
2498.000000	0.864243
2499.000000	0.912717
2500.000000	0.944642
