PE UV       SUBTECH     SPECTRUM    ASCII       PEDS        4.00        
   -1
CICIMAUCR0070-3.Sample.ASC
24/04/18
13:44:03.00
24/04/18
13:44:03.00
Vinicio Soto Monge
C. resplendens
250,000000
1
Lambda 1050
1050L1511233
PerkinElmer UV WinLab 6.3.2.0749 / 2.02.05 Lambda 900 UV/VIS/NIR, Aug  7 2015 09:38:08

0
0
3350/servo 860,8/2
0
0
UV/VIS
1
1
1
DoubleDePol,CommonBeamDepol,RBeamAtt,SBeamAtt,60mm sphere, WB InGaAs Detector
0
0
0
0
Program
Program
3350/servo 860,8/2
3350/0,2 860,8/0,2
3350/0,2 860,8/0,2
0
15.00
 
 
 
0
 
860,8
319,2
860,8
Front
100
on
S:100 R:100
0
0
0
0
 
0
 
 
 
0
 
 
0
0
0
0
0
 
 
 
 
0
0


0
0
#HDR
-1
-1
#GR
nm
%R
1.0
0.0
2500,000000
-1,000000
2251
8
85,171500
5,254500
#DATA
250.000000	0.124344
251.000000	0.080053
252.000000	0.090734
253.000000	0.118053
254.000000	0.134651
255.000000	0.092292
256.000000	0.068961
257.000000	0.107982
258.000000	0.118942
259.000000	0.065103
260.000000	0.076353
261.000000	0.118778
262.000000	0.091024
263.000000	0.105998
264.000000	0.110828
265.000000	0.064784
266.000000	0.130699
267.000000	0.092312
268.000000	0.094725
269.000000	0.103797
270.000000	0.105367
271.000000	0.078045
272.000000	0.096267
273.000000	0.113600
274.000000	0.128917
275.000000	0.127363
276.000000	0.117280
277.000000	0.093622
278.000000	0.113340
279.000000	0.095247
280.000000	0.100348
281.000000	0.082263
282.000000	0.109615
283.000000	0.133210
284.000000	0.116457
285.000000	0.121398
286.000000	0.111721
287.000000	0.116646
288.000000	0.113609
289.000000	0.086657
290.000000	0.049869
291.000000	0.093767
292.000000	0.065433
293.000000	0.095495
294.000000	0.094775
295.000000	0.056705
296.000000	0.066575
297.000000	0.074377
298.000000	0.101649
299.000000	0.103418
300.000000	0.091061
301.000000	0.077960
302.000000	0.063553
303.000000	0.073755
304.000000	0.112274
305.000000	0.096354
306.000000	0.078814
307.000000	0.075358
308.000000	0.089355
309.000000	0.094979
310.000000	0.110429
311.000000	0.127090
312.000000	0.123875
313.000000	0.057915
314.000000	0.089893
315.000000	0.067646
316.000000	0.104672
317.000000	0.395106
318.000000	0.342421
319.000000	0.036168
320.000000	0.135786
321.000000	0.151760
322.000000	0.181375
323.000000	0.131499
324.000000	0.149534
325.000000	0.056050
326.000000	0.085654
327.000000	0.075695
328.000000	0.116911
329.000000	0.159416
330.000000	0.107353
331.000000	0.111169
332.000000	0.087661
333.000000	0.121218
334.000000	0.141545
335.000000	0.123571
336.000000	0.051570
337.000000	0.157855
338.000000	0.078457
339.000000	0.102978
340.000000	0.108709
341.000000	0.002674
342.000000	0.071527
343.000000	0.089097
344.000000	0.157822
345.000000	0.044760
346.000000	0.105483
347.000000	0.128136
348.000000	0.164595
349.000000	0.087383
350.000000	0.076034
351.000000	0.102169
352.000000	0.088004
353.000000	0.070297
354.000000	0.102260
355.000000	0.093900
356.000000	0.081357
357.000000	0.094217
358.000000	0.125376
359.000000	0.173820
360.000000	0.108411
361.000000	0.064892
362.000000	0.104218
363.000000	0.052999
364.000000	0.056920
365.000000	0.081063
366.000000	0.091866
367.000000	0.115626
368.000000	0.118751
369.000000	0.135211
370.000000	0.169699
371.000000	0.114321
372.000000	0.096138
373.000000	0.062536
374.000000	0.101718
375.000000	0.121072
376.000000	0.047371
377.000000	0.071346
378.000000	0.076690
379.000000	0.073544
380.000000	0.073339
381.000000	0.084924
382.000000	0.072128
383.000000	0.076772
384.000000	0.077656
385.000000	0.069521
386.000000	0.067707
387.000000	0.072337
388.000000	0.075404
389.000000	0.073473
390.000000	0.075374
391.000000	0.081873
392.000000	0.085716
393.000000	0.092281
394.000000	0.085113
395.000000	0.084737
396.000000	0.086925
397.000000	0.093483
398.000000	0.094099
399.000000	0.098638
400.000000	0.100645
401.000000	0.101244
402.000000	0.101117
403.000000	0.104807
404.000000	0.108726
405.000000	0.119471
406.000000	0.127778
407.000000	0.131989
408.000000	0.133994
409.000000	0.136173
410.000000	0.145122
411.000000	0.152043
412.000000	0.153993
413.000000	0.160856
414.000000	0.171752
415.000000	0.170675
416.000000	0.173707
417.000000	0.183675
418.000000	0.193686
419.000000	0.198603
420.000000	0.205336
421.000000	0.221162
422.000000	0.238957
423.000000	0.247037
424.000000	0.249728
425.000000	0.261188
426.000000	0.278247
427.000000	0.283407
428.000000	0.286961
429.000000	0.296449
430.000000	0.302517
431.000000	0.311894
432.000000	0.319590
433.000000	0.321810
434.000000	0.329902
435.000000	0.339665
436.000000	0.343402
437.000000	0.348833
438.000000	0.358628
439.000000	0.361735
440.000000	0.361874
441.000000	0.373810
442.000000	0.376589
443.000000	0.364604
444.000000	0.368393
445.000000	0.375531
446.000000	0.370365
447.000000	0.367806
448.000000	0.365640
449.000000	0.367121
450.000000	0.354025
451.000000	0.344615
452.000000	0.340457
453.000000	0.330008
454.000000	0.322774
455.000000	0.318553
456.000000	0.308601
457.000000	0.306380
458.000000	0.302471
459.000000	0.292236
460.000000	0.288728
461.000000	0.295739
462.000000	0.291968
463.000000	0.284671
464.000000	0.272950
465.000000	0.267282
466.000000	0.270095
467.000000	0.261202
468.000000	0.258489
469.000000	0.260193
470.000000	0.262353
471.000000	0.256777
472.000000	0.250104
473.000000	0.251947
474.000000	0.253484
475.000000	0.257614
476.000000	0.257278
477.000000	0.261774
478.000000	0.263366
479.000000	0.270184
480.000000	0.280329
481.000000	0.288574
482.000000	0.308414
483.000000	0.324821
484.000000	0.333883
485.000000	0.340150
486.000000	0.361420
487.000000	0.370864
488.000000	0.383130
489.000000	0.395210
490.000000	0.405059
491.000000	0.410529
492.000000	0.420981
493.000000	0.437940
494.000000	0.453446
495.000000	0.467126
496.000000	0.490582
497.000000	0.508810
498.000000	0.526404
499.000000	0.548779
500.000000	0.564712
501.000000	0.585550
502.000000	0.617843
503.000000	0.656136
504.000000	0.691743
505.000000	0.739303
506.000000	0.783102
507.000000	0.845123
508.000000	0.896182
509.000000	0.947041
510.000000	0.996682
511.000000	1.050514
512.000000	1.109321
513.000000	1.159401
514.000000	1.222922
515.000000	1.289512
516.000000	1.350382
517.000000	1.415495
518.000000	1.475685
519.000000	1.528976
520.000000	1.573576
521.000000	1.627129
522.000000	1.686100
523.000000	1.743576
524.000000	1.798175
525.000000	1.841105
526.000000	1.883404
527.000000	1.922528
528.000000	1.943846
529.000000	1.961850
530.000000	1.965833
531.000000	1.967696
532.000000	1.970581
533.000000	1.952652
534.000000	1.923482
535.000000	1.880370
536.000000	1.832591
537.000000	1.777999
538.000000	1.727714
539.000000	1.667328
540.000000	1.622373
541.000000	1.551836
542.000000	1.495663
543.000000	1.443818
544.000000	1.366569
545.000000	1.312106
546.000000	1.252575
547.000000	1.204235
548.000000	1.151138
549.000000	1.096151
550.000000	1.026291
551.000000	0.988729
552.000000	0.949519
553.000000	0.896200
554.000000	0.861428
555.000000	0.839188
556.000000	0.789113
557.000000	0.779716
558.000000	0.762301
559.000000	0.730992
560.000000	0.703013
561.000000	0.669334
562.000000	0.669201
563.000000	0.674758
564.000000	0.649278
565.000000	0.631916
566.000000	0.624899
567.000000	0.625767
568.000000	0.582565
569.000000	0.559350
570.000000	0.556284
571.000000	0.553276
572.000000	0.515039
573.000000	0.500580
574.000000	0.488432
575.000000	0.460664
576.000000	0.444888
577.000000	0.417311
578.000000	0.408713
579.000000	0.384060
580.000000	0.386237
581.000000	0.355411
582.000000	0.315906
583.000000	0.298555
584.000000	0.287774
585.000000	0.283407
586.000000	0.241260
587.000000	0.204402
588.000000	0.188507
589.000000	0.150770
590.000000	0.117895
591.000000	0.099553
592.000000	0.079003
593.000000	0.081279
594.000000	0.137794
595.000000	0.152627
596.000000	0.203501
597.000000	0.247747
598.000000	0.283271
599.000000	0.321240
600.000000	0.336543
601.000000	0.382577
602.000000	0.375972
603.000000	0.372717
604.000000	0.394348
605.000000	0.383443
606.000000	0.404174
607.000000	0.406565
608.000000	0.385562
609.000000	0.375592
610.000000	0.385639
611.000000	0.361584
612.000000	0.313532
613.000000	0.333278
614.000000	0.320941
615.000000	0.293935
616.000000	0.282614
617.000000	0.307043
618.000000	0.290478
619.000000	0.267637
620.000000	0.234859
621.000000	0.197306
622.000000	0.187212
623.000000	0.173782
624.000000	0.126881
625.000000	0.134379
626.000000	0.099202
627.000000	0.098524
628.000000	0.089214
629.000000	0.093583
630.000000	0.086212
631.000000	0.103309
632.000000	0.093046
633.000000	0.131390
634.000000	0.157186
635.000000	0.171947
636.000000	0.210432
637.000000	0.231796
638.000000	0.259355
639.000000	0.316965
640.000000	0.365296
641.000000	0.408880
642.000000	0.453144
643.000000	0.501063
644.000000	0.570504
645.000000	0.623964
646.000000	0.688428
647.000000	0.749080
648.000000	0.791758
649.000000	0.836919
650.000000	0.897246
651.000000	0.922945
652.000000	0.953966
653.000000	0.958957
654.000000	0.981260
655.000000	0.990521
656.000000	0.980323
657.000000	0.976155
658.000000	0.985660
659.000000	0.942888
660.000000	0.916216
661.000000	0.902074
662.000000	0.890953
663.000000	0.847314
664.000000	0.839459
665.000000	0.827620
666.000000	0.826290
667.000000	0.813443
668.000000	0.798969
669.000000	0.788586
670.000000	0.777171
671.000000	0.803124
672.000000	0.816651
673.000000	0.830680
674.000000	0.865392
675.000000	0.874522
676.000000	0.889969
677.000000	0.914181
678.000000	0.923557
679.000000	0.965174
680.000000	0.977375
681.000000	0.992618
682.000000	0.986815
683.000000	1.007576
684.000000	1.024988
685.000000	1.002124
686.000000	0.991383
687.000000	0.995237
688.000000	1.019943
689.000000	1.009613
690.000000	1.010627
691.000000	1.005799
692.000000	0.986708
693.000000	0.984963
694.000000	1.013344
695.000000	1.033070
696.000000	1.040684
697.000000	1.027000
698.000000	1.029457
699.000000	1.069796
700.000000	1.088142
701.000000	1.097766
702.000000	1.138476
703.000000	1.147185
704.000000	1.173592
705.000000	1.211242
706.000000	1.251217
707.000000	1.267769
708.000000	1.281484
709.000000	1.342674
710.000000	1.381150
711.000000	1.380440
712.000000	1.401569
713.000000	1.441415
714.000000	1.452982
715.000000	1.445869
716.000000	1.434451
717.000000	1.436858
718.000000	1.469399
719.000000	1.483192
720.000000	1.480505
721.000000	1.487437
722.000000	1.503922
723.000000	1.500578
724.000000	1.516026
725.000000	1.528008
726.000000	1.529676
727.000000	1.531939
728.000000	1.529746
729.000000	1.539009
730.000000	1.547830
731.000000	1.547551
732.000000	1.530344
733.000000	1.537380
734.000000	1.547482
735.000000	1.545890
736.000000	1.601727
737.000000	1.576617
738.000000	1.562280
739.000000	1.548881
740.000000	1.522996
741.000000	1.559764
742.000000	1.572706
743.000000	1.589667
744.000000	1.603415
745.000000	1.596830
746.000000	1.644468
747.000000	1.661533
748.000000	1.633233
749.000000	1.648324
750.000000	1.690405
751.000000	1.704880
752.000000	1.694847
753.000000	1.701242
754.000000	1.685239
755.000000	1.641236
756.000000	1.696329
757.000000	1.752641
758.000000	1.728496
759.000000	1.740753
760.000000	1.816737
761.000000	1.818742
762.000000	1.769782
763.000000	1.794954
764.000000	1.827175
765.000000	1.816749
766.000000	1.784365
767.000000	1.791415
768.000000	1.882478
769.000000	1.882678
770.000000	1.854939
771.000000	1.844280
772.000000	1.861027
773.000000	1.887818
774.000000	1.924531
775.000000	1.941838
776.000000	1.965194
777.000000	1.976996
778.000000	1.937369
779.000000	1.906230
780.000000	1.917782
781.000000	1.895159
782.000000	1.936111
783.000000	1.985695
784.000000	2.009220
785.000000	2.033961
786.000000	2.012315
787.000000	1.946233
788.000000	1.958053
789.000000	2.005152
790.000000	2.022501
791.000000	2.014347
792.000000	2.061117
793.000000	2.096811
794.000000	2.122359
795.000000	2.092010
796.000000	2.045602
797.000000	2.034215
798.000000	2.062173
799.000000	2.107825
800.000000	2.112417
801.000000	2.166066
802.000000	2.204138
803.000000	2.156744
804.000000	2.174862
805.000000	2.167368
806.000000	2.192269
807.000000	2.251147
808.000000	2.276533
809.000000	2.272278
810.000000	2.290968
811.000000	2.323802
812.000000	2.291272
813.000000	2.295132
814.000000	2.246336
815.000000	2.230210
816.000000	2.234758
817.000000	2.350033
818.000000	2.242016
819.000000	2.347749
820.000000	2.356514
821.000000	2.319194
822.000000	2.375515
823.000000	2.329731
824.000000	2.332140
825.000000	2.275424
826.000000	2.326358
827.000000	2.300395
828.000000	2.319215
829.000000	2.265177
830.000000	2.396076
831.000000	2.349621
832.000000	2.379319
833.000000	2.376492
834.000000	2.304517
835.000000	2.356165
836.000000	2.330194
837.000000	2.289775
838.000000	2.235732
839.000000	2.318257
840.000000	2.349069
841.000000	2.297411
842.000000	2.539839
843.000000	2.433082
844.000000	2.375595
845.000000	2.518592
846.000000	2.683308
847.000000	2.548504
848.000000	2.497473
849.000000	2.495523
850.000000	2.490569
851.000000	2.457703
852.000000	2.667221
853.000000	2.410854
854.000000	2.220088
855.000000	2.808977
856.000000	2.554511
857.000000	2.632594
858.000000	2.573437
859.000000	2.662163
860.000000	2.643197
861.000000	2.590558
862.000000	2.642104
863.000000	2.585654
864.000000	2.526469
865.000000	2.426179
866.000000	2.471158
867.000000	2.421279
868.000000	2.450965
869.000000	2.394427
870.000000	2.448602
871.000000	2.489301
872.000000	2.425169
873.000000	2.477457
874.000000	2.461171
875.000000	2.483000
876.000000	2.439652
877.000000	2.460391
878.000000	2.501984
879.000000	2.457017
880.000000	2.438116
881.000000	2.447753
882.000000	2.499803
883.000000	2.477408
884.000000	2.468107
885.000000	2.479283
886.000000	2.510258
887.000000	2.500899
888.000000	2.489338
889.000000	2.505304
890.000000	2.502815
891.000000	2.503855
892.000000	2.496497
893.000000	2.546128
894.000000	2.544607
895.000000	2.528251
896.000000	2.528000
897.000000	2.559355
898.000000	2.561504
899.000000	2.578209
900.000000	2.595967
901.000000	2.615438
902.000000	2.615867
903.000000	2.629802
904.000000	2.614708
905.000000	2.628176
906.000000	2.693999
907.000000	2.718868
908.000000	2.736815
909.000000	2.749933
910.000000	2.773517
911.000000	2.786117
912.000000	2.811465
913.000000	2.835171
914.000000	2.848504
915.000000	2.884205
916.000000	2.861088
917.000000	2.867349
918.000000	2.937554
919.000000	2.939853
920.000000	2.945658
921.000000	2.960322
922.000000	2.974508
923.000000	2.962900
924.000000	2.963311
925.000000	3.007905
926.000000	2.980997
927.000000	2.993619
928.000000	3.013512
929.000000	3.017224
930.000000	3.031453
931.000000	3.033056
932.000000	3.071950
933.000000	3.066032
934.000000	3.068144
935.000000	3.075208
936.000000	3.121309
937.000000	3.099656
938.000000	3.100331
939.000000	3.112254
940.000000	3.114769
941.000000	3.129011
942.000000	3.125530
943.000000	3.141406
944.000000	3.177760
945.000000	3.168965
946.000000	3.178262
947.000000	3.200987
948.000000	3.208126
949.000000	3.233989
950.000000	3.248565
951.000000	3.273490
952.000000	3.302123
953.000000	3.318437
954.000000	3.342197
955.000000	3.352498
956.000000	3.373801
957.000000	3.416205
958.000000	3.454129
959.000000	3.490225
960.000000	3.503872
961.000000	3.518489
962.000000	3.549720
963.000000	3.587184
964.000000	3.622927
965.000000	3.648679
966.000000	3.669188
967.000000	3.692403
968.000000	3.727440
969.000000	3.747065
970.000000	3.764688
971.000000	3.796165
972.000000	3.831108
973.000000	3.855971
974.000000	3.868351
975.000000	3.880678
976.000000	3.899879
977.000000	3.922354
978.000000	3.936425
979.000000	3.969764
980.000000	3.983614
981.000000	4.002418
982.000000	4.009464
983.000000	4.020115
984.000000	4.032591
985.000000	4.042515
986.000000	4.059406
987.000000	4.076726
988.000000	4.087233
989.000000	4.092641
990.000000	4.098597
991.000000	4.100838
992.000000	4.114800
993.000000	4.107888
994.000000	4.112662
995.000000	4.111641
996.000000	4.112469
997.000000	4.118993
998.000000	4.119169
999.000000	4.130725
1000.000000	4.133117
1001.000000	4.132837
1002.000000	4.137104
1003.000000	4.145188
1004.000000	4.144295
1005.000000	4.149386
1006.000000	4.160782
1007.000000	4.167104
1008.000000	4.179386
1009.000000	4.183318
1010.000000	4.191222
1011.000000	4.201997
1012.000000	4.212892
1013.000000	4.229435
1014.000000	4.245925
1015.000000	4.251770
1016.000000	4.263544
1017.000000	4.275095
1018.000000	4.290794
1019.000000	4.314835
1020.000000	4.322646
1021.000000	4.341924
1022.000000	4.369296
1023.000000	4.385041
1024.000000	4.407437
1025.000000	4.422962
1026.000000	4.436802
1027.000000	4.463604
1028.000000	4.482310
1029.000000	4.496862
1030.000000	4.520597
1031.000000	4.546496
1032.000000	4.568264
1033.000000	4.588223
1034.000000	4.606907
1035.000000	4.628190
1036.000000	4.655044
1037.000000	4.675732
1038.000000	4.697410
1039.000000	4.713116
1040.000000	4.725214
1041.000000	4.742477
1042.000000	4.766312
1043.000000	4.790868
1044.000000	4.807375
1045.000000	4.822252
1046.000000	4.836947
1047.000000	4.847362
1048.000000	4.872283
1049.000000	4.890480
1050.000000	4.899623
1051.000000	4.918748
1052.000000	4.935345
1053.000000	4.942118
1054.000000	4.952440
1055.000000	4.967878
1056.000000	4.980186
1057.000000	4.982305
1058.000000	4.989055
1059.000000	4.998572
1060.000000	5.006297
1061.000000	5.008223
1062.000000	5.013654
1063.000000	5.022869
1064.000000	5.036410
1065.000000	5.042224
1066.000000	5.032619
1067.000000	5.028955
1068.000000	5.040306
1069.000000	5.043560
1070.000000	5.049950
1071.000000	5.057502
1072.000000	5.065252
1073.000000	5.057252
1074.000000	5.051050
1075.000000	5.052402
1076.000000	5.052353
1077.000000	5.053005
1078.000000	5.056913
1079.000000	5.057411
1080.000000	5.058664
1081.000000	5.047704
1082.000000	5.053705
1083.000000	5.059660
1084.000000	5.046416
1085.000000	5.048085
1086.000000	5.040849
1087.000000	5.056976
1088.000000	5.047574
1089.000000	5.043424
1090.000000	5.037227
1091.000000	5.048014
1092.000000	5.047871
1093.000000	5.047155
1094.000000	5.050413
1095.000000	5.046479
1096.000000	5.055059
1097.000000	5.057375
1098.000000	5.065459
1099.000000	5.058100
1100.000000	5.053008
1101.000000	5.072103
1102.000000	5.069167
1103.000000	5.063914
1104.000000	5.062410
1105.000000	5.079204
1106.000000	5.086050
1107.000000	5.081001
1108.000000	5.094902
1109.000000	5.106955
1110.000000	5.105755
1111.000000	5.104557
1112.000000	5.112550
1113.000000	5.119500
1114.000000	5.121153
1115.000000	5.130616
1116.000000	5.136808
1117.000000	5.134069
1118.000000	5.143003
1119.000000	5.162303
1120.000000	5.161305
1121.000000	5.163610
1122.000000	5.169535
1123.000000	5.176400
1124.000000	5.180779
1125.000000	5.185447
1126.000000	5.186484
1127.000000	5.182689
1128.000000	5.193967
1129.000000	5.188596
1130.000000	5.185259
1131.000000	5.188671
1132.000000	5.183897
1133.000000	5.202637
1134.000000	5.200512
1135.000000	5.181889
1136.000000	5.175653
1137.000000	5.160902
1138.000000	5.164469
1139.000000	5.153479
1140.000000	5.145826
1141.000000	5.156783
1142.000000	5.152930
1143.000000	5.138630
1144.000000	5.140377
1145.000000	5.138991
1146.000000	5.133912
1147.000000	5.121958
1148.000000	5.115116
1149.000000	5.114764
1150.000000	5.098041
1151.000000	5.091231
1152.000000	5.086235
1153.000000	5.082496
1154.000000	5.070049
1155.000000	5.062422
1156.000000	5.056094
1157.000000	5.048755
1158.000000	5.033640
1159.000000	5.030448
1160.000000	5.019671
1161.000000	5.000900
1162.000000	4.982601
1163.000000	4.971462
1164.000000	4.959314
1165.000000	4.954443
1166.000000	4.941958
1167.000000	4.932942
1168.000000	4.925186
1169.000000	4.915587
1170.000000	4.897788
1171.000000	4.907237
1172.000000	4.881064
1173.000000	4.870280
1174.000000	4.864199
1175.000000	4.856748
1176.000000	4.845431
1177.000000	4.843538
1178.000000	4.837198
1179.000000	4.831823
1180.000000	4.808934
1181.000000	4.809952
1182.000000	4.801232
1183.000000	4.798578
1184.000000	4.796148
1185.000000	4.791505
1186.000000	4.792996
1187.000000	4.784891
1188.000000	4.783002
1189.000000	4.799301
1190.000000	4.801756
1191.000000	4.800447
1192.000000	4.799319
1193.000000	4.800753
1194.000000	4.801637
1195.000000	4.811421
1196.000000	4.807126
1197.000000	4.807950
1198.000000	4.811957
1199.000000	4.824079
1200.000000	4.818227
1201.000000	4.819464
1202.000000	4.828572
1203.000000	4.822820
1204.000000	4.827810
1205.000000	4.825019
1206.000000	4.830254
1207.000000	4.835855
1208.000000	4.836724
1209.000000	4.840666
1210.000000	4.853851
1211.000000	4.850661
1212.000000	4.847502
1213.000000	4.869037
1214.000000	4.866626
1215.000000	4.876328
1216.000000	4.875060
1217.000000	4.879234
1218.000000	4.885202
1219.000000	4.896312
1220.000000	4.897730
1221.000000	4.900795
1222.000000	4.908537
1223.000000	4.917807
1224.000000	4.918351
1225.000000	4.932011
1226.000000	4.929352
1227.000000	4.936531
1228.000000	4.944738
1229.000000	4.953227
1230.000000	4.956759
1231.000000	4.962993
1232.000000	4.962062
1233.000000	4.974011
1234.000000	4.982470
1235.000000	4.989178
1236.000000	4.984303
1237.000000	4.997879
1238.000000	5.007699
1239.000000	5.013161
1240.000000	5.019975
1241.000000	5.024758
1242.000000	5.030165
1243.000000	5.040972
1244.000000	5.054018
1245.000000	5.050762
1246.000000	5.056496
1247.000000	5.067778
1248.000000	5.069046
1249.000000	5.078214
1250.000000	5.092632
1251.000000	5.089611
1252.000000	5.097974
1253.000000	5.099470
1254.000000	5.112600
1255.000000	5.124182
1256.000000	5.123835
1257.000000	5.124630
1258.000000	5.127687
1259.000000	5.133472
1260.000000	5.134966
1261.000000	5.144987
1262.000000	5.154385
1263.000000	5.153084
1264.000000	5.161493
1265.000000	5.160019
1266.000000	5.154073
1267.000000	5.162162
1268.000000	5.157991
1269.000000	5.151968
1270.000000	5.152860
1271.000000	5.156581
1272.000000	5.158861
1273.000000	5.161972
1274.000000	5.166296
1275.000000	5.161945
1276.000000	5.161404
1277.000000	5.161510
1278.000000	5.167015
1279.000000	5.170653
1280.000000	5.170772
1281.000000	5.174506
1282.000000	5.173380
1283.000000	5.170010
1284.000000	5.163093
1285.000000	5.159891
1286.000000	5.170038
1287.000000	5.182384
1288.000000	5.178642
1289.000000	5.175593
1290.000000	5.178127
1291.000000	5.170821
1292.000000	5.161419
1293.000000	5.157151
1294.000000	5.153756
1295.000000	5.157002
1296.000000	5.145623
1297.000000	5.138792
1298.000000	5.146008
1299.000000	5.146425
1300.000000	5.139916
1301.000000	5.138016
1302.000000	5.134894
1303.000000	5.126482
1304.000000	5.124236
1305.000000	5.117198
1306.000000	5.106205
1307.000000	5.094731
1308.000000	5.090028
1309.000000	5.082765
1310.000000	5.072061
1311.000000	5.069867
1312.000000	5.067044
1313.000000	5.059669
1314.000000	5.051330
1315.000000	5.035570
1316.000000	5.022661
1317.000000	5.011082
1318.000000	5.004425
1319.000000	4.991371
1320.000000	4.976100
1321.000000	4.971608
1322.000000	4.954455
1323.000000	4.946610
1324.000000	4.941063
1325.000000	4.919173
1326.000000	4.913665
1327.000000	4.902678
1328.000000	4.885286
1329.000000	4.868960
1330.000000	4.858154
1331.000000	4.849359
1332.000000	4.832349
1333.000000	4.815902
1334.000000	4.805942
1335.000000	4.794940
1336.000000	4.777101
1337.000000	4.760565
1338.000000	4.743045
1339.000000	4.720089
1340.000000	4.715336
1341.000000	4.695215
1342.000000	4.669714
1343.000000	4.663430
1344.000000	4.650586
1345.000000	4.639204
1346.000000	4.621106
1347.000000	4.601508
1348.000000	4.575926
1349.000000	4.560205
1350.000000	4.557484
1351.000000	4.549937
1352.000000	4.530313
1353.000000	4.526207
1354.000000	4.516658
1355.000000	4.498987
1356.000000	4.479339
1357.000000	4.478338
1358.000000	4.478899
1359.000000	4.448607
1360.000000	4.469735
1361.000000	4.464621
1362.000000	4.471905
1363.000000	4.425963
1364.000000	4.424352
1365.000000	4.424906
1366.000000	4.411977
1367.000000	4.409955
1368.000000	4.391865
1369.000000	4.372371
1370.000000	4.370216
1371.000000	4.338094
1372.000000	4.325513
1373.000000	4.315234
1374.000000	4.302224
1375.000000	4.297717
1376.000000	4.282368
1377.000000	4.266956
1378.000000	4.261946
1379.000000	4.246337
1380.000000	4.254510
1381.000000	4.213466
1382.000000	4.167312
1383.000000	4.121410
1384.000000	4.079990
1385.000000	4.048899
1386.000000	4.027198
1387.000000	3.997154
1388.000000	3.934010
1389.000000	3.877829
1390.000000	3.867965
1391.000000	3.830987
1392.000000	3.781623
1393.000000	3.727724
1394.000000	3.690841
1395.000000	3.636806
1396.000000	3.558505
1397.000000	3.503203
1398.000000	3.498247
1399.000000	3.455457
1400.000000	3.364245
1401.000000	3.281226
1402.000000	3.226738
1403.000000	3.192004
1404.000000	3.141924
1405.000000	3.076526
1406.000000	3.022415
1407.000000	2.975220
1408.000000	2.934191
1409.000000	2.885577
1410.000000	2.812488
1411.000000	2.771412
1412.000000	2.766633
1413.000000	2.723899
1414.000000	2.676338
1415.000000	2.627173
1416.000000	2.594575
1417.000000	2.599693
1418.000000	2.554548
1419.000000	2.517943
1420.000000	2.473949
1421.000000	2.458829
1422.000000	2.439252
1423.000000	2.419356
1424.000000	2.388838
1425.000000	2.369451
1426.000000	2.339491
1427.000000	2.342778
1428.000000	2.311945
1429.000000	2.301911
1430.000000	2.272633
1431.000000	2.252326
1432.000000	2.274730
1433.000000	2.254787
1434.000000	2.236902
1435.000000	2.210819
1436.000000	2.219471
1437.000000	2.197655
1438.000000	2.181976
1439.000000	2.176883
1440.000000	2.164263
1441.000000	2.154503
1442.000000	2.151857
1443.000000	2.140169
1444.000000	2.133130
1445.000000	2.126105
1446.000000	2.107752
1447.000000	2.108247
1448.000000	2.097086
1449.000000	2.109151
1450.000000	2.092935
1451.000000	2.084205
1452.000000	2.069462
1453.000000	2.071412
1454.000000	2.074994
1455.000000	2.067030
1456.000000	2.051586
1457.000000	2.047629
1458.000000	2.049708
1459.000000	2.040737
1460.000000	2.033864
1461.000000	2.025398
1462.000000	2.016491
1463.000000	2.015875
1464.000000	2.015901
1465.000000	2.015821
1466.000000	2.018427
1467.000000	2.014121
1468.000000	2.006353
1469.000000	2.009347
1470.000000	2.015860
1471.000000	2.013837
1472.000000	2.012314
1473.000000	2.010297
1474.000000	2.018519
1475.000000	2.021024
1476.000000	2.014866
1477.000000	2.021398
1478.000000	2.021843
1479.000000	2.022266
1480.000000	2.027860
1481.000000	2.032565
1482.000000	2.034036
1483.000000	2.043598
1484.000000	2.050164
1485.000000	2.050714
1486.000000	2.056981
1487.000000	2.062899
1488.000000	2.052569
1489.000000	2.065367
1490.000000	2.082338
1491.000000	2.089674
1492.000000	2.089042
1493.000000	2.104842
1494.000000	2.103240
1495.000000	2.109119
1496.000000	2.110450
1497.000000	2.119770
1498.000000	2.120631
1499.000000	2.141359
1500.000000	2.138526
1501.000000	2.140126
1502.000000	2.162099
1503.000000	2.175430
1504.000000	2.181137
1505.000000	2.186687
1506.000000	2.183630
1507.000000	2.182901
1508.000000	2.207401
1509.000000	2.217592
1510.000000	2.215451
1511.000000	2.230499
1512.000000	2.244669
1513.000000	2.243812
1514.000000	2.255321
1515.000000	2.271217
1516.000000	2.280203
1517.000000	2.286342
1518.000000	2.291414
1519.000000	2.302442
1520.000000	2.314024
1521.000000	2.309838
1522.000000	2.322998
1523.000000	2.330019
1524.000000	2.338790
1525.000000	2.359819
1526.000000	2.375466
1527.000000	2.385114
1528.000000	2.377399
1529.000000	2.382019
1530.000000	2.399220
1531.000000	2.412478
1532.000000	2.423964
1533.000000	2.430596
1534.000000	2.447096
1535.000000	2.452651
1536.000000	2.459364
1537.000000	2.468088
1538.000000	2.477253
1539.000000	2.488377
1540.000000	2.496518
1541.000000	2.504434
1542.000000	2.511705
1543.000000	2.523589
1544.000000	2.535108
1545.000000	2.546358
1546.000000	2.553610
1547.000000	2.564247
1548.000000	2.576999
1549.000000	2.586314
1550.000000	2.597307
1551.000000	2.603910
1552.000000	2.610528
1553.000000	2.626451
1554.000000	2.636825
1555.000000	2.643238
1556.000000	2.652761
1557.000000	2.663167
1558.000000	2.667673
1559.000000	2.673515
1560.000000	2.676981
1561.000000	2.687348
1562.000000	2.701917
1563.000000	2.703445
1564.000000	2.705513
1565.000000	2.710721
1566.000000	2.714618
1567.000000	2.719655
1568.000000	2.723718
1569.000000	2.726451
1570.000000	2.733266
1571.000000	2.743415
1572.000000	2.757199
1573.000000	2.760047
1574.000000	2.763553
1575.000000	2.770521
1576.000000	2.781929
1577.000000	2.793837
1578.000000	2.795176
1579.000000	2.800361
1580.000000	2.807493
1581.000000	2.810553
1582.000000	2.818327
1583.000000	2.822979
1584.000000	2.836856
1585.000000	2.849064
1586.000000	2.857545
1587.000000	2.863207
1588.000000	2.874583
1589.000000	2.882967
1590.000000	2.882234
1591.000000	2.884417
1592.000000	2.894751
1593.000000	2.908622
1594.000000	2.914493
1595.000000	2.923640
1596.000000	2.931778
1597.000000	2.927590
1598.000000	2.933481
1599.000000	2.944714
1600.000000	2.957710
1601.000000	2.960970
1602.000000	2.963251
1603.000000	2.972642
1604.000000	2.989997
1605.000000	2.997626
1606.000000	3.006915
1607.000000	3.011689
1608.000000	3.009572
1609.000000	3.018949
1610.000000	3.025924
1611.000000	3.022343
1612.000000	3.031932
1613.000000	3.031532
1614.000000	3.042937
1615.000000	3.044464
1616.000000	3.036613
1617.000000	3.044759
1618.000000	3.064011
1619.000000	3.068350
1620.000000	3.066411
1621.000000	3.071757
1622.000000	3.079378
1623.000000	3.075808
1624.000000	3.090437
1625.000000	3.103581
1626.000000	3.098404
1627.000000	3.101877
1628.000000	3.112950
1629.000000	3.118802
1630.000000	3.120418
1631.000000	3.127444
1632.000000	3.124917
1633.000000	3.127854
1634.000000	3.121670
1635.000000	3.127036
1636.000000	3.122925
1637.000000	3.134060
1638.000000	3.133764
1639.000000	3.140571
1640.000000	3.138836
1641.000000	3.144576
1642.000000	3.137276
1643.000000	3.141036
1644.000000	3.144735
1645.000000	3.143826
1646.000000	3.142171
1647.000000	3.141677
1648.000000	3.142349
1649.000000	3.140452
1650.000000	3.147539
1651.000000	3.147491
1652.000000	3.146107
1653.000000	3.140113
1654.000000	3.133739
1655.000000	3.124490
1656.000000	3.117919
1657.000000	3.106253
1658.000000	3.110074
1659.000000	3.104144
1660.000000	3.095176
1661.000000	3.086705
1662.000000	3.072732
1663.000000	3.072172
1664.000000	3.056733
1665.000000	3.035715
1666.000000	3.032113
1667.000000	3.015264
1668.000000	2.997090
1669.000000	2.995008
1670.000000	2.981206
1671.000000	2.973804
1672.000000	2.957063
1673.000000	2.944698
1674.000000	2.941346
1675.000000	2.915712
1676.000000	2.898150
1677.000000	2.886254
1678.000000	2.868783
1679.000000	2.857106
1680.000000	2.831996
1681.000000	2.807538
1682.000000	2.812691
1683.000000	2.782449
1684.000000	2.771630
1685.000000	2.749403
1686.000000	2.754521
1687.000000	2.739037
1688.000000	2.741890
1689.000000	2.736442
1690.000000	2.754248
1691.000000	2.745505
1692.000000	2.747530
1693.000000	2.759816
1694.000000	2.737917
1695.000000	2.743524
1696.000000	2.754458
1697.000000	2.742241
1698.000000	2.740672
1699.000000	2.723298
1700.000000	2.741771
1701.000000	2.738881
1702.000000	2.732507
1703.000000	2.738728
1704.000000	2.722509
1705.000000	2.721216
1706.000000	2.716038
1707.000000	2.717977
1708.000000	2.694634
1709.000000	2.700558
1710.000000	2.680371
1711.000000	2.660342
1712.000000	2.654647
1713.000000	2.636549
1714.000000	2.629670
1715.000000	2.623098
1716.000000	2.584506
1717.000000	2.569446
1718.000000	2.559951
1719.000000	2.561335
1720.000000	2.539931
1721.000000	2.532658
1722.000000	2.525152
1723.000000	2.515069
1724.000000	2.522393
1725.000000	2.534424
1726.000000	2.526578
1727.000000	2.529581
1728.000000	2.527116
1729.000000	2.533352
1730.000000	2.543599
1731.000000	2.536642
1732.000000	2.529407
1733.000000	2.535801
1734.000000	2.542119
1735.000000	2.545146
1736.000000	2.551052
1737.000000	2.556454
1738.000000	2.562260
1739.000000	2.568387
1740.000000	2.570589
1741.000000	2.574122
1742.000000	2.585034
1743.000000	2.585207
1744.000000	2.601288
1745.000000	2.601166
1746.000000	2.600662
1747.000000	2.605842
1748.000000	2.595611
1749.000000	2.599949
1750.000000	2.598384
1751.000000	2.593898
1752.000000	2.597587
1753.000000	2.594532
1754.000000	2.597764
1755.000000	2.604334
1756.000000	2.601535
1757.000000	2.598542
1758.000000	2.589783
1759.000000	2.596327
1760.000000	2.599387
1761.000000	2.587165
1762.000000	2.598360
1763.000000	2.605214
1764.000000	2.602691
1765.000000	2.607499
1766.000000	2.598706
1767.000000	2.602071
1768.000000	2.605127
1769.000000	2.612256
1770.000000	2.610279
1771.000000	2.611508
1772.000000	2.611145
1773.000000	2.619398
1774.000000	2.625903
1775.000000	2.629467
1776.000000	2.624102
1777.000000	2.624336
1778.000000	2.625522
1779.000000	2.628558
1780.000000	2.621846
1781.000000	2.625914
1782.000000	2.622689
1783.000000	2.626709
1784.000000	2.622057
1785.000000	2.624403
1786.000000	2.627083
1787.000000	2.624765
1788.000000	2.626213
1789.000000	2.627084
1790.000000	2.625769
1791.000000	2.640011
1792.000000	2.635787
1793.000000	2.636756
1794.000000	2.638766
1795.000000	2.644624
1796.000000	2.645160
1797.000000	2.648935
1798.000000	2.664100
1799.000000	2.676279
1800.000000	2.669820
1801.000000	2.664286
1802.000000	2.672034
1803.000000	2.679452
1804.000000	2.681676
1805.000000	2.690430
1806.000000	2.691688
1807.000000	2.692596
1808.000000	2.693099
1809.000000	2.702267
1810.000000	2.713927
1811.000000	2.718869
1812.000000	2.719915
1813.000000	2.719596
1814.000000	2.728577
1815.000000	2.736895
1816.000000	2.732763
1817.000000	2.739466
1818.000000	2.753392
1819.000000	2.763156
1820.000000	2.754938
1821.000000	2.751082
1822.000000	2.736992
1823.000000	2.732908
1824.000000	2.749187
1825.000000	2.763670
1826.000000	2.769110
1827.000000	2.768359
1828.000000	2.768573
1829.000000	2.763844
1830.000000	2.770628
1831.000000	2.769141
1832.000000	2.777963
1833.000000	2.796208
1834.000000	2.800865
1835.000000	2.812248
1836.000000	2.819030
1837.000000	2.815809
1838.000000	2.816441
1839.000000	2.823991
1840.000000	2.815653
1841.000000	2.817697
1842.000000	2.802114
1843.000000	2.784055
1844.000000	2.798296
1845.000000	2.800708
1846.000000	2.813218
1847.000000	2.817414
1848.000000	2.794349
1849.000000	2.767319
1850.000000	2.760244
1851.000000	2.760270
1852.000000	2.769311
1853.000000	2.775900
1854.000000	2.757464
1855.000000	2.746216
1856.000000	2.732859
1857.000000	2.721539
1858.000000	2.716013
1859.000000	2.689154
1860.000000	2.665350
1861.000000	2.652049
1862.000000	2.631854
1863.000000	2.616077
1864.000000	2.610114
1865.000000	2.602408
1866.000000	2.591321
1867.000000	2.575643
1868.000000	2.548436
1869.000000	2.524159
1870.000000	2.488127
1871.000000	2.429092
1872.000000	2.396074
1873.000000	2.348347
1874.000000	2.289462
1875.000000	2.248669
1876.000000	2.201564
1877.000000	2.151671
1878.000000	2.099031
1879.000000	2.052216
1880.000000	2.018332
1881.000000	1.975315
1882.000000	1.935348
1883.000000	1.871079
1884.000000	1.800686
1885.000000	1.740793
1886.000000	1.684741
1887.000000	1.637146
1888.000000	1.590907
1889.000000	1.543221
1890.000000	1.482451
1891.000000	1.424457
1892.000000	1.364721
1893.000000	1.312004
1894.000000	1.271990
1895.000000	1.244739
1896.000000	1.225321
1897.000000	1.183371
1898.000000	1.151367
1899.000000	1.113230
1900.000000	1.075001
1901.000000	1.042393
1902.000000	1.029182
1903.000000	1.003675
1904.000000	0.995301
1905.000000	0.958430
1906.000000	0.930627
1907.000000	0.901463
1908.000000	0.883866
1909.000000	0.886158
1910.000000	0.878256
1911.000000	0.868686
1912.000000	0.859180
1913.000000	0.846811
1914.000000	0.835075
1915.000000	0.821641
1916.000000	0.807667
1917.000000	0.806945
1918.000000	0.800249
1919.000000	0.797666
1920.000000	0.792315
1921.000000	0.791470
1922.000000	0.776461
1923.000000	0.765862
1924.000000	0.763970
1925.000000	0.755555
1926.000000	0.754890
1927.000000	0.752098
1928.000000	0.744478
1929.000000	0.740218
1930.000000	0.734547
1931.000000	0.731292
1932.000000	0.730796
1933.000000	0.724323
1934.000000	0.726223
1935.000000	0.730984
1936.000000	0.718246
1937.000000	0.713307
1938.000000	0.721103
1939.000000	0.715428
1940.000000	0.713688
1941.000000	0.724602
1942.000000	0.716667
1943.000000	0.720239
1944.000000	0.713239
1945.000000	0.726337
1946.000000	0.730399
1947.000000	0.732083
1948.000000	0.722883
1949.000000	0.717626
1950.000000	0.729656
1951.000000	0.734614
1952.000000	0.731727
1953.000000	0.750798
1954.000000	0.733585
1955.000000	0.745350
1956.000000	0.749049
1957.000000	0.746977
1958.000000	0.752547
1959.000000	0.748751
1960.000000	0.756038
1961.000000	0.758658
1962.000000	0.761180
1963.000000	0.756803
1964.000000	0.749171
1965.000000	0.753374
1966.000000	0.765714
1967.000000	0.759972
1968.000000	0.773220
1969.000000	0.779671
1970.000000	0.788402
1971.000000	0.799789
1972.000000	0.800769
1973.000000	0.796520
1974.000000	0.796355
1975.000000	0.800230
1976.000000	0.815638
1977.000000	0.807717
1978.000000	0.808117
1979.000000	0.804892
1980.000000	0.819854
1981.000000	0.834428
1982.000000	0.831734
1983.000000	0.844097
1984.000000	0.843983
1985.000000	0.852786
1986.000000	0.861623
1987.000000	0.865408
1988.000000	0.867117
1989.000000	0.879570
1990.000000	0.883025
1991.000000	0.897564
1992.000000	0.894750
1993.000000	0.903563
1994.000000	0.909727
1995.000000	0.910633
1996.000000	0.920429
1997.000000	0.923738
1998.000000	0.933042
1999.000000	0.938443
2000.000000	0.940028
2001.000000	0.943687
2002.000000	0.956881
2003.000000	0.964091
2004.000000	0.966996
2005.000000	0.976756
2006.000000	0.969194
2007.000000	0.983232
2008.000000	0.984329
2009.000000	1.000815
2010.000000	1.003174
2011.000000	1.000454
2012.000000	1.015916
2013.000000	1.026234
2014.000000	1.014462
2015.000000	1.015680
2016.000000	1.028420
2017.000000	1.041326
2018.000000	1.040039
2019.000000	1.045746
2020.000000	1.043086
2021.000000	1.058635
2022.000000	1.074983
2023.000000	1.069840
2024.000000	1.055615
2025.000000	1.066230
2026.000000	1.076637
2027.000000	1.075510
2028.000000	1.082213
2029.000000	1.086572
2030.000000	1.088485
2031.000000	1.079837
2032.000000	1.097080
2033.000000	1.102744
2034.000000	1.105868
2035.000000	1.097634
2036.000000	1.101311
2037.000000	1.103491
2038.000000	1.099048
2039.000000	1.091663
2040.000000	1.096374
2041.000000	1.092776
2042.000000	1.106447
2043.000000	1.109121
2044.000000	1.097673
2045.000000	1.104840
2046.000000	1.088228
2047.000000	1.095168
2048.000000	1.102091
2049.000000	1.096268
2050.000000	1.100027
2051.000000	1.109296
2052.000000	1.110258
2053.000000	1.114979
2054.000000	1.125760
2055.000000	1.121617
2056.000000	1.128117
2057.000000	1.136166
2058.000000	1.137688
2059.000000	1.148291
2060.000000	1.156755
2061.000000	1.156325
2062.000000	1.177855
2063.000000	1.179185
2064.000000	1.187235
2065.000000	1.201938
2066.000000	1.215035
2067.000000	1.226482
2068.000000	1.225463
2069.000000	1.236822
2070.000000	1.240728
2071.000000	1.240254
2072.000000	1.246912
2073.000000	1.250950
2074.000000	1.262804
2075.000000	1.271255
2076.000000	1.276017
2077.000000	1.283484
2078.000000	1.288638
2079.000000	1.295897
2080.000000	1.302010
2081.000000	1.312346
2082.000000	1.309728
2083.000000	1.301739
2084.000000	1.313377
2085.000000	1.321903
2086.000000	1.322338
2087.000000	1.331647
2088.000000	1.338314
2089.000000	1.336828
2090.000000	1.332978
2091.000000	1.341392
2092.000000	1.343861
2093.000000	1.352643
2094.000000	1.359430
2095.000000	1.352667
2096.000000	1.349087
2097.000000	1.353942
2098.000000	1.362934
2099.000000	1.371738
2100.000000	1.370259
2101.000000	1.371498
2102.000000	1.378167
2103.000000	1.373559
2104.000000	1.381621
2105.000000	1.390347
2106.000000	1.376972
2107.000000	1.374629
2108.000000	1.389720
2109.000000	1.391712
2110.000000	1.394673
2111.000000	1.394709
2112.000000	1.396939
2113.000000	1.397698
2114.000000	1.410952
2115.000000	1.421647
2116.000000	1.399642
2117.000000	1.403157
2118.000000	1.412710
2119.000000	1.413653
2120.000000	1.419303
2121.000000	1.416422
2122.000000	1.419324
2123.000000	1.426541
2124.000000	1.415274
2125.000000	1.412554
2126.000000	1.416619
2127.000000	1.408835
2128.000000	1.402540
2129.000000	1.405227
2130.000000	1.405813
2131.000000	1.395083
2132.000000	1.400441
2133.000000	1.403154
2134.000000	1.399338
2135.000000	1.393843
2136.000000	1.394013
2137.000000	1.385509
2138.000000	1.381416
2139.000000	1.381621
2140.000000	1.375621
2141.000000	1.367443
2142.000000	1.366925
2143.000000	1.360890
2144.000000	1.362394
2145.000000	1.357899
2146.000000	1.351790
2147.000000	1.349519
2148.000000	1.349597
2149.000000	1.345918
2150.000000	1.338225
2151.000000	1.333293
2152.000000	1.327704
2153.000000	1.319378
2154.000000	1.324123
2155.000000	1.316206
2156.000000	1.310572
2157.000000	1.313899
2158.000000	1.323611
2159.000000	1.317541
2160.000000	1.316372
2161.000000	1.307690
2162.000000	1.307589
2163.000000	1.303963
2164.000000	1.310123
2165.000000	1.304796
2166.000000	1.300465
2167.000000	1.306583
2168.000000	1.296598
2169.000000	1.293258
2170.000000	1.294494
2171.000000	1.300388
2172.000000	1.295470
2173.000000	1.308253
2174.000000	1.307028
2175.000000	1.301998
2176.000000	1.304764
2177.000000	1.308089
2178.000000	1.306317
2179.000000	1.301575
2180.000000	1.304416
2181.000000	1.322172
2182.000000	1.314326
2183.000000	1.314851
2184.000000	1.324240
2185.000000	1.313334
2186.000000	1.328295
2187.000000	1.316239
2188.000000	1.323134
2189.000000	1.324675
2190.000000	1.323100
2191.000000	1.329965
2192.000000	1.334648
2193.000000	1.331985
2194.000000	1.326417
2195.000000	1.333474
2196.000000	1.332641
2197.000000	1.354376
2198.000000	1.350105
2199.000000	1.352431
2200.000000	1.351903
2201.000000	1.344544
2202.000000	1.356351
2203.000000	1.357386
2204.000000	1.367966
2205.000000	1.374075
2206.000000	1.363430
2207.000000	1.375109
2208.000000	1.375027
2209.000000	1.383592
2210.000000	1.394156
2211.000000	1.394812
2212.000000	1.390646
2213.000000	1.398005
2214.000000	1.413941
2215.000000	1.413342
2216.000000	1.412962
2217.000000	1.412720
2218.000000	1.425430
2219.000000	1.427345
2220.000000	1.438245
2221.000000	1.448366
2222.000000	1.453318
2223.000000	1.458865
2224.000000	1.454392
2225.000000	1.455188
2226.000000	1.435481
2227.000000	1.457187
2228.000000	1.452617
2229.000000	1.453426
2230.000000	1.459356
2231.000000	1.455100
2232.000000	1.455771
2233.000000	1.452713
2234.000000	1.454789
2235.000000	1.447364
2236.000000	1.452102
2237.000000	1.451434
2238.000000	1.455761
2239.000000	1.436666
2240.000000	1.432277
2241.000000	1.446387
2242.000000	1.434060
2243.000000	1.428591
2244.000000	1.424482
2245.000000	1.399264
2246.000000	1.409947
2247.000000	1.418635
2248.000000	1.391423
2249.000000	1.370530
2250.000000	1.361485
2251.000000	1.371753
2252.000000	1.372634
2253.000000	1.335299
2254.000000	1.333314
2255.000000	1.320539
2256.000000	1.335593
2257.000000	1.300643
2258.000000	1.301623
2259.000000	1.290458
2260.000000	1.303302
2261.000000	1.296866
2262.000000	1.288489
2263.000000	1.291002
2264.000000	1.279592
2265.000000	1.272063
2266.000000	1.274721
2267.000000	1.271496
2268.000000	1.258279
2269.000000	1.276289
2270.000000	1.269715
2271.000000	1.261666
2272.000000	1.241845
2273.000000	1.245764
2274.000000	1.257255
2275.000000	1.245563
2276.000000	1.244964
2277.000000	1.252884
2278.000000	1.241318
2279.000000	1.235476
2280.000000	1.236109
2281.000000	1.233863
2282.000000	1.234964
2283.000000	1.238417
2284.000000	1.235554
2285.000000	1.224806
2286.000000	1.219320
2287.000000	1.225677
2288.000000	1.220927
2289.000000	1.229108
2290.000000	1.221349
2291.000000	1.227990
2292.000000	1.226907
2293.000000	1.235210
2294.000000	1.224164
2295.000000	1.231384
2296.000000	1.226419
2297.000000	1.232417
2298.000000	1.226270
2299.000000	1.221456
2300.000000	1.228767
2301.000000	1.224249
2302.000000	1.221948
2303.000000	1.229850
2304.000000	1.236603
2305.000000	1.234654
2306.000000	1.228089
2307.000000	1.234958
2308.000000	1.234361
2309.000000	1.237806
2310.000000	1.246043
2311.000000	1.238355
2312.000000	1.234915
2313.000000	1.242646
2314.000000	1.251760
2315.000000	1.249947
2316.000000	1.259440
2317.000000	1.253010
2318.000000	1.245295
2319.000000	1.253218
2320.000000	1.249327
2321.000000	1.249642
2322.000000	1.266327
2323.000000	1.248560
2324.000000	1.256624
2325.000000	1.262639
2326.000000	1.242650
2327.000000	1.248823
2328.000000	1.254204
2329.000000	1.247033
2330.000000	1.258206
2331.000000	1.235925
2332.000000	1.243710
2333.000000	1.243572
2334.000000	1.246137
2335.000000	1.257116
2336.000000	1.238106
2337.000000	1.243148
2338.000000	1.244846
2339.000000	1.239660
2340.000000	1.246995
2341.000000	1.223516
2342.000000	1.231379
2343.000000	1.239041
2344.000000	1.222121
2345.000000	1.233954
2346.000000	1.244217
2347.000000	1.228750
2348.000000	1.238461
2349.000000	1.249916
2350.000000	1.242147
2351.000000	1.215594
2352.000000	1.220012
2353.000000	1.228744
2354.000000	1.213439
2355.000000	1.211214
2356.000000	1.226881
2357.000000	1.226567
2358.000000	1.214485
2359.000000	1.227450
2360.000000	1.238891
2361.000000	1.230252
2362.000000	1.216413
2363.000000	1.215252
2364.000000	1.212338
2365.000000	1.206239
2366.000000	1.201025
2367.000000	1.209883
2368.000000	1.217722
2369.000000	1.204219
2370.000000	1.187806
2371.000000	1.200303
2372.000000	1.203435
2373.000000	1.184555
2374.000000	1.198011
2375.000000	1.211711
2376.000000	1.189404
2377.000000	1.166054
2378.000000	1.185699
2379.000000	1.204162
2380.000000	1.185083
2381.000000	1.185275
2382.000000	1.190330
2383.000000	1.177667
2384.000000	1.165684
2385.000000	1.176160
2386.000000	1.167457
2387.000000	1.152817
2388.000000	1.162760
2389.000000	1.167048
2390.000000	1.156049
2391.000000	1.145173
2392.000000	1.136444
2393.000000	1.132602
2394.000000	1.143790
2395.000000	1.154645
2396.000000	1.132764
2397.000000	1.125975
2398.000000	1.124150
2399.000000	1.112420
2400.000000	1.121114
2401.000000	1.136648
2402.000000	1.115855
2403.000000	1.104733
2404.000000	1.100827
2405.000000	1.113184
2406.000000	1.124050
2407.000000	1.100927
2408.000000	1.083037
2409.000000	1.077213
2410.000000	1.085568
2411.000000	1.098582
2412.000000	1.080490
2413.000000	1.064251
2414.000000	1.081455
2415.000000	1.095406
2416.000000	1.064797
2417.000000	1.067356
2418.000000	1.035324
2419.000000	1.001388
2420.000000	0.978089
2421.000000	0.986919
2422.000000	1.037277
2423.000000	1.071916
2424.000000	1.077919
2425.000000	1.067923
2426.000000	1.055349
2427.000000	1.049431
2428.000000	1.040223
2429.000000	1.035010
2430.000000	1.041330
2431.000000	1.031711
2432.000000	1.019428
2433.000000	1.030413
2434.000000	1.018798
2435.000000	1.008028
2436.000000	1.004754
2437.000000	0.998751
2438.000000	0.995845
2439.000000	0.994786
2440.000000	0.987230
2441.000000	0.982963
2442.000000	0.975795
2443.000000	0.956427
2444.000000	0.951039
2445.000000	0.950474
2446.000000	0.948102
2447.000000	0.946314
2448.000000	0.939234
2449.000000	0.924829
2450.000000	0.928390
2451.000000	0.934611
2452.000000	0.922003
2453.000000	0.924893
2454.000000	0.916605
2455.000000	0.909641
2456.000000	0.900205
2457.000000	0.874817
2458.000000	0.899532
2459.000000	0.890359
2460.000000	0.879218
2461.000000	0.867660
2462.000000	0.857745
2463.000000	0.866292
2464.000000	0.874357
2465.000000	0.878668
2466.000000	0.888913
2467.000000	0.892436
2468.000000	0.860434
2469.000000	0.861418
2470.000000	0.830123
2471.000000	0.852784
2472.000000	0.871651
2473.000000	0.842181
2474.000000	0.845732
2475.000000	0.862727
2476.000000	0.849588
2477.000000	0.839783
2478.000000	0.842036
2479.000000	0.853050
2480.000000	0.855530
2481.000000	0.844374
2482.000000	0.818972
2483.000000	0.833352
2484.000000	0.863506
2485.000000	0.860605
2486.000000	0.812040
2487.000000	0.812237
2488.000000	0.847351
2489.000000	0.797252
2490.000000	0.840302
2491.000000	0.875312
2492.000000	0.805826
2493.000000	0.817293
2494.000000	0.803348
2495.000000	0.779756
2496.000000	0.814738
2497.000000	0.861665
2498.000000	0.790328
2499.000000	0.800120
2500.000000	0.894706
