PE UV       SUBTECH     SPECTRUM    ASCII       PEDS        4.00        
   -1
CICIMAUCR0158-5.Sample.ASC
24/04/25
13:52:02.00
24/04/25
13:52:02.00
Vinicio Soto Monge
C. cupreomarginata
250,000000
1
Lambda 1050
1050L1511233
PerkinElmer UV WinLab 6.3.2.0749 / 2.02.05 Lambda 900 UV/VIS/NIR, Aug  7 2015 09:38:08

0
0
3350/servo 860,8/2
0
0
UV/VIS
1
1
1
DoubleDePol,CommonBeamDepol,RBeamAtt,SBeamAtt,60mm sphere, WB InGaAs Detector
0
0
0
0
Program
Program
3350/servo 860,8/2
3350/0,2 860,8/0,2
3350/0,2 860,8/0,2
0
15.00
 
 
 
0
 
860,8
319,2
860,8
Front
100
on
S:100 R:100
0
0
0
0
 
0
 
 
 
0
 
 
0
0
0
0
0
 
 
 
 
0
0


0
0
#HDR
-1
-1
#GR
nm
%R
1.0
0.0
2500,000000
-1,000000
2251
8
68,614000
5,280700
#DATA
250.000000	0.435613
251.000000	0.428521
252.000000	0.459912
253.000000	0.424898
254.000000	0.428375
255.000000	0.413492
256.000000	0.430553
257.000000	0.422351
258.000000	0.422918
259.000000	0.441203
260.000000	0.448957
261.000000	0.433046
262.000000	0.398795
263.000000	0.409123
264.000000	0.415620
265.000000	0.387336
266.000000	0.431352
267.000000	0.409078
268.000000	0.430775
269.000000	0.418842
270.000000	0.416624
271.000000	0.382664
272.000000	0.390971
273.000000	0.399257
274.000000	0.364854
275.000000	0.369015
276.000000	0.367449
277.000000	0.415822
278.000000	0.389650
279.000000	0.381161
280.000000	0.415609
281.000000	0.348691
282.000000	0.399310
283.000000	0.394971
284.000000	0.382004
285.000000	0.361166
286.000000	0.374599
287.000000	0.381752
288.000000	0.365694
289.000000	0.354330
290.000000	0.383892
291.000000	0.375320
292.000000	0.342871
293.000000	0.352051
294.000000	0.306331
295.000000	0.420079
296.000000	0.343304
297.000000	0.365057
298.000000	0.389575
299.000000	0.326746
300.000000	0.368538
301.000000	0.396574
302.000000	0.353358
303.000000	0.374887
304.000000	0.347185
305.000000	0.369821
306.000000	0.358955
307.000000	0.341045
308.000000	0.364885
309.000000	0.355369
310.000000	0.346849
311.000000	0.377115
312.000000	0.322012
313.000000	0.360857
314.000000	0.391410
315.000000	0.336223
316.000000	0.345559
317.000000	0.469616
318.000000	0.348629
319.000000	0.549377
320.000000	0.578956
321.000000	0.296435
322.000000	0.186647
323.000000	0.352397
324.000000	0.258486
325.000000	0.291914
326.000000	0.408575
327.000000	0.234309
328.000000	0.268634
329.000000	0.184159
330.000000	0.195464
331.000000	0.232187
332.000000	0.443145
333.000000	0.510719
334.000000	0.427031
335.000000	0.207864
336.000000	0.282298
337.000000	0.320513
338.000000	0.202650
339.000000	0.211578
340.000000	0.313359
341.000000	0.251151
342.000000	0.237329
343.000000	0.245497
344.000000	0.229299
345.000000	0.261930
346.000000	0.334329
347.000000	0.321637
348.000000	0.254605
349.000000	0.275210
350.000000	0.331278
351.000000	0.274972
352.000000	0.318195
353.000000	0.259864
354.000000	0.320541
355.000000	0.278204
356.000000	0.287467
357.000000	0.333474
358.000000	0.323876
359.000000	0.316553
360.000000	0.299268
361.000000	0.344099
362.000000	0.282215
363.000000	0.341369
364.000000	0.353191
365.000000	0.344315
366.000000	0.377355
367.000000	0.436110
368.000000	0.428168
369.000000	0.410416
370.000000	0.489295
371.000000	0.509696
372.000000	0.552027
373.000000	0.552999
374.000000	0.599807
375.000000	0.638018
376.000000	0.543720
377.000000	0.597142
378.000000	0.591981
379.000000	0.610895
380.000000	0.619065
381.000000	0.626758
382.000000	0.632496
383.000000	0.643842
384.000000	0.649076
385.000000	0.652265
386.000000	0.657242
387.000000	0.665691
388.000000	0.663586
389.000000	0.666612
390.000000	0.657334
391.000000	0.656923
392.000000	0.667332
393.000000	0.678611
394.000000	0.669116
395.000000	0.667632
396.000000	0.683806
397.000000	0.699145
398.000000	0.710478
399.000000	0.712464
400.000000	0.727362
401.000000	0.734891
402.000000	0.753523
403.000000	0.764856
404.000000	0.779106
405.000000	0.803163
406.000000	0.826960
407.000000	0.852691
408.000000	0.881655
409.000000	0.907318
410.000000	0.922380
411.000000	0.949728
412.000000	0.970360
413.000000	1.004098
414.000000	1.034933
415.000000	1.059317
416.000000	1.083550
417.000000	1.101525
418.000000	1.114482
419.000000	1.132088
420.000000	1.153214
421.000000	1.169545
422.000000	1.167048
423.000000	1.171932
424.000000	1.175199
425.000000	1.165461
426.000000	1.165435
427.000000	1.163109
428.000000	1.154301
429.000000	1.134494
430.000000	1.116234
431.000000	1.106368
432.000000	1.094508
433.000000	1.075067
434.000000	1.064809
435.000000	1.060649
436.000000	1.056807
437.000000	1.046249
438.000000	1.039535
439.000000	1.056312
440.000000	1.065709
441.000000	1.077106
442.000000	1.082581
443.000000	1.097412
444.000000	1.113238
445.000000	1.111092
446.000000	1.113001
447.000000	1.122472
448.000000	1.118591
449.000000	1.112219
450.000000	1.105269
451.000000	1.112256
452.000000	1.106512
453.000000	1.123539
454.000000	1.132565
455.000000	1.148136
456.000000	1.172670
457.000000	1.182200
458.000000	1.200682
459.000000	1.220641
460.000000	1.246043
461.000000	1.276813
462.000000	1.304488
463.000000	1.329471
464.000000	1.355819
465.000000	1.370973
466.000000	1.394867
467.000000	1.410352
468.000000	1.425155
469.000000	1.443924
470.000000	1.467318
471.000000	1.482469
472.000000	1.505718
473.000000	1.521979
474.000000	1.534749
475.000000	1.549506
476.000000	1.567092
477.000000	1.587172
478.000000	1.606895
479.000000	1.636647
480.000000	1.650342
481.000000	1.658775
482.000000	1.676157
483.000000	1.698494
484.000000	1.711913
485.000000	1.723899
486.000000	1.745654
487.000000	1.756252
488.000000	1.788671
489.000000	1.807407
490.000000	1.821672
491.000000	1.846969
492.000000	1.856996
493.000000	1.869876
494.000000	1.879574
495.000000	1.897265
496.000000	1.913421
497.000000	1.928471
498.000000	1.943984
499.000000	1.946682
500.000000	1.970425
501.000000	1.983829
502.000000	2.013860
503.000000	2.044687
504.000000	2.082102
505.000000	2.114476
506.000000	2.152957
507.000000	2.174312
508.000000	2.212630
509.000000	2.255950
510.000000	2.302907
511.000000	2.369943
512.000000	2.412521
513.000000	2.469217
514.000000	2.530410
515.000000	2.582984
516.000000	2.641134
517.000000	2.706050
518.000000	2.780713
519.000000	2.859213
520.000000	2.933464
521.000000	2.990795
522.000000	3.065330
523.000000	3.114684
524.000000	3.184451
525.000000	3.252305
526.000000	3.299883
527.000000	3.338125
528.000000	3.367585
529.000000	3.374627
530.000000	3.381595
531.000000	3.365545
532.000000	3.336774
533.000000	3.305094
534.000000	3.250948
535.000000	3.190476
536.000000	3.131751
537.000000	3.061778
538.000000	2.977759
539.000000	2.917193
540.000000	2.844357
541.000000	2.809735
542.000000	2.779141
543.000000	2.755501
544.000000	2.756297
545.000000	2.777652
546.000000	2.833615
547.000000	2.845861
548.000000	2.909110
549.000000	2.971435
550.000000	3.031693
551.000000	3.078474
552.000000	3.126027
553.000000	3.183001
554.000000	3.247447
555.000000	3.276693
556.000000	3.332766
557.000000	3.371206
558.000000	3.421144
559.000000	3.492475
560.000000	3.662107
561.000000	3.731886
562.000000	3.802381
563.000000	3.876116
564.000000	3.951221
565.000000	4.019443
566.000000	4.073023
567.000000	4.126341
568.000000	4.162277
569.000000	4.202336
570.000000	4.237884
571.000000	4.252955
572.000000	4.272257
573.000000	4.277654
574.000000	4.300163
575.000000	4.282456
576.000000	4.330783
577.000000	4.343263
578.000000	4.361782
579.000000	4.394047
580.000000	4.443961
581.000000	4.492596
582.000000	4.533545
583.000000	4.623299
584.000000	4.716108
585.000000	4.757791
586.000000	4.874297
587.000000	4.927208
588.000000	4.994056
589.000000	5.046169
590.000000	5.140315
591.000000	5.173671
592.000000	5.207940
593.000000	5.248831
594.000000	5.259571
595.000000	5.301678
596.000000	5.350729
597.000000	5.428879
598.000000	5.457273
599.000000	5.469649
600.000000	5.528209
601.000000	5.527235
602.000000	5.540325
603.000000	5.543478
604.000000	5.537231
605.000000	5.505922
606.000000	5.456494
607.000000	5.429704
608.000000	5.412993
609.000000	5.333424
610.000000	5.277367
611.000000	5.236717
612.000000	5.158876
613.000000	5.070479
614.000000	4.995210
615.000000	4.910803
616.000000	4.856186
617.000000	4.762012
618.000000	4.647699
619.000000	4.552955
620.000000	4.439024
621.000000	4.294626
622.000000	4.144861
623.000000	3.987016
624.000000	3.831936
625.000000	3.668233
626.000000	3.478662
627.000000	3.289138
628.000000	3.139522
629.000000	2.998520
630.000000	2.874839
631.000000	2.784181
632.000000	2.702741
633.000000	2.659958
634.000000	2.646241
635.000000	2.621763
636.000000	2.652915
637.000000	2.693231
638.000000	2.721558
639.000000	2.767227
640.000000	2.790442
641.000000	2.825047
642.000000	2.866873
643.000000	2.898442
644.000000	2.917646
645.000000	2.949783
646.000000	2.975944
647.000000	2.987499
648.000000	3.022085
649.000000	3.062449
650.000000	3.083834
651.000000	3.117401
652.000000	3.161919
653.000000	3.163532
654.000000	3.158213
655.000000	3.174527
656.000000	3.164842
657.000000	3.166139
658.000000	3.142887
659.000000	3.153689
660.000000	3.124182
661.000000	3.078411
662.000000	3.081290
663.000000	3.092981
664.000000	3.078846
665.000000	3.073960
666.000000	3.063564
667.000000	3.054813
668.000000	3.057593
669.000000	3.048052
670.000000	3.037501
671.000000	3.007450
672.000000	2.989548
673.000000	2.980968
674.000000	2.997545
675.000000	2.976419
676.000000	2.972546
677.000000	2.967586
678.000000	2.958733
679.000000	2.948171
680.000000	2.936888
681.000000	2.949380
682.000000	2.937354
683.000000	2.938717
684.000000	2.972681
685.000000	2.948602
686.000000	2.971063
687.000000	2.963911
688.000000	2.959999
689.000000	2.956492
690.000000	2.969149
691.000000	3.002141
692.000000	3.008101
693.000000	3.020320
694.000000	3.054081
695.000000	3.068767
696.000000	3.103276
697.000000	3.127622
698.000000	3.147522
699.000000	3.172357
700.000000	3.186547
701.000000	3.226672
702.000000	3.243450
703.000000	3.274572
704.000000	3.271139
705.000000	3.279945
706.000000	3.282627
707.000000	3.308298
708.000000	3.303283
709.000000	3.360407
710.000000	3.366610
711.000000	3.365732
712.000000	3.385094
713.000000	3.392074
714.000000	3.364442
715.000000	3.373190
716.000000	3.390786
717.000000	3.389619
718.000000	3.374319
719.000000	3.398790
720.000000	3.405029
721.000000	3.368922
722.000000	3.380525
723.000000	3.384895
724.000000	3.336208
725.000000	3.344811
726.000000	3.370702
727.000000	3.350716
728.000000	3.349439
729.000000	3.336016
730.000000	3.309848
731.000000	3.338702
732.000000	3.350966
733.000000	3.354274
734.000000	3.340890
735.000000	3.380377
736.000000	3.377689
737.000000	3.343461
738.000000	3.346431
739.000000	3.346713
740.000000	3.341828
741.000000	3.352520
742.000000	3.374404
743.000000	3.369294
744.000000	3.340718
745.000000	3.348041
746.000000	3.360222
747.000000	3.379150
748.000000	3.395603
749.000000	3.402688
750.000000	3.410458
751.000000	3.414491
752.000000	3.378791
753.000000	3.404822
754.000000	3.404476
755.000000	3.401060
756.000000	3.431393
757.000000	3.434357
758.000000	3.430703
759.000000	3.455745
760.000000	3.473240
761.000000	3.507253
762.000000	3.488140
763.000000	3.442048
764.000000	3.488295
765.000000	3.519554
766.000000	3.519854
767.000000	3.533819
768.000000	3.565023
769.000000	3.594255
770.000000	3.570750
771.000000	3.547356
772.000000	3.587283
773.000000	3.591230
774.000000	3.605355
775.000000	3.579142
776.000000	3.571481
777.000000	3.585661
778.000000	3.641950
779.000000	3.627373
780.000000	3.618570
781.000000	3.620239
782.000000	3.565953
783.000000	3.587410
784.000000	3.672252
785.000000	3.629681
786.000000	3.671145
787.000000	3.668236
788.000000	3.670052
789.000000	3.684064
790.000000	3.634318
791.000000	3.678072
792.000000	3.665997
793.000000	3.669011
794.000000	3.673734
795.000000	3.690609
796.000000	3.697397
797.000000	3.698942
798.000000	3.671187
799.000000	3.715241
800.000000	3.774750
801.000000	3.747555
802.000000	3.796213
803.000000	3.776043
804.000000	3.767555
805.000000	3.812293
806.000000	3.846181
807.000000	3.918197
808.000000	3.938205
809.000000	3.886995
810.000000	3.870388
811.000000	3.877835
812.000000	3.896743
813.000000	3.851364
814.000000	3.917153
815.000000	4.058645
816.000000	3.991108
817.000000	3.911172
818.000000	3.993117
819.000000	3.897923
820.000000	3.961113
821.000000	3.913156
822.000000	3.951084
823.000000	3.992072
824.000000	3.981605
825.000000	4.029051
826.000000	3.959277
827.000000	3.952040
828.000000	4.073662
829.000000	4.118173
830.000000	4.060297
831.000000	3.907553
832.000000	3.960653
833.000000	4.074210
834.000000	3.932800
835.000000	3.958041
836.000000	3.963133
837.000000	3.865263
838.000000	3.938750
839.000000	3.913364
840.000000	3.763811
841.000000	3.975951
842.000000	3.953303
843.000000	3.945370
844.000000	3.975557
845.000000	4.128495
846.000000	4.265082
847.000000	4.103253
848.000000	4.034668
849.000000	4.092724
850.000000	4.022905
851.000000	3.944167
852.000000	4.154021
853.000000	4.077050
854.000000	4.180284
855.000000	4.078362
856.000000	3.822695
857.000000	4.013612
858.000000	3.968687
859.000000	4.421650
860.000000	4.640044
861.000000	4.562110
862.000000	4.364067
863.000000	4.340812
864.000000	4.352453
865.000000	3.962064
866.000000	3.794301
867.000000	3.860078
868.000000	3.685992
869.000000	3.925413
870.000000	3.826445
871.000000	3.844905
872.000000	3.774902
873.000000	3.988401
874.000000	4.013857
875.000000	3.958697
876.000000	4.060786
877.000000	4.058675
878.000000	4.090374
879.000000	4.143597
880.000000	4.102712
881.000000	4.163739
882.000000	4.179648
883.000000	4.207095
884.000000	4.233016
885.000000	4.293588
886.000000	4.307046
887.000000	4.285028
888.000000	4.260357
889.000000	4.297403
890.000000	4.302389
891.000000	4.297993
892.000000	4.293383
893.000000	4.346730
894.000000	4.327511
895.000000	4.316334
896.000000	4.304175
897.000000	4.261621
898.000000	4.261308
899.000000	4.286431
900.000000	4.266890
901.000000	4.225758
902.000000	4.190372
903.000000	4.183537
904.000000	4.165026
905.000000	4.115285
906.000000	4.106106
907.000000	4.083813
908.000000	4.038599
909.000000	3.969007
910.000000	3.953220
911.000000	3.937535
912.000000	3.918430
913.000000	3.882356
914.000000	3.859274
915.000000	3.822271
916.000000	3.777731
917.000000	3.771937
918.000000	3.743398
919.000000	3.701328
920.000000	3.688132
921.000000	3.662283
922.000000	3.645930
923.000000	3.591753
924.000000	3.585736
925.000000	3.552045
926.000000	3.528432
927.000000	3.520061
928.000000	3.485618
929.000000	3.457261
930.000000	3.431035
931.000000	3.407998
932.000000	3.387583
933.000000	3.371103
934.000000	3.367830
935.000000	3.331172
936.000000	3.324245
937.000000	3.300024
938.000000	3.284732
939.000000	3.302100
940.000000	3.276634
941.000000	3.253032
942.000000	3.215734
943.000000	3.230466
944.000000	3.220169
945.000000	3.197715
946.000000	3.195982
947.000000	3.175409
948.000000	3.154770
949.000000	3.161800
950.000000	3.156418
951.000000	3.144715
952.000000	3.143663
953.000000	3.117020
954.000000	3.107491
955.000000	3.116934
956.000000	3.086870
957.000000	3.091984
958.000000	3.087665
959.000000	3.071604
960.000000	3.072702
961.000000	3.084916
962.000000	3.070295
963.000000	3.082835
964.000000	3.093774
965.000000	3.094891
966.000000	3.092320
967.000000	3.079299
968.000000	3.084500
969.000000	3.081190
970.000000	3.096442
971.000000	3.082086
972.000000	3.071601
973.000000	3.102454
974.000000	3.108688
975.000000	3.105328
976.000000	3.098540
977.000000	3.118321
978.000000	3.107769
979.000000	3.112551
980.000000	3.108421
981.000000	3.124396
982.000000	3.114769
983.000000	3.118265
984.000000	3.134813
985.000000	3.146582
986.000000	3.123384
987.000000	3.127767
988.000000	3.126466
989.000000	3.110604
990.000000	3.118139
991.000000	3.129735
992.000000	3.124233
993.000000	3.118664
994.000000	3.125912
995.000000	3.123606
996.000000	3.126497
997.000000	3.124505
998.000000	3.141324
999.000000	3.128567
1000.000000	3.136508
1001.000000	3.127564
1002.000000	3.130646
1003.000000	3.130429
1004.000000	3.135580
1005.000000	3.130343
1006.000000	3.125547
1007.000000	3.123838
1008.000000	3.135750
1009.000000	3.132324
1010.000000	3.149614
1011.000000	3.161239
1012.000000	3.159053
1013.000000	3.160412
1014.000000	3.154566
1015.000000	3.159364
1016.000000	3.161340
1017.000000	3.170914
1018.000000	3.177968
1019.000000	3.177084
1020.000000	3.189497
1021.000000	3.186664
1022.000000	3.188734
1023.000000	3.190753
1024.000000	3.197461
1025.000000	3.207213
1026.000000	3.215767
1027.000000	3.221778
1028.000000	3.248858
1029.000000	3.240398
1030.000000	3.259366
1031.000000	3.259770
1032.000000	3.248596
1033.000000	3.253192
1034.000000	3.262084
1035.000000	3.259736
1036.000000	3.282695
1037.000000	3.291156
1038.000000	3.302261
1039.000000	3.297394
1040.000000	3.306159
1041.000000	3.318908
1042.000000	3.319723
1043.000000	3.322417
1044.000000	3.342308
1045.000000	3.346577
1046.000000	3.356927
1047.000000	3.351372
1048.000000	3.342498
1049.000000	3.375583
1050.000000	3.372023
1051.000000	3.376290
1052.000000	3.388091
1053.000000	3.402886
1054.000000	3.413995
1055.000000	3.402804
1056.000000	3.395499
1057.000000	3.403896
1058.000000	3.410086
1059.000000	3.432270
1060.000000	3.436164
1061.000000	3.440265
1062.000000	3.453754
1063.000000	3.448131
1064.000000	3.460796
1065.000000	3.453454
1066.000000	3.465180
1067.000000	3.461210
1068.000000	3.461852
1069.000000	3.471795
1070.000000	3.472512
1071.000000	3.481511
1072.000000	3.483693
1073.000000	3.471480
1074.000000	3.476012
1075.000000	3.479276
1076.000000	3.496721
1077.000000	3.500274
1078.000000	3.501496
1079.000000	3.497684
1080.000000	3.493369
1081.000000	3.507939
1082.000000	3.510856
1083.000000	3.507267
1084.000000	3.489509
1085.000000	3.490866
1086.000000	3.506859
1087.000000	3.506604
1088.000000	3.511287
1089.000000	3.507643
1090.000000	3.516505
1091.000000	3.526710
1092.000000	3.502345
1093.000000	3.512701
1094.000000	3.508217
1095.000000	3.517974
1096.000000	3.512880
1097.000000	3.509426
1098.000000	3.512312
1099.000000	3.506867
1100.000000	3.512561
1101.000000	3.503594
1102.000000	3.508934
1103.000000	3.495323
1104.000000	3.505722
1105.000000	3.510915
1106.000000	3.508858
1107.000000	3.524391
1108.000000	3.510342
1109.000000	3.508829
1110.000000	3.511298
1111.000000	3.512600
1112.000000	3.518522
1113.000000	3.513056
1114.000000	3.524512
1115.000000	3.522215
1116.000000	3.539750
1117.000000	3.524947
1118.000000	3.531117
1119.000000	3.536020
1120.000000	3.538119
1121.000000	3.533766
1122.000000	3.539162
1123.000000	3.556136
1124.000000	3.551493
1125.000000	3.550523
1126.000000	3.554087
1127.000000	3.538232
1128.000000	3.542697
1129.000000	3.539520
1130.000000	3.536480
1131.000000	3.531423
1132.000000	3.524210
1133.000000	3.517341
1134.000000	3.532877
1135.000000	3.555709
1136.000000	3.542796
1137.000000	3.515064
1138.000000	3.516571
1139.000000	3.506910
1140.000000	3.497280
1141.000000	3.508574
1142.000000	3.513526
1143.000000	3.487389
1144.000000	3.502887
1145.000000	3.511741
1146.000000	3.508103
1147.000000	3.493089
1148.000000	3.498143
1149.000000	3.491601
1150.000000	3.504580
1151.000000	3.506409
1152.000000	3.500217
1153.000000	3.496411
1154.000000	3.498028
1155.000000	3.484093
1156.000000	3.477573
1157.000000	3.481824
1158.000000	3.475154
1159.000000	3.466012
1160.000000	3.455334
1161.000000	3.460621
1162.000000	3.446708
1163.000000	3.434193
1164.000000	3.433238
1165.000000	3.433749
1166.000000	3.428506
1167.000000	3.414231
1168.000000	3.402831
1169.000000	3.406001
1170.000000	3.387884
1171.000000	3.388944
1172.000000	3.399311
1173.000000	3.384995
1174.000000	3.373339
1175.000000	3.365059
1176.000000	3.360754
1177.000000	3.344868
1178.000000	3.350103
1179.000000	3.349038
1180.000000	3.335468
1181.000000	3.330998
1182.000000	3.320366
1183.000000	3.316438
1184.000000	3.320778
1185.000000	3.326428
1186.000000	3.322077
1187.000000	3.313289
1188.000000	3.308655
1189.000000	3.305100
1190.000000	3.307624
1191.000000	3.319702
1192.000000	3.313143
1193.000000	3.315066
1194.000000	3.325212
1195.000000	3.321732
1196.000000	3.337974
1197.000000	3.330212
1198.000000	3.335995
1199.000000	3.344985
1200.000000	3.360604
1201.000000	3.357289
1202.000000	3.368577
1203.000000	3.371942
1204.000000	3.371754
1205.000000	3.371263
1206.000000	3.370692
1207.000000	3.392739
1208.000000	3.385521
1209.000000	3.390443
1210.000000	3.400727
1211.000000	3.409789
1212.000000	3.403687
1213.000000	3.401654
1214.000000	3.402677
1215.000000	3.407753
1216.000000	3.420822
1217.000000	3.418535
1218.000000	3.412134
1219.000000	3.404821
1220.000000	3.412564
1221.000000	3.407426
1222.000000	3.408953
1223.000000	3.413912
1224.000000	3.425604
1225.000000	3.431904
1226.000000	3.433289
1227.000000	3.438303
1228.000000	3.438044
1229.000000	3.444441
1230.000000	3.462605
1231.000000	3.461338
1232.000000	3.462412
1233.000000	3.472264
1234.000000	3.475214
1235.000000	3.476315
1236.000000	3.491766
1237.000000	3.491297
1238.000000	3.495411
1239.000000	3.515915
1240.000000	3.521727
1241.000000	3.530205
1242.000000	3.529246
1243.000000	3.534917
1244.000000	3.544848
1245.000000	3.545331
1246.000000	3.564563
1247.000000	3.576464
1248.000000	3.579592
1249.000000	3.584536
1250.000000	3.583406
1251.000000	3.589374
1252.000000	3.604227
1253.000000	3.601159
1254.000000	3.593823
1255.000000	3.592556
1256.000000	3.596481
1257.000000	3.599862
1258.000000	3.602476
1259.000000	3.602326
1260.000000	3.608634
1261.000000	3.612095
1262.000000	3.615784
1263.000000	3.620702
1264.000000	3.619100
1265.000000	3.615744
1266.000000	3.611044
1267.000000	3.616755
1268.000000	3.619827
1269.000000	3.628953
1270.000000	3.628524
1271.000000	3.624826
1272.000000	3.625574
1273.000000	3.633357
1274.000000	3.637902
1275.000000	3.644544
1276.000000	3.647758
1277.000000	3.643481
1278.000000	3.650456
1279.000000	3.658849
1280.000000	3.651974
1281.000000	3.654032
1282.000000	3.663403
1283.000000	3.670748
1284.000000	3.673937
1285.000000	3.671067
1286.000000	3.684096
1287.000000	3.686814
1288.000000	3.690658
1289.000000	3.694033
1290.000000	3.695780
1291.000000	3.699189
1292.000000	3.705116
1293.000000	3.701754
1294.000000	3.697320
1295.000000	3.699622
1296.000000	3.698761
1297.000000	3.695724
1298.000000	3.702437
1299.000000	3.703768
1300.000000	3.700054
1301.000000	3.693853
1302.000000	3.689936
1303.000000	3.691783
1304.000000	3.691985
1305.000000	3.689742
1306.000000	3.673627
1307.000000	3.677095
1308.000000	3.687832
1309.000000	3.682357
1310.000000	3.671491
1311.000000	3.669728
1312.000000	3.669292
1313.000000	3.672456
1314.000000	3.666856
1315.000000	3.661696
1316.000000	3.655829
1317.000000	3.657864
1318.000000	3.653941
1319.000000	3.650794
1320.000000	3.650607
1321.000000	3.641731
1322.000000	3.630867
1323.000000	3.634052
1324.000000	3.639184
1325.000000	3.634983
1326.000000	3.629431
1327.000000	3.614252
1328.000000	3.615036
1329.000000	3.611990
1330.000000	3.592366
1331.000000	3.589433
1332.000000	3.593702
1333.000000	3.605080
1334.000000	3.587074
1335.000000	3.581334
1336.000000	3.577158
1337.000000	3.566973
1338.000000	3.558897
1339.000000	3.535390
1340.000000	3.533851
1341.000000	3.537230
1342.000000	3.515309
1343.000000	3.504523
1344.000000	3.495233
1345.000000	3.474004
1346.000000	3.462129
1347.000000	3.450751
1348.000000	3.458621
1349.000000	3.431019
1350.000000	3.396634
1351.000000	3.394556
1352.000000	3.399604
1353.000000	3.379570
1354.000000	3.352859
1355.000000	3.387396
1356.000000	3.373895
1357.000000	3.359196
1358.000000	3.332542
1359.000000	3.336553
1360.000000	3.351155
1361.000000	3.323529
1362.000000	3.412018
1363.000000	3.372194
1364.000000	3.322085
1365.000000	3.375812
1366.000000	3.350302
1367.000000	3.304372
1368.000000	3.335463
1369.000000	3.328965
1370.000000	3.294599
1371.000000	3.299714
1372.000000	3.314184
1373.000000	3.293801
1374.000000	3.256688
1375.000000	3.252667
1376.000000	3.236798
1377.000000	3.210959
1378.000000	3.216233
1379.000000	3.190794
1380.000000	3.190032
1381.000000	3.194865
1382.000000	3.213740
1383.000000	3.282403
1384.000000	3.246177
1385.000000	3.183340
1386.000000	3.161327
1387.000000	3.111250
1388.000000	3.107830
1389.000000	3.089816
1390.000000	3.066498
1391.000000	2.989827
1392.000000	3.021898
1393.000000	3.036408
1394.000000	2.976560
1395.000000	2.947932
1396.000000	2.994404
1397.000000	3.002013
1398.000000	2.931812
1399.000000	2.851700
1400.000000	2.863217
1401.000000	2.924068
1402.000000	2.887974
1403.000000	2.815475
1404.000000	2.773693
1405.000000	2.799620
1406.000000	2.755344
1407.000000	2.754273
1408.000000	2.696607
1409.000000	2.672410
1410.000000	2.669769
1411.000000	2.650330
1412.000000	2.613561
1413.000000	2.581465
1414.000000	2.568160
1415.000000	2.565867
1416.000000	2.552761
1417.000000	2.519686
1418.000000	2.517236
1419.000000	2.509639
1420.000000	2.496176
1421.000000	2.483702
1422.000000	2.461573
1423.000000	2.440424
1424.000000	2.439537
1425.000000	2.401633
1426.000000	2.389226
1427.000000	2.420970
1428.000000	2.401091
1429.000000	2.385962
1430.000000	2.377764
1431.000000	2.357116
1432.000000	2.376421
1433.000000	2.353071
1434.000000	2.346294
1435.000000	2.332206
1436.000000	2.321212
1437.000000	2.311248
1438.000000	2.319733
1439.000000	2.311357
1440.000000	2.302021
1441.000000	2.301337
1442.000000	2.294543
1443.000000	2.278993
1444.000000	2.269586
1445.000000	2.262684
1446.000000	2.263200
1447.000000	2.261502
1448.000000	2.250841
1449.000000	2.239782
1450.000000	2.239727
1451.000000	2.226931
1452.000000	2.220918
1453.000000	2.206492
1454.000000	2.204362
1455.000000	2.200918
1456.000000	2.177326
1457.000000	2.177800
1458.000000	2.173227
1459.000000	2.163326
1460.000000	2.146262
1461.000000	2.147253
1462.000000	2.134639
1463.000000	2.131156
1464.000000	2.124324
1465.000000	2.121905
1466.000000	2.113870
1467.000000	2.098488
1468.000000	2.094148
1469.000000	2.088621
1470.000000	2.090671
1471.000000	2.080720
1472.000000	2.077411
1473.000000	2.074215
1474.000000	2.063436
1475.000000	2.057597
1476.000000	2.047937
1477.000000	2.044631
1478.000000	2.043708
1479.000000	2.034713
1480.000000	2.029423
1481.000000	2.028030
1482.000000	2.020214
1483.000000	2.011338
1484.000000	2.015425
1485.000000	2.009915
1486.000000	2.009581
1487.000000	2.001718
1488.000000	2.005012
1489.000000	1.997787
1490.000000	2.008986
1491.000000	1.995280
1492.000000	1.980207
1493.000000	1.981143
1494.000000	1.979335
1495.000000	1.970273
1496.000000	1.977819
1497.000000	1.977801
1498.000000	1.969166
1499.000000	1.969577
1500.000000	1.988491
1501.000000	1.994106
1502.000000	1.987257
1503.000000	1.987606
1504.000000	1.985200
1505.000000	1.992064
1506.000000	2.000437
1507.000000	2.006032
1508.000000	2.009317
1509.000000	2.007613
1510.000000	2.010457
1511.000000	2.019951
1512.000000	2.020903
1513.000000	2.028766
1514.000000	2.027725
1515.000000	2.033741
1516.000000	2.047051
1517.000000	2.053017
1518.000000	2.042537
1519.000000	2.048850
1520.000000	2.050104
1521.000000	2.047892
1522.000000	2.056721
1523.000000	2.061087
1524.000000	2.070542
1525.000000	2.074342
1526.000000	2.080636
1527.000000	2.092070
1528.000000	2.087008
1529.000000	2.099712
1530.000000	2.103475
1531.000000	2.104843
1532.000000	2.109735
1533.000000	2.113697
1534.000000	2.120340
1535.000000	2.124503
1536.000000	2.130872
1537.000000	2.135771
1538.000000	2.141195
1539.000000	2.147079
1540.000000	2.148240
1541.000000	2.154119
1542.000000	2.152668
1543.000000	2.153597
1544.000000	2.167899
1545.000000	2.174925
1546.000000	2.184139
1547.000000	2.184845
1548.000000	2.191612
1549.000000	2.205375
1550.000000	2.221010
1551.000000	2.227880
1552.000000	2.226490
1553.000000	2.235752
1554.000000	2.235424
1555.000000	2.231512
1556.000000	2.243126
1557.000000	2.261259
1558.000000	2.258696
1559.000000	2.265316
1560.000000	2.263654
1561.000000	2.267147
1562.000000	2.267397
1563.000000	2.271761
1564.000000	2.272410
1565.000000	2.269937
1566.000000	2.266807
1567.000000	2.278675
1568.000000	2.276347
1569.000000	2.273327
1570.000000	2.273400
1571.000000	2.286400
1572.000000	2.281873
1573.000000	2.278883
1574.000000	2.274136
1575.000000	2.276573
1576.000000	2.285533
1577.000000	2.285173
1578.000000	2.281182
1579.000000	2.280647
1580.000000	2.282371
1581.000000	2.289974
1582.000000	2.295094
1583.000000	2.302420
1584.000000	2.293338
1585.000000	2.301457
1586.000000	2.306037
1587.000000	2.307351
1588.000000	2.308436
1589.000000	2.314825
1590.000000	2.311859
1591.000000	2.317026
1592.000000	2.320070
1593.000000	2.320162
1594.000000	2.329294
1595.000000	2.333849
1596.000000	2.338922
1597.000000	2.331118
1598.000000	2.351207
1599.000000	2.358226
1600.000000	2.354504
1601.000000	2.363296
1602.000000	2.358898
1603.000000	2.379076
1604.000000	2.384475
1605.000000	2.378102
1606.000000	2.385605
1607.000000	2.382541
1608.000000	2.385529
1609.000000	2.381519
1610.000000	2.401858
1611.000000	2.399564
1612.000000	2.410911
1613.000000	2.411297
1614.000000	2.401994
1615.000000	2.393469
1616.000000	2.400325
1617.000000	2.413834
1618.000000	2.412669
1619.000000	2.420128
1620.000000	2.408971
1621.000000	2.415997
1622.000000	2.402306
1623.000000	2.405259
1624.000000	2.418147
1625.000000	2.420850
1626.000000	2.427930
1627.000000	2.424083
1628.000000	2.431876
1629.000000	2.418745
1630.000000	2.434481
1631.000000	2.435510
1632.000000	2.430162
1633.000000	2.436882
1634.000000	2.447305
1635.000000	2.444194
1636.000000	2.436492
1637.000000	2.431409
1638.000000	2.442948
1639.000000	2.426647
1640.000000	2.443646
1641.000000	2.433596
1642.000000	2.438110
1643.000000	2.426834
1644.000000	2.425579
1645.000000	2.429341
1646.000000	2.427265
1647.000000	2.427763
1648.000000	2.428368
1649.000000	2.419582
1650.000000	2.411844
1651.000000	2.422275
1652.000000	2.417250
1653.000000	2.408219
1654.000000	2.408431
1655.000000	2.405112
1656.000000	2.393082
1657.000000	2.389026
1658.000000	2.376974
1659.000000	2.370909
1660.000000	2.368270
1661.000000	2.371137
1662.000000	2.359285
1663.000000	2.342453
1664.000000	2.333710
1665.000000	2.336512
1666.000000	2.316708
1667.000000	2.287373
1668.000000	2.295194
1669.000000	2.295477
1670.000000	2.285938
1671.000000	2.280041
1672.000000	2.260805
1673.000000	2.231757
1674.000000	2.230561
1675.000000	2.226194
1676.000000	2.196350
1677.000000	2.186129
1678.000000	2.179967
1679.000000	2.174598
1680.000000	2.165501
1681.000000	2.146401
1682.000000	2.118603
1683.000000	2.109062
1684.000000	2.104651
1685.000000	2.088008
1686.000000	2.072426
1687.000000	2.074634
1688.000000	2.063545
1689.000000	2.057741
1690.000000	2.084130
1691.000000	2.071267
1692.000000	2.075693
1693.000000	2.092831
1694.000000	2.088146
1695.000000	2.084292
1696.000000	2.097585
1697.000000	2.079979
1698.000000	2.085195
1699.000000	2.084353
1700.000000	2.089436
1701.000000	2.093047
1702.000000	2.088045
1703.000000	2.085046
1704.000000	2.082079
1705.000000	2.083886
1706.000000	2.092897
1707.000000	2.097983
1708.000000	2.084016
1709.000000	2.080252
1710.000000	2.056750
1711.000000	2.057972
1712.000000	2.059383
1713.000000	2.049977
1714.000000	2.032777
1715.000000	2.028652
1716.000000	2.018787
1717.000000	2.008660
1718.000000	2.005621
1719.000000	1.985050
1720.000000	1.981740
1721.000000	1.969943
1722.000000	1.976685
1723.000000	1.977049
1724.000000	1.965872
1725.000000	1.962388
1726.000000	1.974837
1727.000000	1.989577
1728.000000	1.982531
1729.000000	1.983828
1730.000000	1.985878
1731.000000	1.979253
1732.000000	1.970316
1733.000000	1.986535
1734.000000	1.997726
1735.000000	1.983351
1736.000000	1.982079
1737.000000	1.993498
1738.000000	1.997179
1739.000000	2.004882
1740.000000	2.015356
1741.000000	2.010419
1742.000000	2.022615
1743.000000	2.030673
1744.000000	2.040958
1745.000000	2.039690
1746.000000	2.042708
1747.000000	2.056122
1748.000000	2.053204
1749.000000	2.059471
1750.000000	2.063266
1751.000000	2.079569
1752.000000	2.077993
1753.000000	2.070276
1754.000000	2.066694
1755.000000	2.063550
1756.000000	2.076796
1757.000000	2.080800
1758.000000	2.075775
1759.000000	2.078128
1760.000000	2.089166
1761.000000	2.091146
1762.000000	2.099183
1763.000000	2.107483
1764.000000	2.113964
1765.000000	2.125584
1766.000000	2.131946
1767.000000	2.139119
1768.000000	2.135602
1769.000000	2.121893
1770.000000	2.125187
1771.000000	2.129902
1772.000000	2.131692
1773.000000	2.142257
1774.000000	2.149911
1775.000000	2.160201
1776.000000	2.165620
1777.000000	2.166488
1778.000000	2.171212
1779.000000	2.164832
1780.000000	2.160075
1781.000000	2.166400
1782.000000	2.167118
1783.000000	2.160615
1784.000000	2.169438
1785.000000	2.169431
1786.000000	2.178790
1787.000000	2.185919
1788.000000	2.178568
1789.000000	2.170077
1790.000000	2.179228
1791.000000	2.182292
1792.000000	2.182789
1793.000000	2.188893
1794.000000	2.194092
1795.000000	2.199638
1796.000000	2.195543
1797.000000	2.194297
1798.000000	2.183141
1799.000000	2.191979
1800.000000	2.208553
1801.000000	2.221320
1802.000000	2.224552
1803.000000	2.224954
1804.000000	2.205302
1805.000000	2.205082
1806.000000	2.232197
1807.000000	2.246782
1808.000000	2.246537
1809.000000	2.214463
1810.000000	2.215987
1811.000000	2.237564
1812.000000	2.259631
1813.000000	2.264532
1814.000000	2.232430
1815.000000	2.228054
1816.000000	2.256785
1817.000000	2.260108
1818.000000	2.249334
1819.000000	2.223623
1820.000000	2.255733
1821.000000	2.293259
1822.000000	2.322753
1823.000000	2.292744
1824.000000	2.241372
1825.000000	2.215942
1826.000000	2.269108
1827.000000	2.273852
1828.000000	2.273200
1829.000000	2.281370
1830.000000	2.302975
1831.000000	2.329537
1832.000000	2.308373
1833.000000	2.286549
1834.000000	2.253824
1835.000000	2.268859
1836.000000	2.312387
1837.000000	2.333902
1838.000000	2.338034
1839.000000	2.330888
1840.000000	2.328114
1841.000000	2.311338
1842.000000	2.405652
1843.000000	2.385818
1844.000000	2.348651
1845.000000	2.255573
1846.000000	2.234445
1847.000000	2.377008
1848.000000	2.456444
1849.000000	2.413275
1850.000000	2.368679
1851.000000	2.324549
1852.000000	2.262692
1853.000000	2.349792
1854.000000	2.390482
1855.000000	2.278299
1856.000000	2.308920
1857.000000	2.358654
1858.000000	2.281670
1859.000000	2.289887
1860.000000	2.400667
1861.000000	2.377089
1862.000000	2.277607
1863.000000	2.262289
1864.000000	2.312539
1865.000000	2.258940
1866.000000	2.157630
1867.000000	2.195110
1868.000000	2.264171
1869.000000	2.207248
1870.000000	2.214943
1871.000000	2.374162
1872.000000	2.297983
1873.000000	2.350195
1874.000000	2.326003
1875.000000	2.227757
1876.000000	2.224048
1877.000000	2.257638
1878.000000	2.180946
1879.000000	2.102850
1880.000000	2.073526
1881.000000	2.060816
1882.000000	2.013883
1883.000000	1.964688
1884.000000	1.988722
1885.000000	1.946695
1886.000000	1.945007
1887.000000	1.924654
1888.000000	1.837949
1889.000000	1.829692
1890.000000	1.817674
1891.000000	1.744813
1892.000000	1.731215
1893.000000	1.737387
1894.000000	1.713007
1895.000000	1.666018
1896.000000	1.592787
1897.000000	1.532495
1898.000000	1.523010
1899.000000	1.534041
1900.000000	1.582824
1901.000000	1.482906
1902.000000	1.492847
1903.000000	1.455322
1904.000000	1.408355
1905.000000	1.385752
1906.000000	1.413708
1907.000000	1.405137
1908.000000	1.358343
1909.000000	1.322710
1910.000000	1.273097
1911.000000	1.254057
1912.000000	1.218427
1913.000000	1.236988
1914.000000	1.269382
1915.000000	1.274322
1916.000000	1.232050
1917.000000	1.201596
1918.000000	1.164362
1919.000000	1.145148
1920.000000	1.164563
1921.000000	1.191073
1922.000000	1.160150
1923.000000	1.165264
1924.000000	1.156742
1925.000000	1.123089
1926.000000	1.117346
1927.000000	1.131674
1928.000000	1.144074
1929.000000	1.127898
1930.000000	1.127492
1931.000000	1.125993
1932.000000	1.106343
1933.000000	1.098902
1934.000000	1.091814
1935.000000	1.065925
1936.000000	1.080738
1937.000000	1.083563
1938.000000	1.082275
1939.000000	1.098837
1940.000000	1.108183
1941.000000	1.120233
1942.000000	1.099765
1943.000000	1.103489
1944.000000	1.093670
1945.000000	1.107393
1946.000000	1.110613
1947.000000	1.111656
1948.000000	1.113011
1949.000000	1.118936
1950.000000	1.130455
1951.000000	1.121456
1952.000000	1.139823
1953.000000	1.129859
1954.000000	1.145253
1955.000000	1.165713
1956.000000	1.160503
1957.000000	1.148798
1958.000000	1.166755
1959.000000	1.176012
1960.000000	1.181581
1961.000000	1.184407
1962.000000	1.194784
1963.000000	1.190098
1964.000000	1.178550
1965.000000	1.199285
1966.000000	1.199489
1967.000000	1.217582
1968.000000	1.231367
1969.000000	1.218797
1970.000000	1.220537
1971.000000	1.231818
1972.000000	1.225269
1973.000000	1.243447
1974.000000	1.245602
1975.000000	1.245385
1976.000000	1.258687
1977.000000	1.253569
1978.000000	1.274154
1979.000000	1.280629
1980.000000	1.293650
1981.000000	1.301855
1982.000000	1.305451
1983.000000	1.315249
1984.000000	1.321178
1985.000000	1.326383
1986.000000	1.336260
1987.000000	1.337662
1988.000000	1.351917
1989.000000	1.365300
1990.000000	1.368921
1991.000000	1.374405
1992.000000	1.378518
1993.000000	1.383857
1994.000000	1.388473
1995.000000	1.383166
1996.000000	1.399492
1997.000000	1.410797
1998.000000	1.425882
1999.000000	1.423760
2000.000000	1.438623
2001.000000	1.449813
2002.000000	1.445197
2003.000000	1.444402
2004.000000	1.441373
2005.000000	1.457537
2006.000000	1.444078
2007.000000	1.461813
2008.000000	1.470837
2009.000000	1.462056
2010.000000	1.477239
2011.000000	1.458917
2012.000000	1.448940
2013.000000	1.455173
2014.000000	1.472649
2015.000000	1.466656
2016.000000	1.472310
2017.000000	1.479985
2018.000000	1.473863
2019.000000	1.477589
2020.000000	1.468648
2021.000000	1.480273
2022.000000	1.470805
2023.000000	1.452961
2024.000000	1.467521
2025.000000	1.459933
2026.000000	1.466991
2027.000000	1.469988
2028.000000	1.469313
2029.000000	1.468203
2030.000000	1.451702
2031.000000	1.459144
2032.000000	1.448500
2033.000000	1.436157
2034.000000	1.438143
2035.000000	1.431817
2036.000000	1.430743
2037.000000	1.435537
2038.000000	1.412302
2039.000000	1.416580
2040.000000	1.425539
2041.000000	1.414039
2042.000000	1.404041
2043.000000	1.392724
2044.000000	1.394842
2045.000000	1.398054
2046.000000	1.390056
2047.000000	1.379774
2048.000000	1.368653
2049.000000	1.377293
2050.000000	1.376344
2051.000000	1.373370
2052.000000	1.366291
2053.000000	1.388701
2054.000000	1.385236
2055.000000	1.381622
2056.000000	1.409664
2057.000000	1.411208
2058.000000	1.411893
2059.000000	1.411507
2060.000000	1.420098
2061.000000	1.447069
2062.000000	1.444964
2063.000000	1.460873
2064.000000	1.465455
2065.000000	1.470371
2066.000000	1.490777
2067.000000	1.497313
2068.000000	1.513043
2069.000000	1.499958
2070.000000	1.521535
2071.000000	1.546748
2072.000000	1.559374
2073.000000	1.556826
2074.000000	1.554639
2075.000000	1.564640
2076.000000	1.561831
2077.000000	1.573309
2078.000000	1.589195
2079.000000	1.600180
2080.000000	1.568143
2081.000000	1.604940
2082.000000	1.621331
2083.000000	1.620010
2084.000000	1.594620
2085.000000	1.611393
2086.000000	1.596888
2087.000000	1.612996
2088.000000	1.676840
2089.000000	1.679552
2090.000000	1.623575
2091.000000	1.625375
2092.000000	1.640949
2093.000000	1.679164
2094.000000	1.647891
2095.000000	1.652115
2096.000000	1.695594
2097.000000	1.692830
2098.000000	1.642518
2099.000000	1.714093
2100.000000	1.659900
2101.000000	1.671438
2102.000000	1.704967
2103.000000	1.642012
2104.000000	1.642602
2105.000000	1.698957
2106.000000	1.671785
2107.000000	1.729376
2108.000000	1.681467
2109.000000	1.702315
2110.000000	1.699204
2111.000000	1.687379
2112.000000	1.713722
2113.000000	1.689404
2114.000000	1.734411
2115.000000	1.742893
2116.000000	1.727595
2117.000000	1.708214
2118.000000	1.649731
2119.000000	1.696519
2120.000000	1.681304
2121.000000	1.681623
2122.000000	1.724843
2123.000000	1.647583
2124.000000	1.734390
2125.000000	1.761683
2126.000000	1.666462
2127.000000	1.715054
2128.000000	1.727257
2129.000000	1.676717
2130.000000	1.699173
2131.000000	1.677915
2132.000000	1.731221
2133.000000	1.616257
2134.000000	1.713683
2135.000000	1.727274
2136.000000	1.699889
2137.000000	1.736871
2138.000000	1.667243
2139.000000	1.612213
2140.000000	1.624798
2141.000000	1.520183
2142.000000	1.658104
2143.000000	1.572579
2144.000000	1.587383
2145.000000	1.606344
2146.000000	1.695218
2147.000000	1.683617
2148.000000	1.545193
2149.000000	1.650227
2150.000000	1.508486
2151.000000	1.509187
2152.000000	1.562616
2153.000000	1.522662
2154.000000	1.546968
2155.000000	1.524987
2156.000000	1.519484
2157.000000	1.490515
2158.000000	1.471390
2159.000000	1.525296
2160.000000	1.530454
2161.000000	1.475995
2162.000000	1.473547
2163.000000	1.513902
2164.000000	1.461911
2165.000000	1.386635
2166.000000	1.456408
2167.000000	1.488941
2168.000000	1.457435
2169.000000	1.514053
2170.000000	1.552487
2171.000000	1.441508
2172.000000	1.403670
2173.000000	1.416207
2174.000000	1.387624
2175.000000	1.452983
2176.000000	1.447085
2177.000000	1.451835
2178.000000	1.502896
2179.000000	1.498754
2180.000000	1.417678
2181.000000	1.457857
2182.000000	1.390029
2183.000000	1.395461
2184.000000	1.431889
2185.000000	1.426221
2186.000000	1.477992
2187.000000	1.402257
2188.000000	1.455216
2189.000000	1.487136
2190.000000	1.519049
2191.000000	1.502889
2192.000000	1.434864
2193.000000	1.415308
2194.000000	1.448392
2195.000000	1.395040
2196.000000	1.339025
2197.000000	1.381268
2198.000000	1.400702
2199.000000	1.395694
2200.000000	1.465965
2201.000000	1.514899
2202.000000	1.418078
2203.000000	1.438738
2204.000000	1.485369
2205.000000	1.466798
2206.000000	1.437012
2207.000000	1.471079
2208.000000	1.446537
2209.000000	1.455278
2210.000000	1.470035
2211.000000	1.443625
2212.000000	1.486948
2213.000000	1.451754
2214.000000	1.476532
2215.000000	1.495272
2216.000000	1.509814
2217.000000	1.529722
2218.000000	1.515052
2219.000000	1.522345
2220.000000	1.524023
2221.000000	1.497047
2222.000000	1.533992
2223.000000	1.534920
2224.000000	1.557383
2225.000000	1.593559
2226.000000	1.570944
2227.000000	1.599800
2228.000000	1.576699
2229.000000	1.596138
2230.000000	1.560553
2231.000000	1.577306
2232.000000	1.550460
2233.000000	1.628779
2234.000000	1.578577
2235.000000	1.518930
2236.000000	1.603722
2237.000000	1.613140
2238.000000	1.587778
2239.000000	1.544957
2240.000000	1.566022
2241.000000	1.564110
2242.000000	1.497931
2243.000000	1.519493
2244.000000	1.479944
2245.000000	1.489966
2246.000000	1.487778
2247.000000	1.451936
2248.000000	1.503700
2249.000000	1.517458
2250.000000	1.510925
2251.000000	1.516005
2252.000000	1.504780
2253.000000	1.455906
2254.000000	1.484659
2255.000000	1.489659
2256.000000	1.396539
2257.000000	1.386995
2258.000000	1.395226
2259.000000	1.405879
2260.000000	1.404284
2261.000000	1.396427
2262.000000	1.456180
2263.000000	1.505622
2264.000000	1.389183
2265.000000	1.371940
2266.000000	1.419932
2267.000000	1.376382
2268.000000	1.392544
2269.000000	1.455144
2270.000000	1.460797
2271.000000	1.395431
2272.000000	1.378066
2273.000000	1.468676
2274.000000	1.480251
2275.000000	1.437044
2276.000000	1.387540
2277.000000	1.483550
2278.000000	1.482579
2279.000000	1.315791
2280.000000	1.315651
2281.000000	1.424173
2282.000000	1.356030
2283.000000	1.373696
2284.000000	1.495357
2285.000000	1.432843
2286.000000	1.389418
2287.000000	1.380003
2288.000000	1.495558
2289.000000	1.431923
2290.000000	1.455756
2291.000000	1.455237
2292.000000	1.408231
2293.000000	1.440875
2294.000000	1.430974
2295.000000	1.445527
2296.000000	1.439018
2297.000000	1.436190
2298.000000	1.438012
2299.000000	1.459388
2300.000000	1.483141
2301.000000	1.571034
2302.000000	1.534897
2303.000000	1.595092
2304.000000	1.579228
2305.000000	1.384208
2306.000000	1.448346
2307.000000	1.534154
2308.000000	1.437651
2309.000000	1.484419
2310.000000	1.588292
2311.000000	1.559657
2312.000000	1.542913
2313.000000	1.599307
2314.000000	1.640991
2315.000000	1.650328
2316.000000	1.579010
2317.000000	1.689491
2318.000000	1.800559
2319.000000	1.764697
2320.000000	1.634940
2321.000000	1.571411
2322.000000	1.645512
2323.000000	1.667337
2324.000000	1.844045
2325.000000	1.742868
2326.000000	1.665779
2327.000000	1.845075
2328.000000	1.744528
2329.000000	1.528582
2330.000000	1.586473
2331.000000	1.665462
2332.000000	1.705803
2333.000000	1.824665
2334.000000	1.905258
2335.000000	1.753105
2336.000000	1.906848
2337.000000	1.741081
2338.000000	1.705734
2339.000000	2.035075
2340.000000	1.910516
2341.000000	2.044459
2342.000000	1.922360
2343.000000	1.730741
2344.000000	1.751616
2345.000000	1.716263
2346.000000	1.819075
2347.000000	1.586026
2348.000000	1.954991
2349.000000	1.897083
2350.000000	2.065925
2351.000000	1.915027
2352.000000	1.953064
2353.000000	1.861398
2354.000000	1.849248
2355.000000	1.902173
2356.000000	1.974505
2357.000000	2.016397
2358.000000	2.187744
2359.000000	2.123782
2360.000000	2.029368
2361.000000	1.955107
2362.000000	2.171692
2363.000000	2.451406
2364.000000	2.280034
2365.000000	1.981690
2366.000000	1.948816
2367.000000	2.093862
2368.000000	1.873062
2369.000000	1.937253
2370.000000	2.361268
2371.000000	2.229332
2372.000000	2.391555
2373.000000	2.200941
2374.000000	2.191936
2375.000000	2.183483
2376.000000	1.939939
2377.000000	2.031776
2378.000000	1.982241
2379.000000	2.146110
2380.000000	2.208740
2381.000000	2.185661
2382.000000	2.245842
2383.000000	2.181432
2384.000000	2.183738
2385.000000	2.293134
2386.000000	2.094097
2387.000000	2.280640
2388.000000	2.131301
2389.000000	2.150668
2390.000000	2.449062
2391.000000	2.652756
2392.000000	2.010998
2393.000000	2.236567
2394.000000	2.020938
2395.000000	2.356563
2396.000000	1.991455
2397.000000	2.115134
2398.000000	2.518962
2399.000000	2.458347
2400.000000	1.840756
2401.000000	1.312875
2402.000000	1.304197
2403.000000	1.299391
2404.000000	1.294785
2405.000000	1.288243
2406.000000	1.302714
2407.000000	1.315521
2408.000000	1.291603
2409.000000	1.263113
2410.000000	1.231346
2411.000000	1.213269
2412.000000	1.211745
2413.000000	1.200301
2414.000000	1.199640
2415.000000	1.201478
2416.000000	1.202954
2417.000000	1.195785
2418.000000	1.199757
2419.000000	1.212580
2420.000000	1.213563
2421.000000	1.205547
2422.000000	1.211772
2423.000000	1.219934
2424.000000	1.209009
2425.000000	1.197367
2426.000000	1.206683
2427.000000	1.201585
2428.000000	1.197967
2429.000000	1.191268
2430.000000	1.198881
2431.000000	1.196269
2432.000000	1.199626
2433.000000	1.192879
2434.000000	1.192438
2435.000000	1.192832
2436.000000	1.197002
2437.000000	1.199078
2438.000000	1.182722
2439.000000	1.172368
2440.000000	1.181876
2441.000000	1.174956
2442.000000	1.161928
2443.000000	1.162728
2444.000000	1.173947
2445.000000	1.166117
2446.000000	1.177636
2447.000000	1.177989
2448.000000	1.174027
2449.000000	1.159020
2450.000000	1.168576
2451.000000	1.191098
2452.000000	1.198629
2453.000000	1.181939
2454.000000	1.169383
2455.000000	1.169196
2456.000000	1.172421
2457.000000	1.207544
2458.000000	1.183209
2459.000000	1.184700
2460.000000	1.200594
2461.000000	1.208888
2462.000000	1.184609
2463.000000	1.212851
2464.000000	1.210904
2465.000000	1.253109
2466.000000	1.239330
2467.000000	1.223508
2468.000000	1.249585
2469.000000	1.240651
2470.000000	1.243454
2471.000000	1.246690
2472.000000	1.232318
2473.000000	1.231306
2474.000000	1.255931
2475.000000	1.267696
2476.000000	1.253507
2477.000000	1.303065
2478.000000	1.272236
2479.000000	1.288101
2480.000000	1.264164
2481.000000	1.257212
2482.000000	1.305390
2483.000000	1.282392
2484.000000	1.287997
2485.000000	1.253188
2486.000000	1.283164
2487.000000	1.336653
2488.000000	1.302241
2489.000000	1.288831
2490.000000	1.330194
2491.000000	1.307519
2492.000000	1.293755
2493.000000	1.356019
2494.000000	1.331856
2495.000000	1.301512
2496.000000	1.321227
2497.000000	1.430634
2498.000000	1.296720
2499.000000	1.295960
2500.000000	1.349192
