PE UV       SUBTECH     SPECTRUM    ASCII       PEDS        4.00        
   -1
CICIMAUCR0116-3.Sample.ASC
24/04/11
14:13:42.00
24/04/11
14:13:42.00
Vinicio Soto Monge
C. kalinini
250,000000
1
Lambda 1050
1050L1511233
PerkinElmer UV WinLab 6.3.2.0749 / 2.02.05 Lambda 900 UV/VIS/NIR, Aug  7 2015 09:38:08

0
0
3350/2 860,8/2
0
0
UV/VIS
1
1
1
DoubleDePol,CommonBeamDepol,RBeamAtt,SBeamAtt,60mm sphere, WB InGaAs Detector
0
0
0
0
Program
Program
3350/2 860,8/2
3350/0,2 860,8/0,2
3350/0,2 860,8/0,2
0
15.00
 
 
 
0
 
860,8
319,2
860,8
Front
100
on
S:100 R:100
0
0
0
0
 
0
 
 
 
0
 
 
0
0
0
0
0
 
 
 
 
0
0


0
0
#HDR
-1
-1
#GR
nm
%R
1.0
0.0
2400,000000
-1,000000
2151
8
95,435400
5,183200
#DATA
250.000000	0.450609
251.000000	0.466766
252.000000	0.446728
253.000000	0.412660
254.000000	0.430406
255.000000	0.416573
256.000000	0.378969
257.000000	0.400784
258.000000	0.411693
259.000000	0.395009
260.000000	0.359659
261.000000	0.382608
262.000000	0.391090
263.000000	0.411834
264.000000	0.389417
265.000000	0.364635
266.000000	0.375181
267.000000	0.378457
268.000000	0.403249
269.000000	0.367895
270.000000	0.355495
271.000000	0.377243
272.000000	0.412113
273.000000	0.356646
274.000000	0.373873
275.000000	0.374731
276.000000	0.365426
277.000000	0.408974
278.000000	0.349860
279.000000	0.367571
280.000000	0.354120
281.000000	0.397316
282.000000	0.364448
283.000000	0.392506
284.000000	0.405065
285.000000	0.389613
286.000000	0.392927
287.000000	0.362476
288.000000	0.357238
289.000000	0.352141
290.000000	0.394724
291.000000	0.372234
292.000000	0.379354
293.000000	0.375895
294.000000	0.384569
295.000000	0.402871
296.000000	0.391862
297.000000	0.384005
298.000000	0.388828
299.000000	0.382589
300.000000	0.383916
301.000000	0.394920
302.000000	0.381482
303.000000	0.390950
304.000000	0.420184
305.000000	0.423419
306.000000	0.424539
307.000000	0.381170
308.000000	0.390781
309.000000	0.380205
310.000000	0.363436
311.000000	0.384829
312.000000	0.388676
313.000000	0.384331
314.000000	0.404477
315.000000	0.387776
316.000000	0.565476
317.000000	0.668340
318.000000	0.615398
319.000000	0.498852
320.000000	0.495904
321.000000	0.508611
322.000000	0.582735
323.000000	0.559189
324.000000	0.577834
325.000000	0.547163
326.000000	0.625614
327.000000	0.515512
328.000000	0.362758
329.000000	0.480037
330.000000	0.419440
331.000000	0.337342
332.000000	0.451749
333.000000	0.511719
334.000000	0.439633
335.000000	0.386017
336.000000	0.401867
337.000000	0.373758
338.000000	0.363682
339.000000	0.433471
340.000000	0.391392
341.000000	0.365690
342.000000	0.403864
343.000000	0.419997
344.000000	0.384014
345.000000	0.354331
346.000000	0.403462
347.000000	0.404397
348.000000	0.369060
349.000000	0.374410
350.000000	0.367590
351.000000	0.405934
352.000000	0.474016
353.000000	0.414603
354.000000	0.336182
355.000000	0.358357
356.000000	0.391983
357.000000	0.335611
358.000000	0.392438
359.000000	0.433001
360.000000	0.386803
361.000000	0.328314
362.000000	0.337429
363.000000	0.406736
364.000000	0.435386
365.000000	0.420458
366.000000	0.450513
367.000000	0.413615
368.000000	0.394522
369.000000	0.423725
370.000000	0.378667
371.000000	0.314540
372.000000	0.344833
373.000000	0.347908
374.000000	0.392791
375.000000	0.362458
376.000000	0.381041
377.000000	0.420822
378.000000	0.399683
379.000000	0.404801
380.000000	0.412186
381.000000	0.402185
382.000000	0.403088
383.000000	0.414217
384.000000	0.416609
385.000000	0.407549
386.000000	0.401681
387.000000	0.413295
388.000000	0.424469
389.000000	0.427262
390.000000	0.424486
391.000000	0.429219
392.000000	0.452711
393.000000	0.480301
394.000000	0.502612
395.000000	0.527014
396.000000	0.559577
397.000000	0.597915
398.000000	0.637486
399.000000	0.677642
400.000000	0.725740
401.000000	0.789676
402.000000	0.851349
403.000000	0.904791
404.000000	0.960296
405.000000	1.026130
406.000000	1.098571
407.000000	1.166992
408.000000	1.230892
409.000000	1.300682
410.000000	1.384514
411.000000	1.462846
412.000000	1.535996
413.000000	1.627431
414.000000	1.698055
415.000000	1.777600
416.000000	1.848105
417.000000	1.910978
418.000000	2.000610
419.000000	2.070105
420.000000	2.143236
421.000000	2.214986
422.000000	2.276482
423.000000	2.347975
424.000000	2.400447
425.000000	2.461358
426.000000	2.509863
427.000000	2.542098
428.000000	2.573835
429.000000	2.621875
430.000000	2.656124
431.000000	2.667378
432.000000	2.707418
433.000000	2.713749
434.000000	2.707988
435.000000	2.701911
436.000000	2.708139
437.000000	2.700772
438.000000	2.686089
439.000000	2.670855
440.000000	2.653835
441.000000	2.630330
442.000000	2.615131
443.000000	2.599013
444.000000	2.562110
445.000000	2.523089
446.000000	2.488625
447.000000	2.459415
448.000000	2.448057
449.000000	2.423153
450.000000	2.388620
451.000000	2.352640
452.000000	2.336201
453.000000	2.304004
454.000000	2.292265
455.000000	2.259604
456.000000	2.252813
457.000000	2.258937
458.000000	2.244458
459.000000	2.236681
460.000000	2.230819
461.000000	2.191907
462.000000	2.208708
463.000000	2.204845
464.000000	2.191364
465.000000	2.210599
466.000000	2.186291
467.000000	2.185012
468.000000	2.160128
469.000000	2.169229
470.000000	2.148799
471.000000	2.121766
472.000000	2.108416
473.000000	2.077479
474.000000	2.023477
475.000000	1.996937
476.000000	1.946401
477.000000	1.912615
478.000000	1.863950
479.000000	1.780559
480.000000	1.741289
481.000000	1.683313
482.000000	1.593020
483.000000	1.511237
484.000000	1.427169
485.000000	1.325584
486.000000	1.249868
487.000000	1.122827
488.000000	1.033684
489.000000	0.963135
490.000000	0.920561
491.000000	0.858333
492.000000	0.850645
493.000000	0.879884
494.000000	0.939310
495.000000	1.041404
496.000000	1.150577
497.000000	1.294979
498.000000	1.418425
499.000000	1.585813
500.000000	1.763436
501.000000	1.924845
502.000000	2.108071
503.000000	2.270441
504.000000	2.444376
505.000000	2.638370
506.000000	2.815670
507.000000	2.981708
508.000000	3.161655
509.000000	3.338778
510.000000	3.503761
511.000000	3.660652
512.000000	3.803252
513.000000	3.929041
514.000000	4.037475
515.000000	4.134150
516.000000	4.211565
517.000000	4.273417
518.000000	4.321511
519.000000	4.341702
520.000000	4.351866
521.000000	4.360571
522.000000	4.349903
523.000000	4.341217
524.000000	4.313009
525.000000	4.292939
526.000000	4.275824
527.000000	4.253991
528.000000	4.252012
529.000000	4.232284
530.000000	4.205786
531.000000	4.189016
532.000000	4.168296
533.000000	4.147304
534.000000	4.142328
535.000000	4.125907
536.000000	4.125880
537.000000	4.110375
538.000000	4.107639
539.000000	4.108410
540.000000	4.124735
541.000000	4.126601
542.000000	4.140401
543.000000	4.146292
544.000000	4.157088
545.000000	4.184973
546.000000	4.219223
547.000000	4.249444
548.000000	4.283549
549.000000	4.305333
550.000000	4.338254
551.000000	4.356088
552.000000	4.408342
553.000000	4.456109
554.000000	4.486627
555.000000	4.544805
556.000000	4.571507
557.000000	4.606189
558.000000	4.632294
559.000000	4.675806
560.000000	4.660985
561.000000	4.686297
562.000000	4.712796
563.000000	4.735542
564.000000	4.768482
565.000000	4.789471
566.000000	4.815159
567.000000	4.864849
568.000000	4.868453
569.000000	4.895932
570.000000	4.903838
571.000000	4.912781
572.000000	4.966746
573.000000	5.005934
574.000000	5.011221
575.000000	5.031616
576.000000	5.093485
577.000000	5.107750
578.000000	5.130646
579.000000	5.134743
580.000000	5.170954
581.000000	5.203360
582.000000	5.224385
583.000000	5.241185
584.000000	5.288790
585.000000	5.297997
586.000000	5.311455
587.000000	5.343083
588.000000	5.360577
589.000000	5.332168
590.000000	5.347731
591.000000	5.330697
592.000000	5.328639
593.000000	5.297754
594.000000	5.255553
595.000000	5.253958
596.000000	5.232081
597.000000	5.151320
598.000000	5.090674
599.000000	5.037908
600.000000	4.956532
601.000000	4.847029
602.000000	4.765346
603.000000	4.681395
604.000000	4.601529
605.000000	4.497161
606.000000	4.400087
607.000000	4.306179
608.000000	4.233435
609.000000	4.151403
610.000000	4.049822
611.000000	3.945754
612.000000	3.853732
613.000000	3.732764
614.000000	3.643263
615.000000	3.541887
616.000000	3.444955
617.000000	3.360834
618.000000	3.273597
619.000000	3.174708
620.000000	3.084861
621.000000	3.035661
622.000000	2.952293
623.000000	2.867829
624.000000	2.866301
625.000000	2.855441
626.000000	2.831455
627.000000	2.872902
628.000000	2.952711
629.000000	3.050945
630.000000	3.138902
631.000000	3.273756
632.000000	3.394042
633.000000	3.547228
634.000000	3.654215
635.000000	3.767887
636.000000	3.901853
637.000000	4.036613
638.000000	4.105183
639.000000	4.182496
640.000000	4.242607
641.000000	4.282921
642.000000	4.299295
643.000000	4.330828
644.000000	4.338490
645.000000	4.334786
646.000000	4.337384
647.000000	4.313154
648.000000	4.315479
649.000000	4.321298
650.000000	4.262771
651.000000	4.250434
652.000000	4.255692
653.000000	4.222260
654.000000	4.207422
655.000000	4.164723
656.000000	4.093717
657.000000	4.071588
658.000000	4.014402
659.000000	3.943626
660.000000	3.883832
661.000000	3.832467
662.000000	3.764316
663.000000	3.721558
664.000000	3.657843
665.000000	3.598862
666.000000	3.568421
667.000000	3.533815
668.000000	3.522102
669.000000	3.550407
670.000000	3.563502
671.000000	3.619130
672.000000	3.714222
673.000000	3.820862
674.000000	3.928870
675.000000	4.007215
676.000000	4.146757
677.000000	4.298217
678.000000	4.430808
679.000000	4.551758
680.000000	4.689926
681.000000	4.832442
682.000000	4.950559
683.000000	5.070120
684.000000	5.165455
685.000000	5.258571
686.000000	5.333090
687.000000	5.426800
688.000000	5.556317
689.000000	5.651725
690.000000	5.723037
691.000000	5.815666
692.000000	5.878788
693.000000	5.926340
694.000000	5.993584
695.000000	6.057759
696.000000	6.074428
697.000000	6.079854
698.000000	6.091250
699.000000	6.169699
700.000000	6.147161
701.000000	6.121546
702.000000	6.095363
703.000000	6.053583
704.000000	6.023214
705.000000	5.971230
706.000000	5.904215
707.000000	5.896590
708.000000	5.852483
709.000000	5.788553
710.000000	5.743720
711.000000	5.670901
712.000000	5.631714
713.000000	5.616441
714.000000	5.534596
715.000000	5.519567
716.000000	5.489129
717.000000	5.439171
718.000000	5.463217
719.000000	5.479662
720.000000	5.460223
721.000000	5.421512
722.000000	5.380944
723.000000	5.447235
724.000000	5.441822
725.000000	5.394669
726.000000	5.374669
727.000000	5.380122
728.000000	5.315677
729.000000	5.358465
730.000000	5.330923
731.000000	5.380398
732.000000	5.392396
733.000000	5.314182
734.000000	5.296198
735.000000	5.384886
736.000000	5.314529
737.000000	5.319613
738.000000	5.273445
739.000000	5.277265
740.000000	5.325547
741.000000	5.295982
742.000000	5.246786
743.000000	5.285118
744.000000	5.272212
745.000000	5.264868
746.000000	5.266011
747.000000	5.264789
748.000000	5.254962
749.000000	5.142472
750.000000	5.176229
751.000000	5.115538
752.000000	5.161862
753.000000	5.159015
754.000000	5.195843
755.000000	5.150281
756.000000	5.177819
757.000000	5.121947
758.000000	5.191123
759.000000	5.099075
760.000000	5.184445
761.000000	5.219738
762.000000	5.180100
763.000000	5.199460
764.000000	5.236910
765.000000	5.287170
766.000000	5.250593
767.000000	5.380260
768.000000	5.371316
769.000000	5.343331
770.000000	5.493328
771.000000	5.528752
772.000000	5.490991
773.000000	5.581585
774.000000	5.647574
775.000000	5.740772
776.000000	5.769156
777.000000	5.743190
778.000000	5.827117
779.000000	5.865156
780.000000	5.857799
781.000000	5.968907
782.000000	6.002087
783.000000	6.072632
784.000000	6.081184
785.000000	6.190669
786.000000	6.206339
787.000000	6.254529
788.000000	6.224180
789.000000	6.371648
790.000000	6.469890
791.000000	6.477183
792.000000	6.498361
793.000000	6.527581
794.000000	6.634130
795.000000	6.637140
796.000000	6.571328
797.000000	6.744775
798.000000	6.707217
799.000000	6.735879
800.000000	6.652306
801.000000	6.687913
802.000000	6.649632
803.000000	6.598022
804.000000	6.784442
805.000000	6.801423
806.000000	6.686457
807.000000	6.678174
808.000000	6.703096
809.000000	6.623261
810.000000	6.738154
811.000000	6.777300
812.000000	6.817308
813.000000	6.784814
814.000000	6.691251
815.000000	6.541232
816.000000	6.660857
817.000000	6.706196
818.000000	6.733165
819.000000	6.693425
820.000000	6.629417
821.000000	6.509140
822.000000	6.567305
823.000000	6.702418
824.000000	6.711281
825.000000	6.579359
826.000000	6.593324
827.000000	6.592827
828.000000	6.580987
829.000000	6.536746
830.000000	6.591762
831.000000	6.565009
832.000000	6.592414
833.000000	6.580754
834.000000	6.691629
835.000000	6.543850
836.000000	6.572080
837.000000	6.493553
838.000000	6.569843
839.000000	6.342843
840.000000	6.398066
841.000000	6.392927
842.000000	6.170294
843.000000	6.145158
844.000000	6.075914
845.000000	6.204546
846.000000	6.087845
847.000000	6.085785
848.000000	6.027471
849.000000	5.792829
850.000000	6.001851
851.000000	6.084754
852.000000	6.071420
853.000000	5.902188
854.000000	5.529565
855.000000	5.271724
856.000000	5.569370
857.000000	5.729549
858.000000	4.285928
859.000000	5.986861
860.000000	6.137602
861.000000	6.264272
862.000000	5.596262
863.000000	5.497125
864.000000	5.298721
865.000000	5.147173
866.000000	4.840386
867.000000	5.276572
868.000000	4.946294
869.000000	4.974229
870.000000	4.784101
871.000000	4.738601
872.000000	4.824259
873.000000	4.732124
874.000000	5.016678
875.000000	4.920551
876.000000	4.653777
877.000000	4.653552
878.000000	4.544814
879.000000	4.346320
880.000000	4.411122
881.000000	4.435446
882.000000	4.618729
883.000000	4.611928
884.000000	4.400590
885.000000	4.538562
886.000000	4.377376
887.000000	4.113814
888.000000	4.049279
889.000000	4.134663
890.000000	4.278112
891.000000	4.335827
892.000000	4.078764
893.000000	4.153353
894.000000	4.369346
895.000000	4.251791
896.000000	4.261671
897.000000	4.192153
898.000000	4.041970
899.000000	4.031149
900.000000	4.082443
901.000000	4.286058
902.000000	4.230521
903.000000	4.071476
904.000000	4.041553
905.000000	4.153362
906.000000	4.163404
907.000000	4.131078
908.000000	4.006470
909.000000	3.810607
910.000000	3.861274
911.000000	3.886512
912.000000	3.906191
913.000000	3.892899
914.000000	3.850988
915.000000	3.963498
916.000000	3.926941
917.000000	3.906436
918.000000	3.927860
919.000000	3.859067
920.000000	3.874040
921.000000	3.834174
922.000000	3.689995
923.000000	3.628679
924.000000	3.694057
925.000000	3.686355
926.000000	3.566335
927.000000	3.498246
928.000000	3.536152
929.000000	3.501008
930.000000	3.488766
931.000000	3.577061
932.000000	3.600772
933.000000	3.605572
934.000000	3.588153
935.000000	3.498203
936.000000	3.532741
937.000000	3.588595
938.000000	3.575548
939.000000	3.589177
940.000000	3.597897
941.000000	3.572770
942.000000	3.541580
943.000000	3.510958
944.000000	3.532625
945.000000	3.561943
946.000000	3.561047
947.000000	3.580342
948.000000	3.562203
949.000000	3.592271
950.000000	3.585609
951.000000	3.580602
952.000000	3.569808
953.000000	3.528618
954.000000	3.532055
955.000000	3.514402
956.000000	3.477674
957.000000	3.482965
958.000000	3.561791
959.000000	3.507648
960.000000	3.436275
961.000000	3.398100
962.000000	3.280139
963.000000	3.270562
964.000000	3.266076
965.000000	3.220472
966.000000	3.155400
967.000000	3.096387
968.000000	2.999931
969.000000	2.954896
970.000000	2.909826
971.000000	2.903364
972.000000	2.845411
973.000000	2.799383
974.000000	2.751677
975.000000	2.713325
976.000000	2.674105
977.000000	2.634538
978.000000	2.583942
979.000000	2.584332
980.000000	2.513910
981.000000	2.490283
982.000000	2.509662
983.000000	2.455697
984.000000	2.421133
985.000000	2.384722
986.000000	2.386115
987.000000	2.348398
988.000000	2.287902
989.000000	2.276872
990.000000	2.269750
991.000000	2.263441
992.000000	2.270059
993.000000	2.209106
994.000000	2.215567
995.000000	2.224288
996.000000	2.202602
997.000000	2.178893
998.000000	2.145391
999.000000	2.114649
1000.000000	2.084597
1001.000000	2.098616
1002.000000	2.061340
1003.000000	2.043427
1004.000000	2.009625
1005.000000	2.009657
1006.000000	1.961862
1007.000000	1.919287
1008.000000	1.894921
1009.000000	1.863760
1010.000000	1.820799
1011.000000	1.818483
1012.000000	1.772348
1013.000000	1.719662
1014.000000	1.675466
1015.000000	1.679721
1016.000000	1.660552
1017.000000	1.648580
1018.000000	1.589893
1019.000000	1.565927
1020.000000	1.540510
1021.000000	1.508029
1022.000000	1.457178
1023.000000	1.457574
1024.000000	1.423319
1025.000000	1.365856
1026.000000	1.336625
1027.000000	1.321746
1028.000000	1.305305
1029.000000	1.253246
1030.000000	1.249828
1031.000000	1.236512
1032.000000	1.207952
1033.000000	1.196393
1034.000000	1.204900
1035.000000	1.184500
1036.000000	1.164389
1037.000000	1.137990
1038.000000	1.140860
1039.000000	1.110337
1040.000000	1.132134
1041.000000	1.126649
1042.000000	1.114993
1043.000000	1.094916
1044.000000	1.121161
1045.000000	1.090965
1046.000000	1.100737
1047.000000	1.083545
1048.000000	1.092636
1049.000000	1.124789
1050.000000	1.102177
1051.000000	1.111617
1052.000000	1.112306
1053.000000	1.116958
1054.000000	1.129282
1055.000000	1.144889
1056.000000	1.116296
1057.000000	1.134001
1058.000000	1.128462
1059.000000	1.143460
1060.000000	1.155296
1061.000000	1.159829
1062.000000	1.183976
1063.000000	1.180684
1064.000000	1.192258
1065.000000	1.212893
1066.000000	1.232685
1067.000000	1.216670
1068.000000	1.221973
1069.000000	1.223302
1070.000000	1.271780
1071.000000	1.255054
1072.000000	1.265121
1073.000000	1.294097
1074.000000	1.294520
1075.000000	1.311028
1076.000000	1.308404
1077.000000	1.345908
1078.000000	1.319782
1079.000000	1.341826
1080.000000	1.338300
1081.000000	1.344042
1082.000000	1.374151
1083.000000	1.380668
1084.000000	1.393092
1085.000000	1.400540
1086.000000	1.407229
1087.000000	1.413777
1088.000000	1.432152
1089.000000	1.439578
1090.000000	1.442757
1091.000000	1.451007
1092.000000	1.432974
1093.000000	1.456046
1094.000000	1.463017
1095.000000	1.484641
1096.000000	1.482687
1097.000000	1.500765
1098.000000	1.478006
1099.000000	1.493531
1100.000000	1.479430
1101.000000	1.473492
1102.000000	1.509529
1103.000000	1.487546
1104.000000	1.497858
1105.000000	1.504943
1106.000000	1.496166
1107.000000	1.497224
1108.000000	1.503271
1109.000000	1.494524
1110.000000	1.512972
1111.000000	1.512046
1112.000000	1.510165
1113.000000	1.502844
1114.000000	1.505201
1115.000000	1.498844
1116.000000	1.501517
1117.000000	1.507458
1118.000000	1.506950
1119.000000	1.520045
1120.000000	1.523528
1121.000000	1.547751
1122.000000	1.539816
1123.000000	1.536864
1124.000000	1.555191
1125.000000	1.579680
1126.000000	1.578529
1127.000000	1.595896
1128.000000	1.598736
1129.000000	1.606731
1130.000000	1.653477
1131.000000	1.680656
1132.000000	1.711633
1133.000000	1.727397
1134.000000	1.725583
1135.000000	1.739230
1136.000000	1.780167
1137.000000	1.809651
1138.000000	1.810968
1139.000000	1.821369
1140.000000	1.828419
1141.000000	1.833319
1142.000000	1.855218
1143.000000	1.869170
1144.000000	1.868385
1145.000000	1.873145
1146.000000	1.876598
1147.000000	1.870342
1148.000000	1.860909
1149.000000	1.839443
1150.000000	1.829976
1151.000000	1.815232
1152.000000	1.823294
1153.000000	1.833313
1154.000000	1.854083
1155.000000	1.891451
1156.000000	1.886902
1157.000000	1.895999
1158.000000	1.918352
1159.000000	1.937383
1160.000000	1.940913
1161.000000	1.958416
1162.000000	1.965465
1163.000000	1.950199
1164.000000	1.968459
1165.000000	1.978853
1166.000000	1.972371
1167.000000	1.963221
1168.000000	1.961787
1169.000000	1.965227
1170.000000	1.970996
1171.000000	1.968509
1172.000000	1.973320
1173.000000	1.978178
1174.000000	1.976976
1175.000000	1.976184
1176.000000	1.978028
1177.000000	1.998641
1178.000000	2.001251
1179.000000	2.034457
1180.000000	2.071229
1181.000000	2.094459
1182.000000	2.095971
1183.000000	2.077719
1184.000000	2.045755
1185.000000	2.023504
1186.000000	1.977745
1187.000000	1.928504
1188.000000	1.876030
1189.000000	1.821896
1190.000000	1.803902
1191.000000	1.773925
1192.000000	1.747020
1193.000000	1.742104
1194.000000	1.744996
1195.000000	1.753615
1196.000000	1.774635
1197.000000	1.793728
1198.000000	1.806777
1199.000000	1.804934
1200.000000	1.840948
1201.000000	1.837730
1202.000000	1.853717
1203.000000	1.876950
1204.000000	1.872172
1205.000000	1.870200
1206.000000	1.872992
1207.000000	1.872736
1208.000000	1.862069
1209.000000	1.862029
1210.000000	1.865405
1211.000000	1.862770
1212.000000	1.852158
1213.000000	1.859332
1214.000000	1.865782
1215.000000	1.863065
1216.000000	1.856612
1217.000000	1.859799
1218.000000	1.861649
1219.000000	1.852819
1220.000000	1.848026
1221.000000	1.849543
1222.000000	1.856809
1223.000000	1.846726
1224.000000	1.840160
1225.000000	1.846118
1226.000000	1.853540
1227.000000	1.856469
1228.000000	1.860207
1229.000000	1.869017
1230.000000	1.867579
1231.000000	1.861042
1232.000000	1.864894
1233.000000	1.858888
1234.000000	1.866643
1235.000000	1.874722
1236.000000	1.875882
1237.000000	1.892915
1238.000000	1.895993
1239.000000	1.902663
1240.000000	1.906242
1241.000000	1.896212
1242.000000	1.907016
1243.000000	1.918203
1244.000000	1.919612
1245.000000	1.932177
1246.000000	1.943843
1247.000000	1.957239
1248.000000	1.960063
1249.000000	1.958782
1250.000000	1.967154
1251.000000	1.975498
1252.000000	1.979410
1253.000000	1.983097
1254.000000	1.981577
1255.000000	1.986846
1256.000000	1.987872
1257.000000	1.996926
1258.000000	1.997794
1259.000000	2.000000
1260.000000	1.993810
1261.000000	1.994596
1262.000000	1.987332
1263.000000	1.988054
1264.000000	1.989733
1265.000000	1.991759
1266.000000	1.994874
1267.000000	1.987892
1268.000000	1.977936
1269.000000	1.975740
1270.000000	1.986445
1271.000000	1.976240
1272.000000	1.971905
1273.000000	1.955565
1274.000000	1.952837
1275.000000	1.954135
1276.000000	1.958877
1277.000000	1.948209
1278.000000	1.947804
1279.000000	1.946881
1280.000000	1.951290
1281.000000	1.951709
1282.000000	1.955104
1283.000000	1.949519
1284.000000	1.943244
1285.000000	1.956342
1286.000000	1.951267
1287.000000	1.954936
1288.000000	1.963062
1289.000000	1.960092
1290.000000	1.976595
1291.000000	1.976310
1292.000000	1.977557
1293.000000	1.977559
1294.000000	1.975006
1295.000000	1.986807
1296.000000	1.993047
1297.000000	1.991105
1298.000000	1.997393
1299.000000	2.006966
1300.000000	2.006639
1301.000000	1.999429
1302.000000	2.014763
1303.000000	2.009217
1304.000000	2.010150
1305.000000	2.024240
1306.000000	2.025676
1307.000000	2.029533
1308.000000	2.035742
1309.000000	2.034797
1310.000000	2.042396
1311.000000	2.041761
1312.000000	2.046573
1313.000000	2.047974
1314.000000	2.053368
1315.000000	2.063308
1316.000000	2.076314
1317.000000	2.068378
1318.000000	2.078115
1319.000000	2.086798
1320.000000	2.091335
1321.000000	2.099845
1322.000000	2.112622
1323.000000	2.117770
1324.000000	2.129936
1325.000000	2.134581
1326.000000	2.141319
1327.000000	2.137814
1328.000000	2.138661
1329.000000	2.138442
1330.000000	2.161226
1331.000000	2.182408
1332.000000	2.174085
1333.000000	2.183001
1334.000000	2.202884
1335.000000	2.194342
1336.000000	2.209782
1337.000000	2.208611
1338.000000	2.207034
1339.000000	2.207025
1340.000000	2.219192
1341.000000	2.226005
1342.000000	2.235543
1343.000000	2.226517
1344.000000	2.224627
1345.000000	2.249603
1346.000000	2.241326
1347.000000	2.237716
1348.000000	2.250481
1349.000000	2.273954
1350.000000	2.275481
1351.000000	2.289898
1352.000000	2.312200
1353.000000	2.272869
1354.000000	2.284993
1355.000000	2.279026
1356.000000	2.253382
1357.000000	2.199485
1358.000000	2.163478
1359.000000	2.152620
1360.000000	2.103295
1361.000000	2.060536
1362.000000	2.065513
1363.000000	2.207119
1364.000000	2.135024
1365.000000	2.103503
1366.000000	2.177908
1367.000000	2.147829
1368.000000	2.147731
1369.000000	2.202631
1370.000000	2.183808
1371.000000	2.170734
1372.000000	2.194396
1373.000000	2.219674
1374.000000	2.198347
1375.000000	2.160999
1376.000000	2.136566
1377.000000	2.133793
1378.000000	2.116059
1379.000000	2.116905
1380.000000	2.065596
1381.000000	2.081113
1382.000000	2.122382
1383.000000	2.142382
1384.000000	2.181278
1385.000000	2.163163
1386.000000	2.189876
1387.000000	2.121080
1388.000000	2.061599
1389.000000	2.099023
1390.000000	2.027199
1391.000000	1.976316
1392.000000	1.943611
1393.000000	1.941920
1394.000000	1.899778
1395.000000	1.852094
1396.000000	1.893472
1397.000000	1.915378
1398.000000	1.896088
1399.000000	1.870171
1400.000000	1.855988
1401.000000	1.919070
1402.000000	1.937952
1403.000000	1.872624
1404.000000	1.833651
1405.000000	1.843364
1406.000000	1.841349
1407.000000	1.789642
1408.000000	1.794717
1409.000000	1.739575
1410.000000	1.739955
1411.000000	1.687297
1412.000000	1.637172
1413.000000	1.590938
1414.000000	1.551658
1415.000000	1.560880
1416.000000	1.531031
1417.000000	1.492394
1418.000000	1.465183
1419.000000	1.429345
1420.000000	1.447961
1421.000000	1.425751
1422.000000	1.382663
1423.000000	1.359736
1424.000000	1.336184
1425.000000	1.331752
1426.000000	1.311262
1427.000000	1.268335
1428.000000	1.260393
1429.000000	1.241755
1430.000000	1.233230
1431.000000	1.193571
1432.000000	1.203609
1433.000000	1.190074
1434.000000	1.159545
1435.000000	1.172502
1436.000000	1.138134
1437.000000	1.113453
1438.000000	1.113905
1439.000000	1.115522
1440.000000	1.119566
1441.000000	1.089626
1442.000000	1.096314
1443.000000	1.094653
1444.000000	1.081371
1445.000000	1.068837
1446.000000	1.080138
1447.000000	1.087007
1448.000000	1.068416
1449.000000	1.040944
1450.000000	1.043566
1451.000000	1.052949
1452.000000	1.049076
1453.000000	1.043840
1454.000000	1.034128
1455.000000	1.029695
1456.000000	1.024648
1457.000000	1.016704
1458.000000	1.017125
1459.000000	0.990396
1460.000000	0.994137
1461.000000	0.984706
1462.000000	0.980774
1463.000000	0.969376
1464.000000	0.979465
1465.000000	0.972457
1466.000000	0.959515
1467.000000	0.966932
1468.000000	0.973165
1469.000000	0.951737
1470.000000	0.951773
1471.000000	0.954442
1472.000000	0.954684
1473.000000	0.956028
1474.000000	0.947366
1475.000000	0.935087
1476.000000	0.921945
1477.000000	0.921184
1478.000000	0.932174
1479.000000	0.928018
1480.000000	0.913689
1481.000000	0.908659
1482.000000	0.920957
1483.000000	0.920245
1484.000000	0.918462
1485.000000	0.933259
1486.000000	0.932820
1487.000000	0.934970
1488.000000	0.943935
1489.000000	0.938496
1490.000000	0.944618
1491.000000	0.949083
1492.000000	0.955793
1493.000000	0.947590
1494.000000	0.963430
1495.000000	0.968416
1496.000000	0.964289
1497.000000	0.970467
1498.000000	0.973009
1499.000000	0.976832
1500.000000	0.975848
1501.000000	0.982504
1502.000000	0.995367
1503.000000	1.001516
1504.000000	1.010360
1505.000000	1.008245
1506.000000	1.024717
1507.000000	1.039185
1508.000000	1.035221
1509.000000	1.035599
1510.000000	1.055851
1511.000000	1.073947
1512.000000	1.076905
1513.000000	1.084851
1514.000000	1.086289
1515.000000	1.087752
1516.000000	1.088158
1517.000000	1.086175
1518.000000	1.111211
1519.000000	1.115182
1520.000000	1.126527
1521.000000	1.123195
1522.000000	1.122826
1523.000000	1.140419
1524.000000	1.146142
1525.000000	1.136461
1526.000000	1.149896
1527.000000	1.157268
1528.000000	1.155063
1529.000000	1.159551
1530.000000	1.173914
1531.000000	1.182979
1532.000000	1.185629
1533.000000	1.198628
1534.000000	1.198984
1535.000000	1.207176
1536.000000	1.209431
1537.000000	1.208089
1538.000000	1.224655
1539.000000	1.236925
1540.000000	1.230823
1541.000000	1.249804
1542.000000	1.259012
1543.000000	1.271567
1544.000000	1.280087
1545.000000	1.281494
1546.000000	1.294919
1547.000000	1.305704
1548.000000	1.324720
1549.000000	1.335445
1550.000000	1.347091
1551.000000	1.358659
1552.000000	1.375663
1553.000000	1.401631
1554.000000	1.415066
1555.000000	1.413572
1556.000000	1.434005
1557.000000	1.439789
1558.000000	1.449548
1559.000000	1.468931
1560.000000	1.471441
1561.000000	1.487814
1562.000000	1.498936
1563.000000	1.499698
1564.000000	1.504096
1565.000000	1.499996
1566.000000	1.524293
1567.000000	1.527242
1568.000000	1.525305
1569.000000	1.533506
1570.000000	1.527006
1571.000000	1.539053
1572.000000	1.549003
1573.000000	1.535184
1574.000000	1.539217
1575.000000	1.561403
1576.000000	1.567552
1577.000000	1.562262
1578.000000	1.557554
1579.000000	1.573302
1580.000000	1.582238
1581.000000	1.579796
1582.000000	1.592991
1583.000000	1.604256
1584.000000	1.608065
1585.000000	1.634852
1586.000000	1.624806
1587.000000	1.625963
1588.000000	1.645674
1589.000000	1.662484
1590.000000	1.649916
1591.000000	1.665083
1592.000000	1.645012
1593.000000	1.674273
1594.000000	1.678421
1595.000000	1.674591
1596.000000	1.676426
1597.000000	1.683486
1598.000000	1.695640
1599.000000	1.689128
1600.000000	1.700227
1601.000000	1.714333
1602.000000	1.701406
1603.000000	1.707938
1604.000000	1.728743
1605.000000	1.727541
1606.000000	1.731803
1607.000000	1.726357
1608.000000	1.730127
1609.000000	1.758991
1610.000000	1.763762
1611.000000	1.749216
1612.000000	1.746377
1613.000000	1.747202
1614.000000	1.754067
1615.000000	1.771438
1616.000000	1.777089
1617.000000	1.772419
1618.000000	1.766256
1619.000000	1.760894
1620.000000	1.773239
1621.000000	1.772520
1622.000000	1.759960
1623.000000	1.749050
1624.000000	1.751530
1625.000000	1.764887
1626.000000	1.775130
1627.000000	1.752856
1628.000000	1.764149
1629.000000	1.768507
1630.000000	1.771855
1631.000000	1.762590
1632.000000	1.767892
1633.000000	1.764055
1634.000000	1.771830
1635.000000	1.766433
1636.000000	1.783642
1637.000000	1.782580
1638.000000	1.769082
1639.000000	1.764491
1640.000000	1.758887
1641.000000	1.763305
1642.000000	1.759805
1643.000000	1.766774
1644.000000	1.757679
1645.000000	1.757938
1646.000000	1.775631
1647.000000	1.766830
1648.000000	1.760174
1649.000000	1.763902
1650.000000	1.755009
1651.000000	1.746919
1652.000000	1.765328
1653.000000	1.751061
1654.000000	1.746462
1655.000000	1.751797
1656.000000	1.756755
1657.000000	1.739808
1658.000000	1.757775
1659.000000	1.736787
1660.000000	1.747253
1661.000000	1.745005
1662.000000	1.732097
1663.000000	1.715697
1664.000000	1.716577
1665.000000	1.707130
1666.000000	1.703093
1667.000000	1.705276
1668.000000	1.702262
1669.000000	1.684436
1670.000000	1.683700
1671.000000	1.686533
1672.000000	1.683536
1673.000000	1.680636
1674.000000	1.684162
1675.000000	1.682637
1676.000000	1.704860
1677.000000	1.730109
1678.000000	1.770541
1679.000000	1.799761
1680.000000	1.791554
1681.000000	1.767317
1682.000000	1.734102
1683.000000	1.675010
1684.000000	1.590870
1685.000000	1.536907
1686.000000	1.498810
1687.000000	1.474515
1688.000000	1.461971
1689.000000	1.477240
1690.000000	1.482455
1691.000000	1.527493
1692.000000	1.547679
1693.000000	1.541195
1694.000000	1.533504
1695.000000	1.525061
1696.000000	1.503843
1697.000000	1.492867
1698.000000	1.455662
1699.000000	1.433885
1700.000000	1.418698
1701.000000	1.417219
1702.000000	1.402902
1703.000000	1.409510
1704.000000	1.412825
1705.000000	1.403049
1706.000000	1.404157
1707.000000	1.382392
1708.000000	1.361538
1709.000000	1.355347
1710.000000	1.347311
1711.000000	1.349147
1712.000000	1.304926
1713.000000	1.278477
1714.000000	1.274852
1715.000000	1.247567
1716.000000	1.217972
1717.000000	1.191010
1718.000000	1.148116
1719.000000	1.128344
1720.000000	1.083289
1721.000000	1.027563
1722.000000	1.000576
1723.000000	0.953831
1724.000000	0.945053
1725.000000	0.956302
1726.000000	0.956356
1727.000000	0.932146
1728.000000	0.935454
1729.000000	0.965543
1730.000000	0.968679
1731.000000	0.960055
1732.000000	0.967736
1733.000000	0.974343
1734.000000	0.964480
1735.000000	0.968148
1736.000000	0.961458
1737.000000	0.970640
1738.000000	0.969455
1739.000000	0.974766
1740.000000	0.989635
1741.000000	0.994651
1742.000000	1.003876
1743.000000	1.030348
1744.000000	1.048211
1745.000000	1.051624
1746.000000	1.064023
1747.000000	1.086384
1748.000000	1.108105
1749.000000	1.106371
1750.000000	1.112162
1751.000000	1.114999
1752.000000	1.112408
1753.000000	1.111998
1754.000000	1.113222
1755.000000	1.128109
1756.000000	1.108373
1757.000000	1.095428
1758.000000	1.098812
1759.000000	1.092194
1760.000000	1.085035
1761.000000	1.071141
1762.000000	1.067472
1763.000000	1.052554
1764.000000	1.040043
1765.000000	1.021707
1766.000000	1.012349
1767.000000	1.011578
1768.000000	1.018662
1769.000000	1.014547
1770.000000	1.022710
1771.000000	1.041410
1772.000000	1.045046
1773.000000	1.060201
1774.000000	1.060211
1775.000000	1.067377
1776.000000	1.087473
1777.000000	1.077321
1778.000000	1.101697
1779.000000	1.117669
1780.000000	1.126682
1781.000000	1.124530
1782.000000	1.126621
1783.000000	1.125583
1784.000000	1.133763
1785.000000	1.137295
1786.000000	1.152917
1787.000000	1.156212
1788.000000	1.158297
1789.000000	1.162782
1790.000000	1.158549
1791.000000	1.152009
1792.000000	1.160052
1793.000000	1.158862
1794.000000	1.164948
1795.000000	1.163073
1796.000000	1.166562
1797.000000	1.169246
1798.000000	1.170872
1799.000000	1.156262
1800.000000	1.146484
1801.000000	1.164018
1802.000000	1.172902
1803.000000	1.187642
1804.000000	1.193565
1805.000000	1.170642
1806.000000	1.155736
1807.000000	1.177931
1808.000000	1.186058
1809.000000	1.195384
1810.000000	1.173606
1811.000000	1.169072
1812.000000	1.164913
1813.000000	1.197071
1814.000000	1.216270
1815.000000	1.172258
1816.000000	1.184583
1817.000000	1.221931
1818.000000	1.212425
1819.000000	1.188311
1820.000000	1.111987
1821.000000	1.113036
1822.000000	1.188552
1823.000000	1.194355
1824.000000	1.213000
1825.000000	1.173375
1826.000000	1.131505
1827.000000	1.117736
1828.000000	1.142961
1829.000000	1.128794
1830.000000	1.145796
1831.000000	1.105428
1832.000000	1.134361
1833.000000	1.159582
1834.000000	1.157761
1835.000000	1.096791
1836.000000	1.004823
1837.000000	1.035213
1838.000000	1.125427
1839.000000	1.135519
1840.000000	1.121137
1841.000000	1.051259
1842.000000	1.069645
1843.000000	1.139532
1844.000000	1.193302
1845.000000	1.209043
1846.000000	1.134420
1847.000000	0.957570
1848.000000	0.953598
1849.000000	1.102602
1850.000000	1.109886
1851.000000	1.158075
1852.000000	1.160948
1853.000000	1.043094
1854.000000	1.046346
1855.000000	1.144204
1856.000000	1.010472
1857.000000	1.048847
1858.000000	1.112436
1859.000000	1.037052
1860.000000	0.934902
1861.000000	1.045021
1862.000000	1.102556
1863.000000	1.057957
1864.000000	1.007403
1865.000000	1.061136
1866.000000	1.097119
1867.000000	0.924243
1868.000000	0.937313
1869.000000	1.013580
1870.000000	0.906082
1871.000000	0.860531
1872.000000	0.967953
1873.000000	0.828702
1874.000000	0.915252
1875.000000	0.968488
1876.000000	0.877722
1877.000000	0.860655
1878.000000	0.899860
1879.000000	0.937194
1880.000000	0.912987
1881.000000	0.894572
1882.000000	0.939162
1883.000000	0.919588
1884.000000	0.800176
1885.000000	0.792846
1886.000000	0.702533
1887.000000	0.708582
1888.000000	0.700387
1889.000000	0.579633
1890.000000	0.559206
1891.000000	0.526919
1892.000000	0.467317
1893.000000	0.435112
1894.000000	0.443762
1895.000000	0.409415
1896.000000	0.415505
1897.000000	0.356339
1898.000000	0.369899
1899.000000	0.430731
1900.000000	0.480879
1901.000000	0.538539
1902.000000	0.525602
1903.000000	0.543221
1904.000000	0.512573
1905.000000	0.579509
1906.000000	0.703282
1907.000000	0.644107
1908.000000	0.660164
1909.000000	0.646450
1910.000000	0.649496
1911.000000	0.741493
1912.000000	0.707723
1913.000000	0.796698
1914.000000	0.824636
1915.000000	0.797033
1916.000000	0.799781
1917.000000	0.791635
1918.000000	0.779331
1919.000000	0.790053
1920.000000	0.913021
1921.000000	0.901252
1922.000000	0.834673
1923.000000	0.880888
1924.000000	0.943991
1925.000000	0.871213
1926.000000	0.887605
1927.000000	0.960802
1928.000000	0.922956
1929.000000	0.864081
1930.000000	0.933924
1931.000000	0.950226
1932.000000	0.941716
1933.000000	0.916238
1934.000000	0.979010
1935.000000	0.977007
1936.000000	0.952864
1937.000000	0.922672
1938.000000	0.957588
1939.000000	0.938200
1940.000000	0.968335
1941.000000	0.975241
1942.000000	0.944631
1943.000000	0.939977
1944.000000	0.986822
1945.000000	0.992435
1946.000000	0.942294
1947.000000	0.982902
1948.000000	0.969601
1949.000000	0.958227
1950.000000	0.962776
1951.000000	0.925389
1952.000000	1.011335
1953.000000	0.953199
1954.000000	0.929750
1955.000000	0.934404
1956.000000	0.911412
1957.000000	0.920640
1958.000000	0.957531
1959.000000	0.908158
1960.000000	0.943229
1961.000000	0.910529
1962.000000	0.915118
1963.000000	0.909722
1964.000000	0.913559
1965.000000	0.929627
1966.000000	0.926997
1967.000000	0.894471
1968.000000	0.874532
1969.000000	0.878996
1970.000000	0.884103
1971.000000	0.913999
1972.000000	0.852630
1973.000000	0.875325
1974.000000	0.857183
1975.000000	0.846158
1976.000000	0.891511
1977.000000	0.909144
1978.000000	0.874922
1979.000000	0.849633
1980.000000	0.834305
1981.000000	0.818782
1982.000000	0.811945
1983.000000	0.857174
1984.000000	0.849667
1985.000000	0.826811
1986.000000	0.802099
1987.000000	0.834684
1988.000000	0.789100
1989.000000	0.723016
1990.000000	0.746572
1991.000000	0.768535
1992.000000	0.778467
1993.000000	0.782384
1994.000000	0.749868
1995.000000	0.739503
1996.000000	0.742462
1997.000000	0.721705
1998.000000	0.710465
1999.000000	0.707767
2000.000000	0.725887
2001.000000	0.766103
2002.000000	0.766558
2003.000000	0.754323
2004.000000	0.739859
2005.000000	0.723609
2006.000000	0.740228
2007.000000	0.742957
2008.000000	0.746263
2009.000000	0.752787
2010.000000	0.752268
2011.000000	0.777537
2012.000000	0.772649
2013.000000	0.738277
2014.000000	0.714970
2015.000000	0.758400
2016.000000	0.801336
2017.000000	0.791746
2018.000000	0.745585
2019.000000	0.729276
2020.000000	0.757391
2021.000000	0.776598
2022.000000	0.770380
2023.000000	0.705989
2024.000000	0.738894
2025.000000	0.831314
2026.000000	0.830419
2027.000000	0.831158
2028.000000	0.813728
2029.000000	0.837285
2030.000000	0.818681
2031.000000	0.803241
2032.000000	0.750702
2033.000000	0.760074
2034.000000	0.809690
2035.000000	0.841858
2036.000000	0.926417
2037.000000	0.896733
2038.000000	0.838710
2039.000000	0.862382
2040.000000	0.880815
2041.000000	0.920861
2042.000000	0.920267
2043.000000	0.975921
2044.000000	1.014523
2045.000000	0.993802
2046.000000	0.976611
2047.000000	0.950224
2048.000000	0.983246
2049.000000	0.985050
2050.000000	1.032014
2051.000000	1.012736
2052.000000	1.000091
2053.000000	0.987796
2054.000000	0.963044
2055.000000	1.070740
2056.000000	0.983137
2057.000000	1.000051
2058.000000	1.034071
2059.000000	1.094081
2060.000000	1.008622
2061.000000	0.876076
2062.000000	0.912786
2063.000000	1.025566
2064.000000	1.020356
2065.000000	0.990787
2066.000000	0.948981
2067.000000	0.863881
2068.000000	0.975119
2069.000000	0.981550
2070.000000	0.961348
2071.000000	0.961467
2072.000000	0.993135
2073.000000	1.008959
2074.000000	0.917019
2075.000000	0.934048
2076.000000	1.015724
2077.000000	0.880096
2078.000000	1.029980
2079.000000	1.045514
2080.000000	0.847910
2081.000000	0.991337
2082.000000	1.071837
2083.000000	0.987390
2084.000000	0.962504
2085.000000	0.981700
2086.000000	0.954802
2087.000000	1.016043
2088.000000	0.978106
2089.000000	0.937703
2090.000000	0.917353
2091.000000	1.049050
2092.000000	1.008015
2093.000000	0.901678
2094.000000	0.860716
2095.000000	1.037096
2096.000000	1.083364
2097.000000	1.009945
2098.000000	1.020919
2099.000000	1.001046
2100.000000	1.039278
2101.000000	1.003522
2102.000000	0.988535
2103.000000	0.973393
2104.000000	0.958575
2105.000000	1.119042
2106.000000	0.951750
2107.000000	1.067210
2108.000000	1.061898
2109.000000	1.060514
2110.000000	0.990832
2111.000000	1.154249
2112.000000	1.111338
2113.000000	1.123337
2114.000000	0.837550
2115.000000	1.107352
2116.000000	1.041258
2117.000000	1.122684
2118.000000	1.022746
2119.000000	1.006709
2120.000000	1.138114
2121.000000	1.024038
2122.000000	1.063816
2123.000000	1.180889
2124.000000	1.129300
2125.000000	1.278084
2126.000000	1.166349
2127.000000	1.071174
2128.000000	1.072556
2129.000000	1.270498
2130.000000	1.199158
2131.000000	1.342626
2132.000000	1.283802
2133.000000	1.183479
2134.000000	1.445979
2135.000000	1.260210
2136.000000	1.120810
2137.000000	1.137082
2138.000000	1.089677
2139.000000	1.189974
2140.000000	1.342364
2141.000000	1.241760
2142.000000	1.336155
2143.000000	1.284508
2144.000000	1.112071
2145.000000	1.266308
2146.000000	1.153966
2147.000000	1.257703
2148.000000	1.088115
2149.000000	1.451736
2150.000000	1.377874
2151.000000	1.266625
2152.000000	1.379160
2153.000000	1.356702
2154.000000	1.233472
2155.000000	1.172312
2156.000000	0.986460
2157.000000	1.062197
2158.000000	1.103687
2159.000000	1.344928
2160.000000	1.246868
2161.000000	1.117150
2162.000000	1.240746
2163.000000	1.138408
2164.000000	1.291892
2165.000000	1.061075
2166.000000	0.982844
2167.000000	1.286654
2168.000000	1.244049
2169.000000	1.297390
2170.000000	1.270000
2171.000000	1.224781
2172.000000	1.323911
2173.000000	1.281949
2174.000000	1.158858
2175.000000	1.185565
2176.000000	1.342812
2177.000000	1.281775
2178.000000	1.229297
2179.000000	1.204534
2180.000000	1.208990
2181.000000	1.203984
2182.000000	1.072019
2183.000000	1.246604
2184.000000	1.349157
2185.000000	1.357155
2186.000000	1.340914
2187.000000	1.185622
2188.000000	1.178923
2189.000000	1.086772
2190.000000	1.079632
2191.000000	1.168430
2192.000000	1.227122
2193.000000	1.129701
2194.000000	1.188658
2195.000000	1.307941
2196.000000	1.254696
2197.000000	1.199849
2198.000000	1.098581
2199.000000	1.090460
2200.000000	1.151979
2201.000000	1.040927
2202.000000	1.179399
2203.000000	1.158363
2204.000000	1.155945
2205.000000	1.250572
2206.000000	1.140081
2207.000000	1.084484
2208.000000	1.152671
2209.000000	1.125907
2210.000000	1.079588
2211.000000	1.054692
2212.000000	1.040367
2213.000000	1.156752
2214.000000	1.152980
2215.000000	0.994702
2216.000000	1.059225
2217.000000	1.135885
2218.000000	1.161156
2219.000000	1.246920
2220.000000	1.149513
2221.000000	1.161379
2222.000000	1.020800
2223.000000	1.043552
2224.000000	1.101062
2225.000000	1.225098
2226.000000	1.160957
2227.000000	1.006631
2228.000000	1.122854
2229.000000	1.145407
2230.000000	1.151174
2231.000000	1.196928
2232.000000	1.141128
2233.000000	1.131480
2234.000000	1.059265
2235.000000	1.081697
2236.000000	1.077513
2237.000000	1.197013
2238.000000	1.113112
2239.000000	1.078921
2240.000000	1.074137
2241.000000	1.047472
2242.000000	0.976137
2243.000000	1.025714
2244.000000	1.123642
2245.000000	1.141033
2246.000000	1.219983
2247.000000	1.182764
2248.000000	1.185258
2249.000000	1.214113
2250.000000	1.133099
2251.000000	1.188262
2252.000000	1.146796
2253.000000	1.131763
2254.000000	1.183457
2255.000000	1.192289
2256.000000	1.184424
2257.000000	1.224010
2258.000000	1.065356
2259.000000	1.097534
2260.000000	1.042384
2261.000000	0.944088
2262.000000	0.938445
2263.000000	0.819106
2264.000000	0.814945
2265.000000	1.023227
2266.000000	1.133696
2267.000000	1.172697
2268.000000	1.121405
2269.000000	1.062224
2270.000000	1.025646
2271.000000	1.214264
2272.000000	1.144714
2273.000000	1.003580
2274.000000	1.146367
2275.000000	1.251316
2276.000000	1.278358
2277.000000	1.321437
2278.000000	1.357917
2279.000000	1.426793
2280.000000	1.302945
2281.000000	1.286016
2282.000000	1.483038
2283.000000	1.391554
2284.000000	1.340997
2285.000000	1.375238
2286.000000	1.395379
2287.000000	1.451582
2288.000000	1.394028
2289.000000	1.430125
2290.000000	1.574320
2291.000000	1.656771
2292.000000	1.424585
2293.000000	1.318912
2294.000000	1.422866
2295.000000	1.402992
2296.000000	1.533585
2297.000000	1.589078
2298.000000	1.619334
2299.000000	1.430876
2300.000000	1.354820
2301.000000	1.330841
2302.000000	1.409502
2303.000000	1.589489
2304.000000	1.462659
2305.000000	1.352196
2306.000000	1.521857
2307.000000	1.593603
2308.000000	1.391033
2309.000000	1.432306
2310.000000	1.463328
2311.000000	1.623658
2312.000000	1.780370
2313.000000	1.622077
2314.000000	1.545016
2315.000000	1.526445
2316.000000	1.617703
2317.000000	1.721963
2318.000000	1.853674
2319.000000	1.783926
2320.000000	1.649412
2321.000000	1.826139
2322.000000	1.851895
2323.000000	1.589953
2324.000000	1.545769
2325.000000	1.605340
2326.000000	1.973882
2327.000000	1.726510
2328.000000	1.705394
2329.000000	1.705568
2330.000000	1.750325
2331.000000	1.733335
2332.000000	1.814273
2333.000000	1.802642
2334.000000	1.749035
2335.000000	1.876966
2336.000000	2.034933
2337.000000	1.999323
2338.000000	1.651717
2339.000000	1.790162
2340.000000	2.062390
2341.000000	2.089666
2342.000000	2.026108
2343.000000	2.003215
2344.000000	1.914067
2345.000000	1.905637
2346.000000	1.806368
2347.000000	1.684194
2348.000000	1.821945
2349.000000	1.681851
2350.000000	1.751311
2351.000000	1.843907
2352.000000	2.013347
2353.000000	1.504841
2354.000000	1.950693
2355.000000	2.116303
2356.000000	1.844403
2357.000000	1.906363
2358.000000	2.127602
2359.000000	1.903680
2360.000000	1.744418
2361.000000	2.027774
2362.000000	2.241163
2363.000000	2.148966
2364.000000	2.434794
2365.000000	2.351734
2366.000000	2.140095
2367.000000	1.906951
2368.000000	1.806929
2369.000000	2.136729
2370.000000	2.116590
2371.000000	2.135344
2372.000000	2.031198
2373.000000	2.141911
2374.000000	1.941771
2375.000000	1.950573
2376.000000	2.182286
2377.000000	2.478292
2378.000000	2.621420
2379.000000	2.122705
2380.000000	2.036423
2381.000000	2.442354
2382.000000	2.278997
2383.000000	2.199775
2384.000000	2.023382
2385.000000	2.046029
2386.000000	2.384200
2387.000000	2.274809
2388.000000	2.784168
2389.000000	2.373942
2390.000000	2.528840
2391.000000	2.311575
2392.000000	2.104042
2393.000000	2.211188
2394.000000	2.150545
2395.000000	2.556873
2396.000000	2.194098
2397.000000	2.172318
2398.000000	2.060880
2399.000000	2.448933
2400.000000	2.168588
2401.000000	nan
2402.000000	nan
2403.000000	nan
2404.000000	nan
2405.000000	nan
2406.000000	nan
2407.000000	nan
2408.000000	nan
2409.000000	nan
2410.000000	nan
2411.000000	nan
2412.000000	nan
2413.000000	nan
2414.000000	nan
2415.000000	nan
2416.000000	nan
2417.000000	nan
2418.000000	nan
2419.000000	nan
2420.000000	nan
2421.000000	nan
2422.000000	nan
2423.000000	nan
2424.000000	nan
2425.000000	nan
2426.000000	nan
2427.000000	nan
2428.000000	nan
2429.000000	nan
2430.000000	nan
2431.000000	nan
2432.000000	nan
2433.000000	nan
2434.000000	nan
2435.000000	nan
2436.000000	nan
2437.000000	nan
2438.000000	nan
2439.000000	nan
2440.000000	nan
2441.000000	nan
2442.000000	nan
2443.000000	nan
2444.000000	nan
2445.000000	nan
2446.000000	nan
2447.000000	nan
2448.000000	nan
2449.000000	nan
2450.000000	nan
2451.000000	nan
2452.000000	nan
2453.000000	nan
2454.000000	nan
2455.000000	nan
2456.000000	nan
2457.000000	nan
2458.000000	nan
2459.000000	nan
2460.000000	nan
2461.000000	nan
2462.000000	nan
2463.000000	nan
2464.000000	nan
2465.000000	nan
2466.000000	nan
2467.000000	nan
2468.000000	nan
2469.000000	nan
2470.000000	nan
2471.000000	nan
2472.000000	nan
2473.000000	nan
2474.000000	nan
2475.000000	nan
2476.000000	nan
2477.000000	nan
2478.000000	nan
2479.000000	nan
2480.000000	nan
2481.000000	nan
2482.000000	nan
2483.000000	nan
2484.000000	nan
2485.000000	nan
2486.000000	nan
2487.000000	nan
2488.000000	nan
2489.000000	nan
2490.000000	nan
2491.000000	nan
2492.000000	nan
2493.000000	nan
2494.000000	nan
2495.000000	nan
2496.000000	nan
2497.000000	nan
2498.000000	nan
2499.000000	nan
2500.000000	nan
