PE UV       SUBTECH     SPECTRUM    ASCII       PEDS        4.00        
   -1
CICIMAUCR0100-3.Sample.ASC
24/04/18
17:00:45.00
24/04/18
17:00:45.00
Vinicio Soto Monge
C. cupreomarginata
250,000000
1
Lambda 1050
1050L1511233
PerkinElmer UV WinLab 6.3.2.0749 / 2.02.05 Lambda 900 UV/VIS/NIR, Aug  7 2015 09:38:08

0
0
3350/servo 860,8/2
0
0
UV/VIS
1
1
1
DoubleDePol,CommonBeamDepol,RBeamAtt,SBeamAtt,60mm sphere, WB InGaAs Detector
0
0
0
0
Program
Program
3350/servo 860,8/2
3350/0,2 860,8/0,2
3350/0,2 860,8/0,2
0
15.00
 
 
 
0
 
860,8
319,2
860,8
Front
100
on
S:100 R:100
0
0
0
0
 
0
 
 
 
0
 
 
0
0
0
0
0
 
 
 
 
0
0


0
0
#HDR
-1
-1
#GR
nm
%R
1.0
0.0
2500,000000
-1,000000
2251
8
64,613100
4,484200
#DATA
250.000000	0.305407
251.000000	0.297796
252.000000	0.327408
253.000000	0.326136
254.000000	0.334964
255.000000	0.289708
256.000000	0.329542
257.000000	0.323218
258.000000	0.297496
259.000000	0.303682
260.000000	0.344478
261.000000	0.318637
262.000000	0.296747
263.000000	0.295916
264.000000	0.319917
265.000000	0.273263
266.000000	0.256597
267.000000	0.320819
268.000000	0.299248
269.000000	0.279519
270.000000	0.277778
271.000000	0.291522
272.000000	0.324206
273.000000	0.310296
274.000000	0.298213
275.000000	0.308419
276.000000	0.314505
277.000000	0.285020
278.000000	0.264154
279.000000	0.276183
280.000000	0.293320
281.000000	0.285440
282.000000	0.295554
283.000000	0.305508
284.000000	0.304457
285.000000	0.284624
286.000000	0.296848
287.000000	0.251636
288.000000	0.316933
289.000000	0.308585
290.000000	0.286865
291.000000	0.288093
292.000000	0.293405
293.000000	0.292662
294.000000	0.301114
295.000000	0.297994
296.000000	0.275113
297.000000	0.291894
298.000000	0.325065
299.000000	0.293799
300.000000	0.262753
301.000000	0.307614
302.000000	0.276862
303.000000	0.272599
304.000000	0.259405
305.000000	0.285213
306.000000	0.238741
307.000000	0.287000
308.000000	0.268159
309.000000	0.283478
310.000000	0.256732
311.000000	0.294767
312.000000	0.279510
313.000000	0.286770
314.000000	0.320236
315.000000	0.294815
316.000000	0.287025
317.000000	0.232830
318.000000	0.306949
319.000000	0.316331
320.000000	0.154257
321.000000	0.262954
322.000000	0.303658
323.000000	0.264035
324.000000	0.175674
325.000000	0.206725
326.000000	0.222559
327.000000	0.236139
328.000000	0.208037
329.000000	0.309191
330.000000	0.192053
331.000000	0.272741
332.000000	0.308960
333.000000	0.214541
334.000000	0.191742
335.000000	0.237671
336.000000	0.286495
337.000000	0.281608
338.000000	0.309614
339.000000	0.285938
340.000000	0.292437
341.000000	0.239942
342.000000	0.277399
343.000000	0.240946
344.000000	0.215292
345.000000	0.318543
346.000000	0.227411
347.000000	0.295545
348.000000	0.270534
349.000000	0.198790
350.000000	0.247471
351.000000	0.203813
352.000000	0.313927
353.000000	0.269666
354.000000	0.267067
355.000000	0.281107
356.000000	0.268216
357.000000	0.257960
358.000000	0.273269
359.000000	0.268983
360.000000	0.262290
361.000000	0.312218
362.000000	0.279073
363.000000	0.255102
364.000000	0.208497
365.000000	0.253177
366.000000	0.273065
367.000000	0.267450
368.000000	0.225411
369.000000	0.169581
370.000000	0.163233
371.000000	0.214433
372.000000	0.193565
373.000000	0.174886
374.000000	0.185643
375.000000	0.190730
376.000000	0.211606
377.000000	0.217686
378.000000	0.223129
379.000000	0.225742
380.000000	0.232983
381.000000	0.244635
382.000000	0.257406
383.000000	0.270387
384.000000	0.279149
385.000000	0.292811
386.000000	0.312789
387.000000	0.323552
388.000000	0.333224
389.000000	0.349137
390.000000	0.363383
391.000000	0.387238
392.000000	0.405120
393.000000	0.418123
394.000000	0.424443
395.000000	0.446927
396.000000	0.457207
397.000000	0.464024
398.000000	0.487821
399.000000	0.502466
400.000000	0.521423
401.000000	0.543319
402.000000	0.558052
403.000000	0.583419
404.000000	0.608007
405.000000	0.620520
406.000000	0.638518
407.000000	0.666221
408.000000	0.682572
409.000000	0.703473
410.000000	0.728036
411.000000	0.749739
412.000000	0.762545
413.000000	0.778636
414.000000	0.814388
415.000000	0.835122
416.000000	0.852950
417.000000	0.889637
418.000000	0.912121
419.000000	0.934979
420.000000	0.951767
421.000000	0.975760
422.000000	1.006659
423.000000	1.029731
424.000000	1.058718
425.000000	1.080253
426.000000	1.103345
427.000000	1.127303
428.000000	1.134274
429.000000	1.153775
430.000000	1.168074
431.000000	1.177777
432.000000	1.192466
433.000000	1.195622
434.000000	1.198816
435.000000	1.200542
436.000000	1.211785
437.000000	1.203456
438.000000	1.193651
439.000000	1.195106
440.000000	1.177719
441.000000	1.157101
442.000000	1.142573
443.000000	1.127836
444.000000	1.105568
445.000000	1.090567
446.000000	1.080357
447.000000	1.060707
448.000000	1.033355
449.000000	1.022756
450.000000	1.023056
451.000000	1.007904
452.000000	0.990989
453.000000	0.981395
454.000000	0.982389
455.000000	0.977591
456.000000	0.962777
457.000000	0.951376
458.000000	0.945654
459.000000	0.955738
460.000000	0.966213
461.000000	0.969061
462.000000	0.985566
463.000000	1.001122
464.000000	1.014889
465.000000	1.034670
466.000000	1.065281
467.000000	1.087760
468.000000	1.112318
469.000000	1.140902
470.000000	1.154232
471.000000	1.175872
472.000000	1.197989
473.000000	1.213409
474.000000	1.216794
475.000000	1.221654
476.000000	1.217516
477.000000	1.210990
478.000000	1.204910
479.000000	1.192750
480.000000	1.177185
481.000000	1.166038
482.000000	1.163597
483.000000	1.142781
484.000000	1.129221
485.000000	1.112033
486.000000	1.090129
487.000000	1.064375
488.000000	1.027184
489.000000	0.989034
490.000000	0.949265
491.000000	0.912473
492.000000	0.868514
493.000000	0.823416
494.000000	0.777689
495.000000	0.712535
496.000000	0.667868
497.000000	0.613110
498.000000	0.566005
499.000000	0.528253
500.000000	0.491722
501.000000	0.471265
502.000000	0.452688
503.000000	0.445568
504.000000	0.439288
505.000000	0.437597
506.000000	0.449033
507.000000	0.480390
508.000000	0.502477
509.000000	0.536576
510.000000	0.591109
511.000000	0.641495
512.000000	0.704806
513.000000	0.766191
514.000000	0.831369
515.000000	0.895907
516.000000	0.961446
517.000000	1.030832
518.000000	1.079897
519.000000	1.115212
520.000000	1.161242
521.000000	1.176014
522.000000	1.171108
523.000000	1.140369
524.000000	1.099607
525.000000	1.056789
526.000000	1.019243
527.000000	0.992923
528.000000	0.979479
529.000000	1.013053
530.000000	1.081048
531.000000	1.216067
532.000000	1.382691
533.000000	1.556831
534.000000	1.780051
535.000000	1.981417
536.000000	2.202877
537.000000	2.437128
538.000000	2.645337
539.000000	2.839577
540.000000	3.082597
541.000000	3.253461
542.000000	3.467770
543.000000	3.655392
544.000000	3.850964
545.000000	4.025378
546.000000	4.195553
547.000000	4.376243
548.000000	4.549824
549.000000	4.735461
550.000000	4.922368
551.000000	5.080211
552.000000	5.238037
553.000000	5.364764
554.000000	5.508118
555.000000	5.609292
556.000000	5.693585
557.000000	5.801104
558.000000	5.866659
559.000000	5.928948
560.000000	6.058709
561.000000	6.125821
562.000000	6.183792
563.000000	6.207781
564.000000	6.249240
565.000000	6.329919
566.000000	6.401496
567.000000	6.495504
568.000000	6.586146
569.000000	6.681706
570.000000	6.803980
571.000000	6.930717
572.000000	7.025821
573.000000	7.152154
574.000000	7.276905
575.000000	7.373533
576.000000	7.482449
577.000000	7.589522
578.000000	7.677251
579.000000	7.746040
580.000000	7.828216
581.000000	7.872105
582.000000	7.929139
583.000000	7.992433
584.000000	8.047417
585.000000	8.100828
586.000000	8.183603
587.000000	8.233042
588.000000	8.289530
589.000000	8.350321
590.000000	8.416557
591.000000	8.493188
592.000000	8.564360
593.000000	8.618031
594.000000	8.707207
595.000000	8.754764
596.000000	8.839626
597.000000	8.876593
598.000000	8.885739
599.000000	8.919304
600.000000	8.927497
601.000000	8.924554
602.000000	8.902431
603.000000	8.861129
604.000000	8.851715
605.000000	8.803572
606.000000	8.732784
607.000000	8.675160
608.000000	8.579271
609.000000	8.492063
610.000000	8.356285
611.000000	8.226756
612.000000	8.069134
613.000000	7.894406
614.000000	7.669395
615.000000	7.424425
616.000000	7.176747
617.000000	6.885098
618.000000	6.588684
619.000000	6.274202
620.000000	5.937304
621.000000	5.595489
622.000000	5.237745
623.000000	4.906734
624.000000	4.574051
625.000000	4.236041
626.000000	3.938995
627.000000	3.634923
628.000000	3.341697
629.000000	3.032766
630.000000	2.764996
631.000000	2.523771
632.000000	2.315740
633.000000	2.151652
634.000000	2.010984
635.000000	1.919653
636.000000	1.864219
637.000000	1.858719
638.000000	1.877374
639.000000	1.947512
640.000000	2.068339
641.000000	2.189028
642.000000	2.322285
643.000000	2.485141
644.000000	2.628313
645.000000	2.801069
646.000000	2.967135
647.000000	3.119917
648.000000	3.273801
649.000000	3.425877
650.000000	3.555969
651.000000	3.688533
652.000000	3.830809
653.000000	3.919348
654.000000	4.012036
655.000000	4.075961
656.000000	4.155953
657.000000	4.236966
658.000000	4.308688
659.000000	4.312631
660.000000	4.355615
661.000000	4.386060
662.000000	4.395937
663.000000	4.410768
664.000000	4.390410
665.000000	4.359785
666.000000	4.351999
667.000000	4.331873
668.000000	4.269149
669.000000	4.210829
670.000000	4.175774
671.000000	4.090197
672.000000	3.989739
673.000000	3.914235
674.000000	3.837323
675.000000	3.751466
676.000000	3.665993
677.000000	3.579195
678.000000	3.498656
679.000000	3.400130
680.000000	3.298683
681.000000	3.220472
682.000000	3.140522
683.000000	3.050085
684.000000	2.962010
685.000000	2.911620
686.000000	2.868570
687.000000	2.808842
688.000000	2.774072
689.000000	2.768480
690.000000	2.733286
691.000000	2.714699
692.000000	2.698453
693.000000	2.675087
694.000000	2.679395
695.000000	2.668149
696.000000	2.634104
697.000000	2.640113
698.000000	2.673133
699.000000	2.711138
700.000000	2.723548
701.000000	2.762225
702.000000	2.793914
703.000000	2.790564
704.000000	2.799389
705.000000	2.831530
706.000000	2.861358
707.000000	2.883436
708.000000	2.910351
709.000000	2.939106
710.000000	2.944708
711.000000	2.950209
712.000000	2.930211
713.000000	2.952290
714.000000	2.977043
715.000000	2.986717
716.000000	3.011096
717.000000	3.010421
718.000000	3.027377
719.000000	3.037054
720.000000	3.046818
721.000000	3.048118
722.000000	3.060149
723.000000	3.030994
724.000000	2.998052
725.000000	2.994233
726.000000	2.989347
727.000000	2.960692
728.000000	2.932229
729.000000	2.900785
730.000000	2.867374
731.000000	2.859500
732.000000	2.809072
733.000000	2.754047
734.000000	2.768116
735.000000	2.743372
736.000000	2.657436
737.000000	2.600485
738.000000	2.552135
739.000000	2.547663
740.000000	2.511860
741.000000	2.432561
742.000000	2.378183
743.000000	2.339696
744.000000	2.289905
745.000000	2.196369
746.000000	2.137077
747.000000	2.153087
748.000000	2.094654
749.000000	2.019916
750.000000	1.973703
751.000000	1.896709
752.000000	1.880784
753.000000	1.883597
754.000000	1.845774
755.000000	1.837891
756.000000	1.814380
757.000000	1.783846
758.000000	1.747296
759.000000	1.739330
760.000000	1.740048
761.000000	1.745297
762.000000	1.763213
763.000000	1.744226
764.000000	1.781156
765.000000	1.783216
766.000000	1.788063
767.000000	1.808140
768.000000	1.821483
769.000000	1.881017
770.000000	1.917886
771.000000	1.938392
772.000000	1.970109
773.000000	2.024880
774.000000	2.052522
775.000000	2.070757
776.000000	2.107168
777.000000	2.157350
778.000000	2.243609
779.000000	2.310713
780.000000	2.346568
781.000000	2.425454
782.000000	2.441734
783.000000	2.486448
784.000000	2.521356
785.000000	2.605552
786.000000	2.734100
787.000000	2.821640
788.000000	2.866699
789.000000	2.861561
790.000000	2.968206
791.000000	3.012163
792.000000	3.045142
793.000000	3.131954
794.000000	3.182601
795.000000	3.195263
796.000000	3.281493
797.000000	3.369733
798.000000	3.444397
799.000000	3.461346
800.000000	3.434444
801.000000	3.397387
802.000000	3.507966
803.000000	3.552695
804.000000	3.593365
805.000000	3.687960
806.000000	3.767617
807.000000	3.782805
808.000000	3.800502
809.000000	3.802101
810.000000	3.827727
811.000000	3.809185
812.000000	3.854702
813.000000	3.901079
814.000000	3.908954
815.000000	3.988283
816.000000	4.059847
817.000000	3.995702
818.000000	4.066871
819.000000	4.076462
820.000000	4.041387
821.000000	4.119033
822.000000	4.193746
823.000000	4.200848
824.000000	4.155817
825.000000	4.218925
826.000000	4.188501
827.000000	4.298383
828.000000	4.316675
829.000000	4.300616
830.000000	4.286836
831.000000	4.386127
832.000000	4.381538
833.000000	4.391930
834.000000	4.538092
835.000000	4.480014
836.000000	4.509858
837.000000	4.399020
838.000000	4.496163
839.000000	4.646489
840.000000	4.629804
841.000000	4.681852
842.000000	4.648529
843.000000	4.521328
844.000000	4.659295
845.000000	4.697034
846.000000	4.771024
847.000000	4.739179
848.000000	4.870837
849.000000	4.984181
850.000000	4.850524
851.000000	4.946567
852.000000	4.981030
853.000000	4.738292
854.000000	4.970999
855.000000	4.956650
856.000000	5.040853
857.000000	5.187486
858.000000	5.079524
859.000000	5.286956
860.000000	5.190385
861.000000	5.115711
862.000000	5.077184
863.000000	5.007467
864.000000	4.965244
865.000000	4.884588
866.000000	4.830853
867.000000	4.758982
868.000000	4.713599
869.000000	4.651409
870.000000	4.614985
871.000000	4.544617
872.000000	4.501721
873.000000	4.433823
874.000000	4.404385
875.000000	4.335167
876.000000	4.301260
877.000000	4.255716
878.000000	4.233101
879.000000	4.213933
880.000000	4.150549
881.000000	4.118205
882.000000	4.069883
883.000000	4.030378
884.000000	3.998549
885.000000	3.979725
886.000000	3.963835
887.000000	3.923899
888.000000	3.880072
889.000000	3.876706
890.000000	3.847716
891.000000	3.822443
892.000000	3.801354
893.000000	3.786477
894.000000	3.752686
895.000000	3.729041
896.000000	3.707601
897.000000	3.695949
898.000000	3.661142
899.000000	3.649848
900.000000	3.640722
901.000000	3.613663
902.000000	3.602196
903.000000	3.586645
904.000000	3.587623
905.000000	3.572993
906.000000	3.581219
907.000000	3.551538
908.000000	3.551549
909.000000	3.530179
910.000000	3.514344
911.000000	3.487347
912.000000	3.461152
913.000000	3.456802
914.000000	3.436895
915.000000	3.420250
916.000000	3.383253
917.000000	3.363796
918.000000	3.331008
919.000000	3.325656
920.000000	3.287154
921.000000	3.258138
922.000000	3.219948
923.000000	3.165926
924.000000	3.134634
925.000000	3.096808
926.000000	3.067181
927.000000	3.013363
928.000000	2.941755
929.000000	2.892575
930.000000	2.857900
931.000000	2.818353
932.000000	2.771071
933.000000	2.726355
934.000000	2.658309
935.000000	2.635507
936.000000	2.588318
937.000000	2.542534
938.000000	2.488654
939.000000	2.445924
940.000000	2.399943
941.000000	2.363386
942.000000	2.306919
943.000000	2.274190
944.000000	2.241368
945.000000	2.188882
946.000000	2.156684
947.000000	2.119684
948.000000	2.068381
949.000000	2.019296
950.000000	2.016392
951.000000	1.973455
952.000000	1.939430
953.000000	1.921204
954.000000	1.882219
955.000000	1.869595
956.000000	1.854039
957.000000	1.818884
958.000000	1.808038
959.000000	1.788602
960.000000	1.767935
961.000000	1.756634
962.000000	1.734867
963.000000	1.731108
964.000000	1.707477
965.000000	1.693183
966.000000	1.674718
967.000000	1.663435
968.000000	1.650860
969.000000	1.640096
970.000000	1.612720
971.000000	1.597470
972.000000	1.573951
973.000000	1.551487
974.000000	1.527996
975.000000	1.514255
976.000000	1.502695
977.000000	1.469517
978.000000	1.434834
979.000000	1.422772
980.000000	1.408906
981.000000	1.369481
982.000000	1.327682
983.000000	1.310252
984.000000	1.276185
985.000000	1.245913
986.000000	1.221494
987.000000	1.177748
988.000000	1.140067
989.000000	1.112612
990.000000	1.077393
991.000000	1.029020
992.000000	1.002071
993.000000	0.966412
994.000000	0.929128
995.000000	0.884049
996.000000	0.847056
997.000000	0.815251
998.000000	0.795538
999.000000	0.741966
1000.000000	0.703602
1001.000000	0.687632
1002.000000	0.655409
1003.000000	0.612585
1004.000000	0.581344
1005.000000	0.553061
1006.000000	0.528527
1007.000000	0.501293
1008.000000	0.457335
1009.000000	0.425386
1010.000000	0.403539
1011.000000	0.385549
1012.000000	0.358696
1013.000000	0.322764
1014.000000	0.303004
1015.000000	0.281029
1016.000000	0.265614
1017.000000	0.251440
1018.000000	0.239857
1019.000000	0.220433
1020.000000	0.199368
1021.000000	0.186659
1022.000000	0.172759
1023.000000	0.168157
1024.000000	0.173170
1025.000000	0.157678
1026.000000	0.148179
1027.000000	0.145799
1028.000000	0.140964
1029.000000	0.135053
1030.000000	0.131100
1031.000000	0.128884
1032.000000	0.124125
1033.000000	0.119595
1034.000000	0.121453
1035.000000	0.123211
1036.000000	0.114872
1037.000000	0.107694
1038.000000	0.111121
1039.000000	0.110112
1040.000000	0.118070
1041.000000	0.122255
1042.000000	0.118497
1043.000000	0.123768
1044.000000	0.125389
1045.000000	0.123712
1046.000000	0.121083
1047.000000	0.122320
1048.000000	0.129083
1049.000000	0.141031
1050.000000	0.149539
1051.000000	0.147072
1052.000000	0.158252
1053.000000	0.168065
1054.000000	0.161440
1055.000000	0.165644
1056.000000	0.166538
1057.000000	0.173132
1058.000000	0.176362
1059.000000	0.186449
1060.000000	0.185579
1061.000000	0.188971
1062.000000	0.200684
1063.000000	0.204084
1064.000000	0.197831
1065.000000	0.202926
1066.000000	0.209510
1067.000000	0.203908
1068.000000	0.204449
1069.000000	0.220092
1070.000000	0.220751
1071.000000	0.219196
1072.000000	0.217316
1073.000000	0.210549
1074.000000	0.216059
1075.000000	0.217831
1076.000000	0.214696
1077.000000	0.220410
1078.000000	0.231613
1079.000000	0.227687
1080.000000	0.226930
1081.000000	0.230595
1082.000000	0.230511
1083.000000	0.228338
1084.000000	0.232435
1085.000000	0.232085
1086.000000	0.230844
1087.000000	0.222227
1088.000000	0.231376
1089.000000	0.226179
1090.000000	0.238822
1091.000000	0.237881
1092.000000	0.240064
1093.000000	0.233296
1094.000000	0.240303
1095.000000	0.251872
1096.000000	0.246204
1097.000000	0.237709
1098.000000	0.240226
1099.000000	0.243868
1100.000000	0.259294
1101.000000	0.262579
1102.000000	0.258041
1103.000000	0.258047
1104.000000	0.256825
1105.000000	0.259221
1106.000000	0.259654
1107.000000	0.271189
1108.000000	0.271943
1109.000000	0.263019
1110.000000	0.274829
1111.000000	0.272496
1112.000000	0.270268
1113.000000	0.268926
1114.000000	0.274694
1115.000000	0.269634
1116.000000	0.277479
1117.000000	0.276246
1118.000000	0.277355
1119.000000	0.273452
1120.000000	0.277314
1121.000000	0.282441
1122.000000	0.283140
1123.000000	0.281722
1124.000000	0.290156
1125.000000	0.286449
1126.000000	0.288966
1127.000000	0.288280
1128.000000	0.298461
1129.000000	0.289010
1130.000000	0.282020
1131.000000	0.290014
1132.000000	0.299963
1133.000000	0.288861
1134.000000	0.288142
1135.000000	0.275665
1136.000000	0.282375
1137.000000	0.302839
1138.000000	0.328935
1139.000000	0.342777
1140.000000	0.367615
1141.000000	0.383380
1142.000000	0.415144
1143.000000	0.439326
1144.000000	0.476521
1145.000000	0.495879
1146.000000	0.516636
1147.000000	0.514646
1148.000000	0.530512
1149.000000	0.515447
1150.000000	0.510174
1151.000000	0.498264
1152.000000	0.489623
1153.000000	0.499421
1154.000000	0.484972
1155.000000	0.503114
1156.000000	0.511683
1157.000000	0.521568
1158.000000	0.532510
1159.000000	0.571816
1160.000000	0.600416
1161.000000	0.610113
1162.000000	0.643462
1163.000000	0.668159
1164.000000	0.696721
1165.000000	0.733527
1166.000000	0.762966
1167.000000	0.789650
1168.000000	0.823290
1169.000000	0.858473
1170.000000	0.896958
1171.000000	0.924454
1172.000000	0.956082
1173.000000	0.990552
1174.000000	1.018926
1175.000000	1.054211
1176.000000	1.098146
1177.000000	1.142656
1178.000000	1.180528
1179.000000	1.237916
1180.000000	1.307723
1181.000000	1.385283
1182.000000	1.471476
1183.000000	1.544314
1184.000000	1.600686
1185.000000	1.628936
1186.000000	1.646810
1187.000000	1.636187
1188.000000	1.616407
1189.000000	1.586125
1190.000000	1.536799
1191.000000	1.479927
1192.000000	1.426327
1193.000000	1.386856
1194.000000	1.343557
1195.000000	1.316884
1196.000000	1.303638
1197.000000	1.264322
1198.000000	1.247395
1199.000000	1.247943
1200.000000	1.247887
1201.000000	1.240620
1202.000000	1.254451
1203.000000	1.249899
1204.000000	1.244773
1205.000000	1.255961
1206.000000	1.249795
1207.000000	1.238806
1208.000000	1.243735
1209.000000	1.240700
1210.000000	1.229258
1211.000000	1.211429
1212.000000	1.209210
1213.000000	1.186793
1214.000000	1.177409
1215.000000	1.162177
1216.000000	1.145998
1217.000000	1.126386
1218.000000	1.104789
1219.000000	1.098510
1220.000000	1.080887
1221.000000	1.053918
1222.000000	1.035835
1223.000000	1.025877
1224.000000	0.999303
1225.000000	0.974577
1226.000000	0.945522
1227.000000	0.926030
1228.000000	0.901375
1229.000000	0.875771
1230.000000	0.843368
1231.000000	0.819470
1232.000000	0.805616
1233.000000	0.777504
1234.000000	0.757534
1235.000000	0.740096
1236.000000	0.724347
1237.000000	0.706478
1238.000000	0.684447
1239.000000	0.660536
1240.000000	0.642401
1241.000000	0.632623
1242.000000	0.619039
1243.000000	0.603414
1244.000000	0.594969
1245.000000	0.579869
1246.000000	0.576283
1247.000000	0.568334
1248.000000	0.557410
1249.000000	0.560029
1250.000000	0.555754
1251.000000	0.543097
1252.000000	0.521657
1253.000000	0.515395
1254.000000	0.511360
1255.000000	0.510316
1256.000000	0.500596
1257.000000	0.502087
1258.000000	0.493813
1259.000000	0.495386
1260.000000	0.489680
1261.000000	0.485637
1262.000000	0.483068
1263.000000	0.490287
1264.000000	0.488853
1265.000000	0.485603
1266.000000	0.485966
1267.000000	0.486821
1268.000000	0.481258
1269.000000	0.477015
1270.000000	0.473154
1271.000000	0.472646
1272.000000	0.476241
1273.000000	0.468646
1274.000000	0.460370
1275.000000	0.462840
1276.000000	0.463356
1277.000000	0.461821
1278.000000	0.462862
1279.000000	0.462658
1280.000000	0.457144
1281.000000	0.449646
1282.000000	0.447981
1283.000000	0.448968
1284.000000	0.444127
1285.000000	0.441875
1286.000000	0.442491
1287.000000	0.446909
1288.000000	0.443463
1289.000000	0.436361
1290.000000	0.432632
1291.000000	0.432848
1292.000000	0.444503
1293.000000	0.443275
1294.000000	0.436437
1295.000000	0.438123
1296.000000	0.444905
1297.000000	0.441187
1298.000000	0.439694
1299.000000	0.436932
1300.000000	0.435695
1301.000000	0.439770
1302.000000	0.437998
1303.000000	0.438196
1304.000000	0.442310
1305.000000	0.439100
1306.000000	0.441121
1307.000000	0.451274
1308.000000	0.454858
1309.000000	0.456988
1310.000000	0.458304
1311.000000	0.459112
1312.000000	0.453314
1313.000000	0.446976
1314.000000	0.457484
1315.000000	0.463460
1316.000000	0.467783
1317.000000	0.478314
1318.000000	0.486393
1319.000000	0.486775
1320.000000	0.485138
1321.000000	0.486895
1322.000000	0.485185
1323.000000	0.489321
1324.000000	0.498109
1325.000000	0.517882
1326.000000	0.529218
1327.000000	0.530417
1328.000000	0.545163
1329.000000	0.559650
1330.000000	0.558519
1331.000000	0.565390
1332.000000	0.575807
1333.000000	0.584226
1334.000000	0.595231
1335.000000	0.616675
1336.000000	0.623593
1337.000000	0.629907
1338.000000	0.645379
1339.000000	0.660201
1340.000000	0.675510
1341.000000	0.684853
1342.000000	0.699064
1343.000000	0.709991
1344.000000	0.717515
1345.000000	0.745194
1346.000000	0.763331
1347.000000	0.780033
1348.000000	0.817585
1349.000000	0.848919
1350.000000	0.906127
1351.000000	0.962843
1352.000000	1.021893
1353.000000	1.079823
1354.000000	1.141168
1355.000000	1.185509
1356.000000	1.225774
1357.000000	1.261901
1358.000000	1.270729
1359.000000	1.266591
1360.000000	1.294627
1361.000000	1.288181
1362.000000	1.307404
1363.000000	1.311785
1364.000000	1.309405
1365.000000	1.319910
1366.000000	1.338302
1367.000000	1.362157
1368.000000	1.386528
1369.000000	1.411033
1370.000000	1.451726
1371.000000	1.505030
1372.000000	1.545682
1373.000000	1.597295
1374.000000	1.641310
1375.000000	1.664665
1376.000000	1.682201
1377.000000	1.680293
1378.000000	1.697714
1379.000000	1.700100
1380.000000	1.719005
1381.000000	1.741558
1382.000000	1.770015
1383.000000	1.799703
1384.000000	1.851240
1385.000000	1.896845
1386.000000	1.936648
1387.000000	1.982666
1388.000000	2.008886
1389.000000	2.034052
1390.000000	2.058899
1391.000000	2.082847
1392.000000	2.106060
1393.000000	2.123702
1394.000000	2.150276
1395.000000	2.165969
1396.000000	2.156515
1397.000000	2.177666
1398.000000	2.213186
1399.000000	2.242274
1400.000000	2.261165
1401.000000	2.242772
1402.000000	2.310202
1403.000000	2.340939
1404.000000	2.375156
1405.000000	2.405551
1406.000000	2.442727
1407.000000	2.475095
1408.000000	2.500688
1409.000000	2.520978
1410.000000	2.533991
1411.000000	2.548061
1412.000000	2.574248
1413.000000	2.569072
1414.000000	2.599354
1415.000000	2.599563
1416.000000	2.624158
1417.000000	2.652399
1418.000000	2.664782
1419.000000	2.672589
1420.000000	2.687197
1421.000000	2.691363
1422.000000	2.732258
1423.000000	2.737576
1424.000000	2.744322
1425.000000	2.772966
1426.000000	2.780794
1427.000000	2.786707
1428.000000	2.820302
1429.000000	2.822162
1430.000000	2.825944
1431.000000	2.850619
1432.000000	2.862038
1433.000000	2.862132
1434.000000	2.865114
1435.000000	2.866452
1436.000000	2.893309
1437.000000	2.879199
1438.000000	2.899997
1439.000000	2.916948
1440.000000	2.914759
1441.000000	2.929767
1442.000000	2.939453
1443.000000	2.948390
1444.000000	2.954435
1445.000000	2.962658
1446.000000	2.961426
1447.000000	2.963399
1448.000000	2.979769
1449.000000	2.985329
1450.000000	3.001017
1451.000000	3.000159
1452.000000	3.013819
1453.000000	3.021582
1454.000000	3.024081
1455.000000	3.023277
1456.000000	3.016461
1457.000000	3.016275
1458.000000	3.021449
1459.000000	3.016835
1460.000000	3.013619
1461.000000	3.024105
1462.000000	3.016874
1463.000000	3.007787
1464.000000	3.002789
1465.000000	2.991975
1466.000000	3.011679
1467.000000	3.000688
1468.000000	2.989141
1469.000000	2.991111
1470.000000	2.973227
1471.000000	2.968262
1472.000000	2.956421
1473.000000	2.953325
1474.000000	2.949140
1475.000000	2.933318
1476.000000	2.931446
1477.000000	2.928180
1478.000000	2.923003
1479.000000	2.917562
1480.000000	2.909682
1481.000000	2.897707
1482.000000	2.890874
1483.000000	2.891273
1484.000000	2.884494
1485.000000	2.879813
1486.000000	2.862984
1487.000000	2.865410
1488.000000	2.861740
1489.000000	2.859803
1490.000000	2.843716
1491.000000	2.849116
1492.000000	2.825868
1493.000000	2.820734
1494.000000	2.818792
1495.000000	2.803734
1496.000000	2.797382
1497.000000	2.806024
1498.000000	2.798600
1499.000000	2.804756
1500.000000	2.779876
1501.000000	2.790093
1502.000000	2.798137
1503.000000	2.793540
1504.000000	2.794885
1505.000000	2.790177
1506.000000	2.790257
1507.000000	2.791467
1508.000000	2.783051
1509.000000	2.791362
1510.000000	2.792267
1511.000000	2.791583
1512.000000	2.797659
1513.000000	2.792343
1514.000000	2.778357
1515.000000	2.779269
1516.000000	2.774647
1517.000000	2.772379
1518.000000	2.773622
1519.000000	2.776691
1520.000000	2.774176
1521.000000	2.769188
1522.000000	2.770403
1523.000000	2.778455
1524.000000	2.775842
1525.000000	2.767687
1526.000000	2.770992
1527.000000	2.765200
1528.000000	2.758394
1529.000000	2.763051
1530.000000	2.762074
1531.000000	2.760845
1532.000000	2.762037
1533.000000	2.764458
1534.000000	2.760066
1535.000000	2.753768
1536.000000	2.753622
1537.000000	2.752314
1538.000000	2.745844
1539.000000	2.745407
1540.000000	2.751248
1541.000000	2.749927
1542.000000	2.744479
1543.000000	2.742254
1544.000000	2.750147
1545.000000	2.745873
1546.000000	2.742652
1547.000000	2.749122
1548.000000	2.759497
1549.000000	2.766626
1550.000000	2.771816
1551.000000	2.779088
1552.000000	2.786498
1553.000000	2.791968
1554.000000	2.790332
1555.000000	2.785278
1556.000000	2.780508
1557.000000	2.792679
1558.000000	2.794508
1559.000000	2.789009
1560.000000	2.795381
1561.000000	2.797735
1562.000000	2.793335
1563.000000	2.782111
1564.000000	2.779272
1565.000000	2.787122
1566.000000	2.787407
1567.000000	2.781481
1568.000000	2.773983
1569.000000	2.763297
1570.000000	2.755614
1571.000000	2.753495
1572.000000	2.752652
1573.000000	2.743511
1574.000000	2.739046
1575.000000	2.739250
1576.000000	2.735049
1577.000000	2.725654
1578.000000	2.731775
1579.000000	2.725236
1580.000000	2.717571
1581.000000	2.721828
1582.000000	2.720654
1583.000000	2.714146
1584.000000	2.709632
1585.000000	2.712092
1586.000000	2.718539
1587.000000	2.717710
1588.000000	2.710593
1589.000000	2.711255
1590.000000	2.707968
1591.000000	2.704450
1592.000000	2.688793
1593.000000	2.681913
1594.000000	2.678130
1595.000000	2.681540
1596.000000	2.681324
1597.000000	2.679282
1598.000000	2.678596
1599.000000	2.674479
1600.000000	2.668605
1601.000000	2.664291
1602.000000	2.665724
1603.000000	2.652318
1604.000000	2.641198
1605.000000	2.642582
1606.000000	2.638416
1607.000000	2.624945
1608.000000	2.621552
1609.000000	2.620002
1610.000000	2.611147
1611.000000	2.607357
1612.000000	2.595220
1613.000000	2.586490
1614.000000	2.578810
1615.000000	2.568717
1616.000000	2.563436
1617.000000	2.564020
1618.000000	2.546994
1619.000000	2.534733
1620.000000	2.528255
1621.000000	2.522625
1622.000000	2.511595
1623.000000	2.492699
1624.000000	2.485534
1625.000000	2.478279
1626.000000	2.464210
1627.000000	2.466160
1628.000000	2.462637
1629.000000	2.441527
1630.000000	2.431910
1631.000000	2.425675
1632.000000	2.411867
1633.000000	2.399251
1634.000000	2.377255
1635.000000	2.372931
1636.000000	2.370772
1637.000000	2.353061
1638.000000	2.347269
1639.000000	2.332187
1640.000000	2.318351
1641.000000	2.299826
1642.000000	2.291294
1643.000000	2.282833
1644.000000	2.287085
1645.000000	2.272639
1646.000000	2.266369
1647.000000	2.244864
1648.000000	2.232490
1649.000000	2.226457
1650.000000	2.220976
1651.000000	2.207100
1652.000000	2.193251
1653.000000	2.174813
1654.000000	2.155768
1655.000000	2.139702
1656.000000	2.124315
1657.000000	2.105002
1658.000000	2.074595
1659.000000	2.053362
1660.000000	2.031333
1661.000000	1.998969
1662.000000	1.970505
1663.000000	1.937605
1664.000000	1.914546
1665.000000	1.891549
1666.000000	1.863900
1667.000000	1.855417
1668.000000	1.832441
1669.000000	1.821465
1670.000000	1.831264
1671.000000	1.834428
1672.000000	1.856065
1673.000000	1.865041
1674.000000	1.901467
1675.000000	1.940131
1676.000000	1.978137
1677.000000	2.020401
1678.000000	2.078783
1679.000000	2.125734
1680.000000	2.179332
1681.000000	2.185679
1682.000000	2.224078
1683.000000	2.232063
1684.000000	2.218008
1685.000000	2.212392
1686.000000	2.208032
1687.000000	2.217249
1688.000000	2.242805
1689.000000	2.281892
1690.000000	2.317200
1691.000000	2.370690
1692.000000	2.399548
1693.000000	2.443268
1694.000000	2.459349
1695.000000	2.465737
1696.000000	2.465355
1697.000000	2.445498
1698.000000	2.420613
1699.000000	2.408912
1700.000000	2.369618
1701.000000	2.345111
1702.000000	2.325017
1703.000000	2.293870
1704.000000	2.288369
1705.000000	2.258582
1706.000000	2.241474
1707.000000	2.222446
1708.000000	2.200462
1709.000000	2.165241
1710.000000	2.166841
1711.000000	2.143231
1712.000000	2.114172
1713.000000	2.102131
1714.000000	2.082594
1715.000000	2.071938
1716.000000	2.061122
1717.000000	2.024032
1718.000000	1.999777
1719.000000	1.970977
1720.000000	1.956106
1721.000000	1.943745
1722.000000	1.935507
1723.000000	1.930150
1724.000000	1.929796
1725.000000	1.963703
1726.000000	1.993748
1727.000000	2.019443
1728.000000	2.047485
1729.000000	2.076798
1730.000000	2.103332
1731.000000	2.137611
1732.000000	2.144986
1733.000000	2.174931
1734.000000	2.181584
1735.000000	2.182851
1736.000000	2.181068
1737.000000	2.173761
1738.000000	2.155799
1739.000000	2.141999
1740.000000	2.126118
1741.000000	2.118005
1742.000000	2.097542
1743.000000	2.077292
1744.000000	2.065028
1745.000000	2.064901
1746.000000	2.048069
1747.000000	2.050586
1748.000000	2.045915
1749.000000	2.033704
1750.000000	2.026110
1751.000000	2.039145
1752.000000	2.047521
1753.000000	2.052647
1754.000000	2.045929
1755.000000	2.064850
1756.000000	2.083572
1757.000000	2.098064
1758.000000	2.116318
1759.000000	2.131227
1760.000000	2.143753
1761.000000	2.160797
1762.000000	2.173470
1763.000000	2.184789
1764.000000	2.180275
1765.000000	2.193815
1766.000000	2.184456
1767.000000	2.183751
1768.000000	2.176455
1769.000000	2.178765
1770.000000	2.155889
1771.000000	2.149205
1772.000000	2.140604
1773.000000	2.121254
1774.000000	2.118487
1775.000000	2.106414
1776.000000	2.098092
1777.000000	2.098901
1778.000000	2.085323
1779.000000	2.070359
1780.000000	2.076542
1781.000000	2.056195
1782.000000	2.048003
1783.000000	2.043217
1784.000000	2.028443
1785.000000	2.014339
1786.000000	2.002187
1787.000000	1.993776
1788.000000	1.987415
1789.000000	1.970442
1790.000000	1.954735
1791.000000	1.948354
1792.000000	1.942814
1793.000000	1.939337
1794.000000	1.925728
1795.000000	1.912247
1796.000000	1.906803
1797.000000	1.898463
1798.000000	1.889179
1799.000000	1.890767
1800.000000	1.872050
1801.000000	1.859272
1802.000000	1.853704
1803.000000	1.851471
1804.000000	1.846015
1805.000000	1.838769
1806.000000	1.824431
1807.000000	1.811308
1808.000000	1.809627
1809.000000	1.815434
1810.000000	1.811715
1811.000000	1.803768
1812.000000	1.797604
1813.000000	1.795207
1814.000000	1.798626
1815.000000	1.801726
1816.000000	1.796380
1817.000000	1.798761
1818.000000	1.801841
1819.000000	1.805572
1820.000000	1.809468
1821.000000	1.777328
1822.000000	1.753931
1823.000000	1.764372
1824.000000	1.777895
1825.000000	1.783485
1826.000000	1.782353
1827.000000	1.769501
1828.000000	1.764164
1829.000000	1.762161
1830.000000	1.752287
1831.000000	1.741342
1832.000000	1.735019
1833.000000	1.740828
1834.000000	1.739529
1835.000000	1.743678
1836.000000	1.748205
1837.000000	1.743458
1838.000000	1.744635
1839.000000	1.740857
1840.000000	1.736986
1841.000000	1.729631
1842.000000	1.717959
1843.000000	1.716390
1844.000000	1.732460
1845.000000	1.766015
1846.000000	1.774046
1847.000000	1.750680
1848.000000	1.725119
1849.000000	1.705537
1850.000000	1.693280
1851.000000	1.703748
1852.000000	1.711398
1853.000000	1.708615
1854.000000	1.704549
1855.000000	1.695259
1856.000000	1.698497
1857.000000	1.709451
1858.000000	1.716206
1859.000000	1.717463
1860.000000	1.709986
1861.000000	1.722357
1862.000000	1.727013
1863.000000	1.737094
1864.000000	1.771396
1865.000000	1.796539
1866.000000	1.821974
1867.000000	1.849663
1868.000000	1.881659
1869.000000	1.919248
1870.000000	1.952066
1871.000000	1.975727
1872.000000	2.002275
1873.000000	2.030984
1874.000000	2.079988
1875.000000	2.121754
1876.000000	2.168859
1877.000000	2.214486
1878.000000	2.258383
1879.000000	2.314637
1880.000000	2.378332
1881.000000	2.444204
1882.000000	2.509834
1883.000000	2.548804
1884.000000	2.596885
1885.000000	2.632715
1886.000000	2.655140
1887.000000	2.671897
1888.000000	2.684139
1889.000000	2.693631
1890.000000	2.684409
1891.000000	2.669477
1892.000000	2.654750
1893.000000	2.628357
1894.000000	2.607425
1895.000000	2.597636
1896.000000	2.579445
1897.000000	2.569847
1898.000000	2.551737
1899.000000	2.514518
1900.000000	2.473168
1901.000000	2.453886
1902.000000	2.426168
1903.000000	2.415923
1904.000000	2.399115
1905.000000	2.378134
1906.000000	2.344388
1907.000000	2.331392
1908.000000	2.311729
1909.000000	2.311040
1910.000000	2.313313
1911.000000	2.307762
1912.000000	2.290083
1913.000000	2.268323
1914.000000	2.262359
1915.000000	2.241831
1916.000000	2.230905
1917.000000	2.238038
1918.000000	2.235208
1919.000000	2.236191
1920.000000	2.215439
1921.000000	2.209748
1922.000000	2.195624
1923.000000	2.179112
1924.000000	2.181649
1925.000000	2.188494
1926.000000	2.197354
1927.000000	2.173854
1928.000000	2.166975
1929.000000	2.166677
1930.000000	2.175548
1931.000000	2.173826
1932.000000	2.171799
1933.000000	2.160609
1934.000000	2.172560
1935.000000	2.164113
1936.000000	2.173908
1937.000000	2.168907
1938.000000	2.171784
1939.000000	2.175726
1940.000000	2.180192
1941.000000	2.175648
1942.000000	2.183465
1943.000000	2.189975
1944.000000	2.187382
1945.000000	2.194317
1946.000000	2.214187
1947.000000	2.209092
1948.000000	2.206383
1949.000000	2.201059
1950.000000	2.220609
1951.000000	2.226939
1952.000000	2.227441
1953.000000	2.228972
1954.000000	2.240201
1955.000000	2.248219
1956.000000	2.247105
1957.000000	2.253686
1958.000000	2.262356
1959.000000	2.266825
1960.000000	2.278232
1961.000000	2.273199
1962.000000	2.284346
1963.000000	2.297372
1964.000000	2.284081
1965.000000	2.292232
1966.000000	2.292646
1967.000000	2.290635
1968.000000	2.302556
1969.000000	2.301843
1970.000000	2.301771
1971.000000	2.303887
1972.000000	2.315001
1973.000000	2.308524
1974.000000	2.306444
1975.000000	2.297735
1976.000000	2.314451
1977.000000	2.319576
1978.000000	2.315570
1979.000000	2.314594
1980.000000	2.318557
1981.000000	2.312429
1982.000000	2.322020
1983.000000	2.320481
1984.000000	2.323568
1985.000000	2.310756
1986.000000	2.320672
1987.000000	2.304723
1988.000000	2.318207
1989.000000	2.309354
1990.000000	2.316912
1991.000000	2.319823
1992.000000	2.314134
1993.000000	2.321098
1994.000000	2.307942
1995.000000	2.313791
1996.000000	2.316861
1997.000000	2.309156
1998.000000	2.304038
1999.000000	2.299774
2000.000000	2.289075
2001.000000	2.297618
2002.000000	2.297895
2003.000000	2.283772
2004.000000	2.274969
2005.000000	2.259041
2006.000000	2.255962
2007.000000	2.248554
2008.000000	2.251359
2009.000000	2.238129
2010.000000	2.236738
2011.000000	2.234507
2012.000000	2.213215
2013.000000	2.202719
2014.000000	2.206319
2015.000000	2.186517
2016.000000	2.185633
2017.000000	2.160468
2018.000000	2.151061
2019.000000	2.150528
2020.000000	2.134657
2021.000000	2.120529
2022.000000	2.100861
2023.000000	2.092801
2024.000000	2.074612
2025.000000	2.069433
2026.000000	2.055732
2027.000000	2.049624
2028.000000	2.020024
2029.000000	1.995013
2030.000000	1.989319
2031.000000	1.983702
2032.000000	1.980592
2033.000000	1.948313
2034.000000	1.942350
2035.000000	1.923716
2036.000000	1.903226
2037.000000	1.891863
2038.000000	1.874540
2039.000000	1.855776
2040.000000	1.846028
2041.000000	1.824197
2042.000000	1.801123
2043.000000	1.782499
2044.000000	1.763171
2045.000000	1.748547
2046.000000	1.737270
2047.000000	1.719516
2048.000000	1.702301
2049.000000	1.689820
2050.000000	1.676260
2051.000000	1.672569
2052.000000	1.673415
2053.000000	1.665900
2054.000000	1.671485
2055.000000	1.680215
2056.000000	1.681692
2057.000000	1.679609
2058.000000	1.688397
2059.000000	1.698760
2060.000000	1.708612
2061.000000	1.711471
2062.000000	1.725419
2063.000000	1.755269
2064.000000	1.763014
2065.000000	1.778663
2066.000000	1.786908
2067.000000	1.796689
2068.000000	1.809241
2069.000000	1.816535
2070.000000	1.825337
2071.000000	1.837132
2072.000000	1.845591
2073.000000	1.854347
2074.000000	1.860585
2075.000000	1.856383
2076.000000	1.866556
2077.000000	1.880865
2078.000000	1.876920
2079.000000	1.862810
2080.000000	1.860688
2081.000000	1.868336
2082.000000	1.866830
2083.000000	1.864495
2084.000000	1.851891
2085.000000	1.841658
2086.000000	1.838844
2087.000000	1.824819
2088.000000	1.808822
2089.000000	1.802932
2090.000000	1.793172
2091.000000	1.773041
2092.000000	1.757854
2093.000000	1.755352
2094.000000	1.746377
2095.000000	1.737117
2096.000000	1.731263
2097.000000	1.717802
2098.000000	1.711177
2099.000000	1.714889
2100.000000	1.705135
2101.000000	1.696879
2102.000000	1.692248
2103.000000	1.680697
2104.000000	1.681894
2105.000000	1.686329
2106.000000	1.686462
2107.000000	1.676657
2108.000000	1.664047
2109.000000	1.666197
2110.000000	1.659662
2111.000000	1.640005
2112.000000	1.630115
2113.000000	1.634051
2114.000000	1.631484
2115.000000	1.623622
2116.000000	1.610826
2117.000000	1.602255
2118.000000	1.599392
2119.000000	1.581988
2120.000000	1.575033
2121.000000	1.575542
2122.000000	1.569123
2123.000000	1.562075
2124.000000	1.548880
2125.000000	1.542490
2126.000000	1.537537
2127.000000	1.534542
2128.000000	1.530963
2129.000000	1.534929
2130.000000	1.527052
2131.000000	1.510412
2132.000000	1.515985
2133.000000	1.506218
2134.000000	1.497243
2135.000000	1.493789
2136.000000	1.486852
2137.000000	1.471547
2138.000000	1.462849
2139.000000	1.452769
2140.000000	1.437036
2141.000000	1.436642
2142.000000	1.434622
2143.000000	1.415540
2144.000000	1.402493
2145.000000	1.397448
2146.000000	1.381484
2147.000000	1.374797
2148.000000	1.353419
2149.000000	1.335741
2150.000000	1.321873
2151.000000	1.319226
2152.000000	1.309704
2153.000000	1.289176
2154.000000	1.293532
2155.000000	1.292659
2156.000000	1.275563
2157.000000	1.264047
2158.000000	1.260061
2159.000000	1.243432
2160.000000	1.248166
2161.000000	1.235820
2162.000000	1.230177
2163.000000	1.229232
2164.000000	1.222069
2165.000000	1.210697
2166.000000	1.209581
2167.000000	1.214946
2168.000000	1.217329
2169.000000	1.206316
2170.000000	1.203489
2171.000000	1.212436
2172.000000	1.199843
2173.000000	1.199329
2174.000000	1.211976
2175.000000	1.217236
2176.000000	1.207105
2177.000000	1.209592
2178.000000	1.210817
2179.000000	1.208558
2180.000000	1.212427
2181.000000	1.225432
2182.000000	1.218589
2183.000000	1.221028
2184.000000	1.229813
2185.000000	1.228617
2186.000000	1.225325
2187.000000	1.218555
2188.000000	1.230452
2189.000000	1.232697
2190.000000	1.237428
2191.000000	1.245837
2192.000000	1.247585
2193.000000	1.248982
2194.000000	1.236492
2195.000000	1.244651
2196.000000	1.262759
2197.000000	1.260800
2198.000000	1.266205
2199.000000	1.263916
2200.000000	1.280294
2201.000000	1.264801
2202.000000	1.276207
2203.000000	1.289513
2204.000000	1.279813
2205.000000	1.290812
2206.000000	1.295115
2207.000000	1.302618
2208.000000	1.317760
2209.000000	1.316821
2210.000000	1.327993
2211.000000	1.320086
2212.000000	1.337465
2213.000000	1.341505
2214.000000	1.343166
2215.000000	1.351664
2216.000000	1.358572
2217.000000	1.356907
2218.000000	1.368911
2219.000000	1.373677
2220.000000	1.393000
2221.000000	1.405681
2222.000000	1.414528
2223.000000	1.414802
2224.000000	1.418255
2225.000000	1.417635
2226.000000	1.433627
2227.000000	1.432739
2228.000000	1.426769
2229.000000	1.428876
2230.000000	1.447640
2231.000000	1.444650
2232.000000	1.454074
2233.000000	1.455608
2234.000000	1.460945
2235.000000	1.452268
2236.000000	1.457845
2237.000000	1.471170
2238.000000	1.472733
2239.000000	1.450227
2240.000000	1.466996
2241.000000	1.453699
2242.000000	1.456195
2243.000000	1.465899
2244.000000	1.462318
2245.000000	1.464255
2246.000000	1.458335
2247.000000	1.453957
2248.000000	1.455370
2249.000000	1.442486
2250.000000	1.455897
2251.000000	1.433421
2252.000000	1.456420
2253.000000	1.448878
2254.000000	1.428452
2255.000000	1.431280
2256.000000	1.410077
2257.000000	1.408822
2258.000000	1.402021
2259.000000	1.385086
2260.000000	1.389519
2261.000000	1.374343
2262.000000	1.369744
2263.000000	1.338959
2264.000000	1.325909
2265.000000	1.328972
2266.000000	1.301930
2267.000000	1.304755
2268.000000	1.303107
2269.000000	1.292059
2270.000000	1.285927
2271.000000	1.279846
2272.000000	1.257761
2273.000000	1.254724
2274.000000	1.258639
2275.000000	1.253632
2276.000000	1.243239
2277.000000	1.227230
2278.000000	1.241106
2279.000000	1.243473
2280.000000	1.232716
2281.000000	1.233235
2282.000000	1.216667
2283.000000	1.222473
2284.000000	1.225637
2285.000000	1.221466
2286.000000	1.217177
2287.000000	1.222408
2288.000000	1.220553
2289.000000	1.215870
2290.000000	1.212667
2291.000000	1.220693
2292.000000	1.220967
2293.000000	1.229410
2294.000000	1.224069
2295.000000	1.220519
2296.000000	1.229410
2297.000000	1.224222
2298.000000	1.219118
2299.000000	1.226216
2300.000000	1.216345
2301.000000	1.209402
2302.000000	1.210069
2303.000000	1.200912
2304.000000	1.213996
2305.000000	1.201190
2306.000000	1.194131
2307.000000	1.204564
2308.000000	1.198022
2309.000000	1.190652
2310.000000	1.197068
2311.000000	1.196270
2312.000000	1.210640
2313.000000	1.226742
2314.000000	1.235003
2315.000000	1.234325
2316.000000	1.237764
2317.000000	1.247886
2318.000000	1.259163
2319.000000	1.263488
2320.000000	1.260125
2321.000000	1.259581
2322.000000	1.261019
2323.000000	1.262290
2324.000000	1.269886
2325.000000	1.267248
2326.000000	1.274932
2327.000000	1.274241
2328.000000	1.273875
2329.000000	1.275850
2330.000000	1.276053
2331.000000	1.278378
2332.000000	1.285034
2333.000000	1.285785
2334.000000	1.271159
2335.000000	1.285093
2336.000000	1.292862
2337.000000	1.296774
2338.000000	1.310873
2339.000000	1.316444
2340.000000	1.310973
2341.000000	1.320832
2342.000000	1.328726
2343.000000	1.328322
2344.000000	1.330425
2345.000000	1.332826
2346.000000	1.330736
2347.000000	1.334849
2348.000000	1.334441
2349.000000	1.333885
2350.000000	1.330923
2351.000000	1.324687
2352.000000	1.327027
2353.000000	1.322569
2354.000000	1.320586
2355.000000	1.318659
2356.000000	1.313245
2357.000000	1.314948
2358.000000	1.321809
2359.000000	1.312772
2360.000000	1.309366
2361.000000	1.324168
2362.000000	1.330769
2363.000000	1.323179
2364.000000	1.318773
2365.000000	1.331018
2366.000000	1.335005
2367.000000	1.332634
2368.000000	1.336547
2369.000000	1.341162
2370.000000	1.342322
2371.000000	1.344448
2372.000000	1.348886
2373.000000	1.347523
2374.000000	1.347392
2375.000000	1.351994
2376.000000	1.357538
2377.000000	1.353022
2378.000000	1.357736
2379.000000	1.370183
2380.000000	1.362456
2381.000000	1.360908
2382.000000	1.382659
2383.000000	1.384339
2384.000000	1.374884
2385.000000	1.377180
2386.000000	1.378664
2387.000000	1.378797
2388.000000	1.375745
2389.000000	1.370446
2390.000000	1.375381
2391.000000	1.385045
2392.000000	1.375775
2393.000000	1.369046
2394.000000	1.369199
2395.000000	1.370478
2396.000000	1.367668
2397.000000	1.366077
2398.000000	1.364683
2399.000000	1.355939
2400.000000	1.361460
2401.000000	1.366851
2402.000000	1.355755
2403.000000	1.332781
2404.000000	1.325768
2405.000000	1.327682
2406.000000	1.328510
2407.000000	1.327119
2408.000000	1.322064
2409.000000	1.315850
2410.000000	1.299798
2411.000000	1.290125
2412.000000	1.288101
2413.000000	1.274102
2414.000000	1.272815
2415.000000	1.270307
2416.000000	1.268932
2417.000000	1.261167
2418.000000	1.253693
2419.000000	1.238576
2420.000000	1.226584
2421.000000	1.205298
2422.000000	1.185121
2423.000000	1.173855
2424.000000	1.164818
2425.000000	1.168069
2426.000000	1.163730
2427.000000	1.146772
2428.000000	1.133835
2429.000000	1.129822
2430.000000	1.129957
2431.000000	1.113395
2432.000000	1.101848
2433.000000	1.097982
2434.000000	1.085638
2435.000000	1.068525
2436.000000	1.073604
2437.000000	1.057226
2438.000000	1.042904
2439.000000	1.034181
2440.000000	1.012969
2441.000000	1.011010
2442.000000	1.006830
2443.000000	0.993987
2444.000000	0.983810
2445.000000	0.959227
2446.000000	0.955827
2447.000000	0.949668
2448.000000	0.944408
2449.000000	0.926612
2450.000000	0.894428
2451.000000	0.903589
2452.000000	0.895965
2453.000000	0.884085
2454.000000	0.881465
2455.000000	0.872503
2456.000000	0.853978
2457.000000	0.841138
2458.000000	0.827307
2459.000000	0.828621
2460.000000	0.831776
2461.000000	0.809439
2462.000000	0.816623
2463.000000	0.815590
2464.000000	0.790569
2465.000000	0.801090
2466.000000	0.802256
2467.000000	0.802861
2468.000000	0.788863
2469.000000	0.778871
2470.000000	0.769370
2471.000000	0.777311
2472.000000	0.785112
2473.000000	0.808044
2474.000000	0.767277
2475.000000	0.734711
2476.000000	0.767735
2477.000000	0.777395
2478.000000	0.772970
2479.000000	0.774728
2480.000000	0.756294
2481.000000	0.772236
2482.000000	0.757315
2483.000000	0.784986
2484.000000	0.799618
2485.000000	0.743570
2486.000000	0.747757
2487.000000	0.758647
2488.000000	0.751426
2489.000000	0.770233
2490.000000	0.757525
2491.000000	0.716137
2492.000000	0.779051
2493.000000	0.770628
2494.000000	0.727426
2495.000000	0.774380
2496.000000	0.748356
2497.000000	0.826304
2498.000000	0.764363
2499.000000	0.785723
2500.000000	0.731490
