PE UV       SUBTECH     SPECTRUM    ASCII       PEDS        4.00        
   -1
CICIMAUCR0070-3.Sample.ASC
24/04/18
13:44:03.00
24/04/18
13:44:03.00
Vinicio Soto Monge
C. resplendens
250,000000
1
Lambda 1050
1050L1511233
PerkinElmer UV WinLab 6.3.2.0749 / 2.02.05 Lambda 900 UV/VIS/NIR, Aug  7 2015 09:38:08

0
0
3350/servo 860,8/2
0
0
UV/VIS
1
1
1
DoubleDePol,CommonBeamDepol,RBeamAtt,SBeamAtt,60mm sphere, WB InGaAs Detector
0
0
0
0
Program
Program
3350/servo 860,8/2
3350/0,2 860,8/0,2
3350/0,2 860,8/0,2
0
15.00
 
 
 
0
 
860,8
319,2
860,8
Front
100
on
S:100 R:100
0
0
0
0
 
0
 
 
 
0
 
 
0
0
0
0
0
 
 
 
 
0
0


0
0
#HDR
-1
-1
#GR
nm
%R
1.0
0.0
2500,000000
-1,000000
2251
8
85,171500
5,254500
#DATA
250.000000	0.089989
251.000000	0.034591
252.000000	0.046528
253.000000	0.079273
254.000000	0.097107
255.000000	0.048720
256.000000	0.022815
257.000000	0.069225
258.000000	0.083393
259.000000	0.025631
260.000000	0.031103
261.000000	0.081359
262.000000	0.048839
263.000000	0.069707
264.000000	0.075518
265.000000	0.020699
266.000000	0.097540
267.000000	0.051750
268.000000	0.055408
269.000000	0.070034
270.000000	0.067074
271.000000	0.044883
272.000000	0.058966
273.000000	0.076863
274.000000	0.094579
275.000000	0.093522
276.000000	0.081750
277.000000	0.055129
278.000000	0.077619
279.000000	0.056355
280.000000	0.072816
281.000000	0.041617
282.000000	0.075744
283.000000	0.101056
284.000000	0.081468
285.000000	0.087031
286.000000	0.077089
287.000000	0.081816
288.000000	0.078234
289.000000	0.056257
290.000000	0.017203
291.000000	0.056078
292.000000	0.024250
293.000000	0.058152
294.000000	0.061059
295.000000	0.028558
296.000000	0.025518
297.000000	0.047654
298.000000	0.065402
299.000000	0.075381
300.000000	0.053737
301.000000	0.039224
302.000000	0.029482
303.000000	0.037250
304.000000	0.085644
305.000000	0.059893
306.000000	0.058909
307.000000	0.035847
308.000000	0.052623
309.000000	0.058207
310.000000	0.076220
311.000000	0.094817
312.000000	0.093158
313.000000	0.016921
314.000000	0.053714
315.000000	0.026988
316.000000	0.069251
317.000000	0.399757
318.000000	0.362561
319.000000	0.083338
320.000000	0.141171
321.000000	0.137385
322.000000	0.157129
323.000000	0.127967
324.000000	0.125824
325.000000	0.022402
326.000000	0.056707
327.000000	0.037430
328.000000	0.084918
329.000000	0.156363
330.000000	0.110304
331.000000	0.079993
332.000000	0.084974
333.000000	0.089931
334.000000	0.123589
335.000000	0.096434
336.000000	0.044904
337.000000	0.135708
338.000000	0.043031
339.000000	0.076327
340.000000	0.128726
341.000000	0.048155
342.000000	0.032015
343.000000	0.070005
344.000000	0.131991
345.000000	0.058856
346.000000	0.071505
347.000000	0.097394
348.000000	0.151483
349.000000	0.052216
350.000000	0.040517
351.000000	0.067558
352.000000	0.064900
353.000000	0.037569
354.000000	0.067544
355.000000	0.058475
356.000000	0.043550
357.000000	0.058771
358.000000	0.095807
359.000000	0.153058
360.000000	0.074921
361.000000	0.036263
362.000000	0.070256
363.000000	0.011980
364.000000	0.015591
365.000000	0.059830
366.000000	0.062423
367.000000	0.084614
368.000000	0.091727
369.000000	0.109408
370.000000	0.145828
371.000000	0.097600
372.000000	0.087785
373.000000	0.025144
374.000000	0.111773
375.000000	0.119891
376.000000	0.004041
377.000000	0.037990
378.000000	0.042650
379.000000	0.038775
380.000000	0.035927
381.000000	0.049568
382.000000	0.038087
383.000000	0.042220
384.000000	0.044432
385.000000	0.032088
386.000000	0.030181
387.000000	0.035139
388.000000	0.037153
389.000000	0.036380
390.000000	0.038652
391.000000	0.045323
392.000000	0.048604
393.000000	0.056764
394.000000	0.049155
395.000000	0.046653
396.000000	0.050577
397.000000	0.058528
398.000000	0.057482
399.000000	0.062711
400.000000	0.064217
401.000000	0.064492
402.000000	0.065554
403.000000	0.070199
404.000000	0.073085
405.000000	0.085135
406.000000	0.094589
407.000000	0.098700
408.000000	0.100791
409.000000	0.103322
410.000000	0.113563
411.000000	0.121556
412.000000	0.123340
413.000000	0.130125
414.000000	0.142149
415.000000	0.140746
416.000000	0.143926
417.000000	0.154997
418.000000	0.166123
419.000000	0.171014
420.000000	0.177930
421.000000	0.195919
422.000000	0.215944
423.000000	0.224147
424.000000	0.226192
425.000000	0.237964
426.000000	0.256379
427.000000	0.261502
428.000000	0.264565
429.000000	0.274340
430.000000	0.280136
431.000000	0.289264
432.000000	0.296726
433.000000	0.297644
434.000000	0.304815
435.000000	0.314163
436.000000	0.316745
437.000000	0.320608
438.000000	0.329776
439.000000	0.331405
440.000000	0.329058
441.000000	0.340766
442.000000	0.341193
443.000000	0.324676
444.000000	0.326986
445.000000	0.333215
446.000000	0.324142
447.000000	0.317545
448.000000	0.312955
449.000000	0.313024
450.000000	0.295050
451.000000	0.280304
452.000000	0.272424
453.000000	0.258172
454.000000	0.248111
455.000000	0.240173
456.000000	0.226185
457.000000	0.220460
458.000000	0.214225
459.000000	0.201573
460.000000	0.196217
461.000000	0.201172
462.000000	0.192821
463.000000	0.181794
464.000000	0.165204
465.000000	0.154558
466.000000	0.156290
467.000000	0.145094
468.000000	0.138440
469.000000	0.136948
470.000000	0.134629
471.000000	0.125170
472.000000	0.115826
473.000000	0.114268
474.000000	0.111433
475.000000	0.115264
476.000000	0.113085
477.000000	0.113592
478.000000	0.111690
479.000000	0.117180
480.000000	0.126101
481.000000	0.133294
482.000000	0.153361
483.000000	0.170267
484.000000	0.177672
485.000000	0.181705
486.000000	0.203304
487.000000	0.211715
488.000000	0.223024
489.000000	0.234433
490.000000	0.243163
491.000000	0.246874
492.000000	0.256266
493.000000	0.273031
494.000000	0.288078
495.000000	0.301109
496.000000	0.325303
497.000000	0.343547
498.000000	0.361170
499.000000	0.384112
500.000000	0.399606
501.000000	0.420494
502.000000	0.454604
503.000000	0.495503
504.000000	0.533312
505.000000	0.584537
506.000000	0.631583
507.000000	0.699660
508.000000	0.754969
509.000000	0.809924
510.000000	0.863375
511.000000	0.921443
512.000000	0.985069
513.000000	1.038460
514.000000	1.107065
515.000000	1.179147
516.000000	1.244753
517.000000	1.314821
518.000000	1.378824
519.000000	1.434780
520.000000	1.480329
521.000000	1.536202
522.000000	1.597774
523.000000	1.657507
524.000000	1.713519
525.000000	1.755947
526.000000	1.797133
527.000000	1.834857
528.000000	1.851761
529.000000	1.864793
530.000000	1.861951
531.000000	1.855948
532.000000	1.850076
533.000000	1.820630
534.000000	1.778363
535.000000	1.720322
536.000000	1.656358
537.000000	1.585389
538.000000	1.519323
539.000000	1.442171
540.000000	1.381998
541.000000	1.294227
542.000000	1.222835
543.000000	1.154958
544.000000	1.059853
545.000000	0.990541
546.000000	0.917857
547.000000	0.856335
548.000000	0.791437
549.000000	0.724407
550.000000	0.639751
551.000000	0.593704
552.000000	0.546596
553.000000	0.486413
554.000000	0.441884
555.000000	0.424310
556.000000	0.364064
557.000000	0.356294
558.000000	0.338174
559.000000	0.309268
560.000000	0.290808
561.000000	0.259314
562.000000	0.265151
563.000000	0.265300
564.000000	0.243964
565.000000	0.227575
566.000000	0.207775
567.000000	0.241947
568.000000	0.216333
569.000000	0.219689
570.000000	0.201562
571.000000	0.208190
572.000000	0.164840
573.000000	0.188146
574.000000	0.171987
575.000000	0.201135
576.000000	0.194898
577.000000	0.213760
578.000000	0.239603
579.000000	0.251842
580.000000	0.262865
581.000000	0.297241
582.000000	0.324254
583.000000	0.367077
584.000000	0.380699
585.000000	0.362170
586.000000	0.427515
587.000000	0.456381
588.000000	0.465177
589.000000	0.508332
590.000000	0.566538
591.000000	0.604212
592.000000	0.599128
593.000000	0.669901
594.000000	0.744051
595.000000	0.761004
596.000000	0.821810
597.000000	0.869742
598.000000	0.907520
599.000000	0.948630
600.000000	0.961727
601.000000	1.013049
602.000000	1.001892
603.000000	0.993926
604.000000	1.018274
605.000000	1.002085
606.000000	1.020887
607.000000	1.022674
608.000000	0.993124
609.000000	0.979682
610.000000	0.981915
611.000000	0.953150
612.000000	0.893742
613.000000	0.913277
614.000000	0.894867
615.000000	0.854489
616.000000	0.837833
617.000000	0.861622
618.000000	0.834715
619.000000	0.809067
620.000000	0.762127
621.000000	0.708650
622.000000	0.696308
623.000000	0.658772
624.000000	0.607602
625.000000	0.616664
626.000000	0.564220
627.000000	0.541938
628.000000	0.511324
629.000000	0.486413
630.000000	0.475037
631.000000	0.456044
632.000000	0.415765
633.000000	0.388129
634.000000	0.357159
635.000000	0.306478
636.000000	0.268519
637.000000	0.233897
638.000000	0.208162
639.000000	0.143849
640.000000	0.076161
641.000000	0.078853
642.000000	0.091052
643.000000	0.131992
644.000000	0.211831
645.000000	0.272103
646.000000	0.346343
647.000000	0.416023
648.000000	0.465578
649.000000	0.516773
650.000000	0.585531
651.000000	0.614719
652.000000	0.649835
653.000000	0.655419
654.000000	0.679834
655.000000	0.689378
656.000000	0.676407
657.000000	0.670376
658.000000	0.679706
659.000000	0.628557
660.000000	0.595959
661.000000	0.577557
662.000000	0.562473
663.000000	0.509950
664.000000	0.498528
665.000000	0.483148
666.000000	0.477706
667.000000	0.460292
668.000000	0.440866
669.000000	0.426232
670.000000	0.410577
671.000000	0.437456
672.000000	0.451097
673.000000	0.465128
674.000000	0.503632
675.000000	0.510435
676.000000	0.528202
677.000000	0.553048
678.000000	0.563684
679.000000	0.609504
680.000000	0.622012
681.000000	0.638862
682.000000	0.631640
683.000000	0.655053
684.000000	0.674690
685.000000	0.647707
686.000000	0.634944
687.000000	0.638688
688.000000	0.666051
689.000000	0.653573
690.000000	0.653618
691.000000	0.646905
692.000000	0.623337
693.000000	0.619599
694.000000	0.650274
695.000000	0.670606
696.000000	0.677311
697.000000	0.659467
698.000000	0.659132
699.000000	0.703972
700.000000	0.722350
701.000000	0.731639
702.000000	0.775670
703.000000	0.783894
704.000000	0.811656
705.000000	0.851734
706.000000	0.895201
707.000000	0.911860
708.000000	0.924804
709.000000	0.993263
710.000000	1.035245
711.000000	1.032827
712.000000	1.054674
713.000000	1.097073
714.000000	1.107683
715.000000	1.097980
716.000000	1.082552
717.000000	1.082584
718.000000	1.118592
719.000000	1.132391
720.000000	1.126328
721.000000	1.131111
722.000000	1.147884
723.000000	1.141671
724.000000	1.156829
725.000000	1.168531
726.000000	1.168038
727.000000	1.168316
728.000000	1.163203
729.000000	1.170712
730.000000	1.178425
731.000000	1.174925
732.000000	1.152990
733.000000	1.160047
734.000000	1.167972
735.000000	1.163786
736.000000	1.226190
737.000000	1.194812
738.000000	1.175639
739.000000	1.158704
740.000000	1.126693
741.000000	1.165767
742.000000	1.178313
743.000000	1.194941
744.000000	1.208634
745.000000	1.200035
746.000000	1.253689
747.000000	1.271229
748.000000	1.237148
749.000000	1.252261
750.000000	1.299215
751.000000	1.315784
752.000000	1.301135
753.000000	1.307009
754.000000	1.287570
755.000000	1.234288
756.000000	1.295738
757.000000	1.359141
758.000000	1.329831
759.000000	1.343100
760.000000	1.428337
761.000000	1.428084
762.000000	1.371203
763.000000	1.399490
764.000000	1.435286
765.000000	1.421073
766.000000	1.381409
767.000000	1.388738
768.000000	1.491725
769.000000	1.489770
770.000000	1.455847
771.000000	1.442216
772.000000	1.459692
773.000000	1.489832
774.000000	1.530623
775.000000	1.549229
776.000000	1.574017
777.000000	1.585755
778.000000	1.539137
779.000000	1.503274
780.000000	1.514691
781.000000	1.486769
782.000000	1.531381
783.000000	1.586986
784.000000	1.613262
785.000000	1.640056
786.000000	1.613985
787.000000	1.537027
788.000000	1.548691
789.000000	1.601837
790.000000	1.620764
791.000000	1.611192
792.000000	1.662572
793.000000	1.700723
794.000000	1.729048
795.000000	1.692402
796.000000	1.637042
797.000000	1.624158
798.000000	1.653342
799.000000	1.703997
800.000000	1.706554
801.000000	1.767338
802.000000	1.809642
803.000000	1.754297
804.000000	1.774731
805.000000	1.762698
806.000000	1.790375
807.000000	1.859190
808.000000	1.885233
809.000000	1.878752
810.000000	1.900352
811.000000	1.936365
812.000000	1.896738
813.000000	1.898501
814.000000	1.842798
815.000000	1.821835
816.000000	1.826556
817.000000	1.958220
818.000000	1.829210
819.000000	1.950716
820.000000	1.959423
821.000000	1.914404
822.000000	1.978176
823.000000	1.924434
824.000000	1.925440
825.000000	1.858322
826.000000	1.917609
827.000000	1.887973
828.000000	1.904689
829.000000	1.840622
830.000000	1.991352
831.000000	1.938109
832.000000	1.970067
833.000000	1.968258
834.000000	1.884162
835.000000	1.942169
836.000000	1.909343
837.000000	1.861841
838.000000	1.799662
839.000000	1.895128
840.000000	1.927694
841.000000	1.872250
842.000000	2.147192
843.000000	2.021227
844.000000	1.953143
845.000000	2.116489
846.000000	2.304018
847.000000	2.151710
848.000000	2.096532
849.000000	2.087789
850.000000	2.088348
851.000000	2.046479
852.000000	2.284066
853.000000	1.992608
854.000000	1.773225
855.000000	2.449328
856.000000	2.157789
857.000000	2.245026
858.000000	2.281582
859.000000	2.395996
860.000000	2.372416
861.000000	2.305089
862.000000	2.358872
863.000000	2.292467
864.000000	2.219300
865.000000	2.102065
866.000000	2.149741
867.000000	2.090645
868.000000	2.121153
869.000000	2.054749
870.000000	2.113284
871.000000	2.157377
872.000000	2.083313
873.000000	2.139989
874.000000	2.119174
875.000000	2.141870
876.000000	2.091357
877.000000	2.113710
878.000000	2.158768
879.000000	2.106277
880.000000	2.083895
881.000000	2.093701
882.000000	2.151387
883.000000	2.124717
884.000000	2.113244
885.000000	2.125256
886.000000	2.159428
887.000000	2.147848
888.000000	2.134222
889.000000	2.151866
890.000000	2.148552
891.000000	2.149467
892.000000	2.141003
893.000000	2.196497
894.000000	2.194444
895.000000	2.175393
896.000000	2.175022
897.000000	2.210486
898.000000	2.212876
899.000000	2.232117
900.000000	2.252246
901.000000	2.274728
902.000000	2.274670
903.000000	2.290413
904.000000	2.273164
905.000000	2.288752
906.000000	2.364241
907.000000	2.392502
908.000000	2.412825
909.000000	2.428011
910.000000	2.454744
911.000000	2.469542
912.000000	2.498810
913.000000	2.525547
914.000000	2.540971
915.000000	2.581828
916.000000	2.556303
917.000000	2.563729
918.000000	2.643711
919.000000	2.646649
920.000000	2.653880
921.000000	2.671005
922.000000	2.687239
923.000000	2.674400
924.000000	2.675199
925.000000	2.726313
926.000000	2.696496
927.000000	2.711112
928.000000	2.733733
929.000000	2.738659
930.000000	2.755153
931.000000	2.757275
932.000000	2.801785
933.000000	2.795770
934.000000	2.798428
935.000000	2.806829
936.000000	2.859534
937.000000	2.835662
938.000000	2.836903
939.000000	2.850727
940.000000	2.853779
941.000000	2.870715
942.000000	2.867112
943.000000	2.885391
944.000000	2.926973
945.000000	2.917436
946.000000	2.928329
947.000000	2.954855
948.000000	2.963284
949.000000	2.992889
950.000000	3.009997
951.000000	3.038639
952.000000	3.071610
953.000000	3.090644
954.000000	3.118002
955.000000	3.130301
956.000000	3.154961
957.000000	3.203404
958.000000	3.247112
959.000000	3.288499
960.000000	3.304434
961.000000	3.321620
962.000000	3.357721
963.000000	3.400689
964.000000	3.441582
965.000000	3.471202
966.000000	3.494974
967.000000	3.521849
968.000000	3.561940
969.000000	3.584636
970.000000	3.604808
971.000000	3.641080
972.000000	3.680984
973.000000	3.709746
974.000000	3.723858
975.000000	3.738090
976.000000	3.760213
977.000000	3.785941
978.000000	3.802030
979.000000	3.840003
980.000000	3.855835
981.000000	3.877648
982.000000	3.885587
983.000000	3.897680
984.000000	3.912164
985.000000	3.923655
986.000000	3.942632
987.000000	3.962328
988.000000	3.974208
989.000000	3.980434
990.000000	3.987140
991.000000	3.989673
992.000000	4.005446
993.000000	3.997593
994.000000	4.002947
995.000000	4.001786
996.000000	4.002728
997.000000	4.009927
998.000000	4.010026
999.000000	4.022959
1000.000000	4.025633
1001.000000	4.025336
1002.000000	4.030024
1003.000000	4.039318
1004.000000	4.038329
1005.000000	4.043845
1006.000000	4.056833
1007.000000	4.064128
1008.000000	4.077837
1009.000000	4.082392
1010.000000	4.091624
1011.000000	4.103869
1012.000000	4.116123
1013.000000	4.134830
1014.000000	4.153685
1015.000000	4.160313
1016.000000	4.173652
1017.000000	4.186877
1018.000000	4.204793
1019.000000	4.232045
1020.000000	4.240968
1021.000000	4.262903
1022.000000	4.293914
1023.000000	4.311936
1024.000000	4.337397
1025.000000	4.354986
1026.000000	4.370812
1027.000000	4.401266
1028.000000	4.422504
1029.000000	4.439136
1030.000000	4.466048
1031.000000	4.495425
1032.000000	4.520115
1033.000000	4.542926
1034.000000	4.564196
1035.000000	4.588225
1036.000000	4.618671
1037.000000	4.642201
1038.000000	4.666794
1039.000000	4.684533
1040.000000	4.698276
1041.000000	4.717843
1042.000000	4.744804
1043.000000	4.772688
1044.000000	4.791462
1045.000000	4.808296
1046.000000	4.824813
1047.000000	4.836593
1048.000000	4.864701
1049.000000	4.885331
1050.000000	4.895603
1051.000000	4.917118
1052.000000	4.935751
1053.000000	4.943228
1054.000000	4.954831
1055.000000	4.972169
1056.000000	4.985876
1057.000000	4.988088
1058.000000	4.995523
1059.000000	5.006085
1060.000000	5.014487
1061.000000	5.016395
1062.000000	5.022351
1063.000000	5.032475
1064.000000	5.047516
1065.000000	5.053944
1066.000000	5.042775
1067.000000	5.038304
1068.000000	5.050906
1069.000000	5.054276
1070.000000	5.061169
1071.000000	5.069552
1072.000000	5.078071
1073.000000	5.068665
1074.000000	5.061308
1075.000000	5.062529
1076.000000	5.062236
1077.000000	5.062729
1078.000000	5.066853
1079.000000	5.067215
1080.000000	5.068381
1081.000000	5.055699
1082.000000	5.062244
1083.000000	5.068776
1084.000000	5.053578
1085.000000	5.055149
1086.000000	5.046743
1087.000000	5.064902
1088.000000	5.054052
1089.000000	5.049189
1090.000000	5.042017
1091.000000	5.054123
1092.000000	5.053773
1093.000000	5.052733
1094.000000	5.056252
1095.000000	5.051720
1096.000000	5.061396
1097.000000	5.063961
1098.000000	5.072996
1099.000000	5.064650
1100.000000	5.058823
1101.000000	5.080357
1102.000000	5.076896
1103.000000	5.070946
1104.000000	5.069273
1105.000000	5.088290
1106.000000	5.096110
1107.000000	5.090371
1108.000000	5.105977
1109.000000	5.119638
1110.000000	5.118289
1111.000000	5.116898
1112.000000	5.126060
1113.000000	5.133987
1114.000000	5.135804
1115.000000	5.146665
1116.000000	5.153668
1117.000000	5.150605
1118.000000	5.160687
1119.000000	5.182534
1120.000000	5.181545
1121.000000	5.184245
1122.000000	5.190989
1123.000000	5.198817
1124.000000	5.204083
1125.000000	5.209829
1126.000000	5.211219
1127.000000	5.207347
1128.000000	5.220270
1129.000000	5.214521
1130.000000	5.211418
1131.000000	5.215986
1132.000000	5.211029
1133.000000	5.232657
1134.000000	5.230362
1135.000000	5.209640
1136.000000	5.203338
1137.000000	5.187700
1138.000000	5.192403
1139.000000	5.180648
1140.000000	5.172600
1141.000000	5.185370
1142.000000	5.181626
1143.000000	5.165865
1144.000000	5.168155
1145.000000	5.166828
1146.000000	5.161566
1147.000000	5.148362
1148.000000	5.141081
1149.000000	5.141083
1150.000000	5.122409
1151.000000	5.115240
1152.000000	5.109847
1153.000000	5.106000
1154.000000	5.092546
1155.000000	5.084485
1156.000000	5.077719
1157.000000	5.070077
1158.000000	5.053670
1159.000000	5.050512
1160.000000	5.039081
1161.000000	5.018588
1162.000000	4.998658
1163.000000	4.986620
1164.000000	4.973516
1165.000000	4.968784
1166.000000	4.955240
1167.000000	4.945601
1168.000000	4.937425
1169.000000	4.927201
1170.000000	4.907418
1171.000000	4.918837
1172.000000	4.889427
1173.000000	4.877653
1174.000000	4.871177
1175.000000	4.862902
1176.000000	4.850319
1177.000000	4.848459
1178.000000	4.841646
1179.000000	4.835793
1180.000000	4.810166
1181.000000	4.811446
1182.000000	4.801847
1183.000000	4.799110
1184.000000	4.796390
1185.000000	4.791148
1186.000000	4.792914
1187.000000	4.783579
1188.000000	4.781352
1189.000000	4.799715
1190.000000	4.802082
1191.000000	4.800256
1192.000000	4.798592
1193.000000	4.799657
1194.000000	4.800250
1195.000000	4.810827
1196.000000	4.805642
1197.000000	4.806244
1198.000000	4.810284
1199.000000	4.823692
1200.000000	4.816795
1201.000000	4.817761
1202.000000	4.827863
1203.000000	4.820959
1204.000000	4.826322
1205.000000	4.822859
1206.000000	4.828470
1207.000000	4.834498
1208.000000	4.835274
1209.000000	4.839455
1210.000000	4.854137
1211.000000	4.850348
1212.000000	4.846446
1213.000000	4.870590
1214.000000	4.867732
1215.000000	4.878550
1216.000000	4.876986
1217.000000	4.881604
1218.000000	4.888362
1219.000000	4.900711
1220.000000	4.902302
1221.000000	4.905534
1222.000000	4.914234
1223.000000	4.924643
1224.000000	4.925111
1225.000000	4.940518
1226.000000	4.937446
1227.000000	4.945453
1228.000000	4.954675
1229.000000	4.964211
1230.000000	4.968022
1231.000000	4.975003
1232.000000	4.973897
1233.000000	4.987220
1234.000000	4.996845
1235.000000	5.004421
1236.000000	4.998792
1237.000000	5.013964
1238.000000	5.024979
1239.000000	5.031002
1240.000000	5.038572
1241.000000	5.043815
1242.000000	5.049926
1243.000000	5.062006
1244.000000	5.076591
1245.000000	5.072522
1246.000000	5.078958
1247.000000	5.091671
1248.000000	5.092882
1249.000000	5.103148
1250.000000	5.119407
1251.000000	5.115903
1252.000000	5.125249
1253.000000	5.126851
1254.000000	5.141827
1255.000000	5.154912
1256.000000	5.154494
1257.000000	5.155413
1258.000000	5.158987
1259.000000	5.165522
1260.000000	5.167329
1261.000000	5.178785
1262.000000	5.189597
1263.000000	5.188085
1264.000000	5.197575
1265.000000	5.195943
1266.000000	5.189328
1267.000000	5.198602
1268.000000	5.193855
1269.000000	5.187075
1270.000000	5.188235
1271.000000	5.192465
1272.000000	5.195103
1273.000000	5.198694
1274.000000	5.203488
1275.000000	5.198502
1276.000000	5.197903
1277.000000	5.198013
1278.000000	5.204280
1279.000000	5.208278
1280.000000	5.208258
1281.000000	5.212369
1282.000000	5.210913
1283.000000	5.206970
1284.000000	5.199008
1285.000000	5.195227
1286.000000	5.206558
1287.000000	5.220390
1288.000000	5.215991
1289.000000	5.212438
1290.000000	5.215248
1291.000000	5.206854
1292.000000	5.196078
1293.000000	5.191123
1294.000000	5.187164
1295.000000	5.190815
1296.000000	5.177933
1297.000000	5.170147
1298.000000	5.178376
1299.000000	5.178875
1300.000000	5.171427
1301.000000	5.169279
1302.000000	5.165830
1303.000000	5.156418
1304.000000	5.153904
1305.000000	5.146055
1306.000000	5.133722
1307.000000	5.120757
1308.000000	5.115544
1309.000000	5.107450
1310.000000	5.095508
1311.000000	5.093286
1312.000000	5.090284
1313.000000	5.082117
1314.000000	5.072893
1315.000000	5.055295
1316.000000	5.040954
1317.000000	5.028016
1318.000000	5.020793
1319.000000	5.006383
1320.000000	4.989304
1321.000000	4.984430
1322.000000	4.965367
1323.000000	4.956811
1324.000000	4.950842
1325.000000	4.926459
1326.000000	4.920588
1327.000000	4.908580
1328.000000	4.889388
1329.000000	4.871393
1330.000000	4.859654
1331.000000	4.850158
1332.000000	4.831357
1333.000000	4.813334
1334.000000	4.802821
1335.000000	4.790941
1336.000000	4.771291
1337.000000	4.753299
1338.000000	4.734226
1339.000000	4.709061
1340.000000	4.704428
1341.000000	4.682474
1342.000000	4.654631
1343.000000	4.648357
1344.000000	4.634703
1345.000000	4.622939
1346.000000	4.603429
1347.000000	4.581933
1348.000000	4.553870
1349.000000	4.537251
1350.000000	4.535313
1351.000000	4.527631
1352.000000	4.506679
1353.000000	4.502770
1354.000000	4.492380
1355.000000	4.472955
1356.000000	4.451739
1357.000000	4.451160
1358.000000	4.452396
1359.000000	4.418976
1360.000000	4.442593
1361.000000	4.436719
1362.000000	4.444972
1363.000000	4.394303
1364.000000	4.393190
1365.000000	4.394442
1366.000000	4.381033
1367.000000	4.379340
1368.000000	4.359599
1369.000000	4.338972
1370.000000	4.337213
1371.000000	4.301807
1372.000000	4.288417
1373.000000	4.277794
1374.000000	4.264402
1375.000000	4.260106
1376.000000	4.243732
1377.000000	4.227048
1378.000000	4.222256
1379.000000	4.205651
1380.000000	4.216024
1381.000000	4.169882
1382.000000	4.118845
1383.000000	4.068963
1384.000000	4.023222
1385.000000	3.990750
1386.000000	3.968588
1387.000000	3.936449
1388.000000	3.867425
1389.000000	3.806655
1390.000000	3.798099
1391.000000	3.758570
1392.000000	3.705275
1393.000000	3.647024
1394.000000	3.607400
1395.000000	3.548627
1396.000000	3.464122
1397.000000	3.405689
1398.000000	3.402605
1399.000000	3.356946
1400.000000	3.257050
1401.000000	3.167541
1402.000000	3.110238
1403.000000	3.074464
1404.000000	3.022290
1405.000000	2.952390
1406.000000	2.895694
1407.000000	2.846400
1408.000000	2.803717
1409.000000	2.752654
1410.000000	2.674875
1411.000000	2.633431
1412.000000	2.631627
1413.000000	2.586179
1414.000000	2.535671
1415.000000	2.484264
1416.000000	2.452195
1417.000000	2.460640
1418.000000	2.411391
1419.000000	2.373521
1420.000000	2.327464
1421.000000	2.313524
1422.000000	2.293157
1423.000000	2.273258
1424.000000	2.241279
1425.000000	2.222421
1426.000000	2.190617
1427.000000	2.196233
1428.000000	2.163019
1429.000000	2.152520
1430.000000	2.122665
1431.000000	2.101025
1432.000000	2.128272
1433.000000	2.106292
1434.000000	2.087467
1435.000000	2.059636
1436.000000	2.069938
1437.000000	2.047378
1438.000000	2.031316
1439.000000	2.026462
1440.000000	2.012231
1441.000000	2.003709
1442.000000	2.000746
1443.000000	1.988819
1444.000000	1.981597
1445.000000	1.972598
1446.000000	1.953466
1447.000000	1.955457
1448.000000	1.943739
1449.000000	1.957187
1450.000000	1.939480
1451.000000	1.929969
1452.000000	1.913990
1453.000000	1.917390
1454.000000	1.921491
1455.000000	1.912470
1456.000000	1.896059
1457.000000	1.891132
1458.000000	1.894909
1459.000000	1.886410
1460.000000	1.876656
1461.000000	1.868785
1462.000000	1.858701
1463.000000	1.857319
1464.000000	1.858000
1465.000000	1.857292
1466.000000	1.861042
1467.000000	1.857244
1468.000000	1.847843
1469.000000	1.850129
1470.000000	1.857478
1471.000000	1.855524
1472.000000	1.853736
1473.000000	1.850993
1474.000000	1.860646
1475.000000	1.863587
1476.000000	1.855501
1477.000000	1.862780
1478.000000	1.862310
1479.000000	1.862331
1480.000000	1.868616
1481.000000	1.873056
1482.000000	1.874585
1483.000000	1.884578
1484.000000	1.891161
1485.000000	1.891607
1486.000000	1.897682
1487.000000	1.904157
1488.000000	1.891848
1489.000000	1.905764
1490.000000	1.925108
1491.000000	1.933367
1492.000000	1.931806
1493.000000	1.949546
1494.000000	1.946752
1495.000000	1.951957
1496.000000	1.952969
1497.000000	1.963410
1498.000000	1.963628
1499.000000	1.987035
1500.000000	1.983216
1501.000000	1.984280
1502.000000	2.008507
1503.000000	2.023064
1504.000000	2.028858
1505.000000	2.034067
1506.000000	2.030119
1507.000000	2.028551
1508.000000	2.055907
1509.000000	2.066064
1510.000000	2.063361
1511.000000	2.079273
1512.000000	2.094206
1513.000000	2.092467
1514.000000	2.104856
1515.000000	2.122228
1516.000000	2.131811
1517.000000	2.138104
1518.000000	2.143434
1519.000000	2.155272
1520.000000	2.168094
1521.000000	2.162297
1522.000000	2.176561
1523.000000	2.184074
1524.000000	2.193523
1525.000000	2.216627
1526.000000	2.233884
1527.000000	2.244537
1528.000000	2.235130
1529.000000	2.240265
1530.000000	2.259157
1531.000000	2.273314
1532.000000	2.285792
1533.000000	2.292828
1534.000000	2.310659
1535.000000	2.316803
1536.000000	2.324428
1537.000000	2.333595
1538.000000	2.343688
1539.000000	2.355792
1540.000000	2.364416
1541.000000	2.372937
1542.000000	2.381132
1543.000000	2.394265
1544.000000	2.406838
1545.000000	2.419247
1546.000000	2.426565
1547.000000	2.437980
1548.000000	2.451753
1549.000000	2.461596
1550.000000	2.473434
1551.000000	2.480099
1552.000000	2.486969
1553.000000	2.504765
1554.000000	2.515977
1555.000000	2.522365
1556.000000	2.532975
1557.000000	2.544348
1558.000000	2.549028
1559.000000	2.555428
1560.000000	2.559143
1561.000000	2.570703
1562.000000	2.587218
1563.000000	2.588857
1564.000000	2.591118
1565.000000	2.597164
1566.000000	2.601528
1567.000000	2.607149
1568.000000	2.611701
1569.000000	2.614815
1570.000000	2.622559
1571.000000	2.634085
1572.000000	2.649651
1573.000000	2.652854
1574.000000	2.656554
1575.000000	2.664116
1576.000000	2.676840
1577.000000	2.690179
1578.000000	2.691600
1579.000000	2.697207
1580.000000	2.705154
1581.000000	2.708198
1582.000000	2.716392
1583.000000	2.721291
1584.000000	2.736994
1585.000000	2.750228
1586.000000	2.759243
1587.000000	2.765391
1588.000000	2.777748
1589.000000	2.786983
1590.000000	2.785960
1591.000000	2.787851
1592.000000	2.798906
1593.000000	2.814373
1594.000000	2.820489
1595.000000	2.830585
1596.000000	2.839410
1597.000000	2.833768
1598.000000	2.840012
1599.000000	2.852090
1600.000000	2.866467
1601.000000	2.869763
1602.000000	2.871589
1603.000000	2.881677
1604.000000	2.900800
1605.000000	2.908749
1606.000000	2.919030
1607.000000	2.924056
1608.000000	2.920897
1609.000000	2.931082
1610.000000	2.938650
1611.000000	2.934386
1612.000000	2.944937
1613.000000	2.944046
1614.000000	2.956614
1615.000000	2.958030
1616.000000	2.948775
1617.000000	2.957507
1618.000000	2.979111
1619.000000	2.983640
1620.000000	2.981260
1621.000000	2.987151
1622.000000	2.995273
1623.000000	2.990878
1624.000000	3.007238
1625.000000	3.021703
1626.000000	3.015187
1627.000000	3.018813
1628.000000	3.031080
1629.000000	3.037417
1630.000000	3.039069
1631.000000	3.046411
1632.000000	3.043189
1633.000000	3.046445
1634.000000	3.039132
1635.000000	3.045036
1636.000000	3.040023
1637.000000	3.052461
1638.000000	3.052054
1639.000000	3.059504
1640.000000	3.057414
1641.000000	3.063827
1642.000000	3.055564
1643.000000	3.059720
1644.000000	3.063774
1645.000000	3.062715
1646.000000	3.060498
1647.000000	3.059927
1648.000000	3.060652
1649.000000	3.058529
1650.000000	3.066374
1651.000000	3.066459
1652.000000	3.065173
1653.000000	3.058474
1654.000000	3.051340
1655.000000	3.041097
1656.000000	3.034034
1657.000000	3.021164
1658.000000	3.026202
1659.000000	3.020090
1660.000000	3.010820
1661.000000	3.001650
1662.000000	2.986742
1663.000000	2.987175
1664.000000	2.970393
1665.000000	2.947446
1666.000000	2.944298
1667.000000	2.926133
1668.000000	2.907089
1669.000000	2.905754
1670.000000	2.891686
1671.000000	2.884462
1672.000000	2.866644
1673.000000	2.854040
1674.000000	2.851399
1675.000000	2.823630
1676.000000	2.805275
1677.000000	2.793081
1678.000000	2.774609
1679.000000	2.763171
1680.000000	2.736086
1681.000000	2.709911
1682.000000	2.717188
1683.000000	2.684847
1684.000000	2.674012
1685.000000	2.649989
1686.000000	2.657040
1687.000000	2.640073
1688.000000	2.643952
1689.000000	2.637660
1690.000000	2.657539
1691.000000	2.647371
1692.000000	2.649328
1693.000000	2.662614
1694.000000	2.637591
1695.000000	2.643895
1696.000000	2.655928
1697.000000	2.641909
1698.000000	2.640126
1699.000000	2.620344
1700.000000	2.641636
1701.000000	2.638557
1702.000000	2.631267
1703.000000	2.638426
1704.000000	2.620784
1705.000000	2.619597
1706.000000	2.614233
1707.000000	2.616969
1708.000000	2.591084
1709.000000	2.598908
1710.000000	2.577071
1711.000000	2.555521
1712.000000	2.550300
1713.000000	2.531066
1714.000000	2.524523
1715.000000	2.518889
1716.000000	2.476608
1717.000000	2.461632
1718.000000	2.452356
1719.000000	2.455633
1720.000000	2.433087
1721.000000	2.425945
1722.000000	2.418476
1723.000000	2.407661
1724.000000	2.416368
1725.000000	2.430402
1726.000000	2.421152
1727.000000	2.424295
1728.000000	2.421259
1729.000000	2.428298
1730.000000	2.439638
1731.000000	2.431580
1732.000000	2.423169
1733.000000	2.430283
1734.000000	2.437354
1735.000000	2.440764
1736.000000	2.446618
1737.000000	2.452429
1738.000000	2.458907
1739.000000	2.465585
1740.000000	2.467869
1741.000000	2.471539
1742.000000	2.482885
1743.000000	2.482812
1744.000000	2.500984
1745.000000	2.500293
1746.000000	2.499413
1747.000000	2.504968
1748.000000	2.493274
1749.000000	2.498145
1750.000000	2.495857
1751.000000	2.490875
1752.000000	2.495413
1753.000000	2.491700
1754.000000	2.495530
1755.000000	2.503164
1756.000000	2.499743
1757.000000	2.496591
1758.000000	2.486786
1759.000000	2.494250
1760.000000	2.498012
1761.000000	2.484236
1762.000000	2.497120
1763.000000	2.504989
1764.000000	2.501791
1765.000000	2.507488
1766.000000	2.497429
1767.000000	2.501008
1768.000000	2.504250
1769.000000	2.512089
1770.000000	2.509883
1771.000000	2.510928
1772.000000	2.510398
1773.000000	2.519775
1774.000000	2.527044
1775.000000	2.530814
1776.000000	2.524477
1777.000000	2.524383
1778.000000	2.525587
1779.000000	2.529065
1780.000000	2.521370
1781.000000	2.525973
1782.000000	2.522397
1783.000000	2.526824
1784.000000	2.521789
1785.000000	2.524518
1786.000000	2.527566
1787.000000	2.524962
1788.000000	2.526578
1789.000000	2.527680
1790.000000	2.526050
1791.000000	2.542310
1792.000000	2.537629
1793.000000	2.538341
1794.000000	2.540417
1795.000000	2.546898
1796.000000	2.547501
1797.000000	2.551668
1798.000000	2.568493
1799.000000	2.582012
1800.000000	2.574538
1801.000000	2.568183
1802.000000	2.576782
1803.000000	2.584909
1804.000000	2.587233
1805.000000	2.597172
1806.000000	2.598222
1807.000000	2.598841
1808.000000	2.599308
1809.000000	2.609513
1810.000000	2.622576
1811.000000	2.627824
1812.000000	2.628631
1813.000000	2.628221
1814.000000	2.638326
1815.000000	2.647616
1816.000000	2.642835
1817.000000	2.650399
1818.000000	2.666020
1819.000000	2.676702
1820.000000	2.667206
1821.000000	2.662311
1822.000000	2.646666
1823.000000	2.642995
1824.000000	2.661351
1825.000000	2.677535
1826.000000	2.683563
1827.000000	2.682466
1828.000000	2.682105
1829.000000	2.676507
1830.000000	2.684184
1831.000000	2.682341
1832.000000	2.692042
1833.000000	2.712500
1834.000000	2.717466
1835.000000	2.729651
1836.000000	2.737040
1837.000000	2.733326
1838.000000	2.733816
1839.000000	2.741967
1840.000000	2.732409
1841.000000	2.734368
1842.000000	2.716525
1843.000000	2.696570
1844.000000	2.713075
1845.000000	2.716433
1846.000000	2.730242
1847.000000	2.734270
1848.000000	2.708318
1849.000000	2.677914
1850.000000	2.670207
1851.000000	2.670932
1852.000000	2.682002
1853.000000	2.689626
1854.000000	2.668709
1855.000000	2.656845
1856.000000	2.642469
1857.000000	2.629942
1858.000000	2.624285
1859.000000	2.594759
1860.000000	2.568888
1861.000000	2.554863
1862.000000	2.533537
1863.000000	2.516963
1864.000000	2.511076
1865.000000	2.503337
1866.000000	2.492112
1867.000000	2.475535
1868.000000	2.446360
1869.000000	2.421158
1870.000000	2.382295
1871.000000	2.317773
1872.000000	2.283395
1873.000000	2.232129
1874.000000	2.168599
1875.000000	2.126979
1876.000000	2.077333
1877.000000	2.024579
1878.000000	1.968803
1879.000000	1.921196
1880.000000	1.887792
1881.000000	1.843869
1882.000000	1.804002
1883.000000	1.739048
1884.000000	1.668116
1885.000000	1.607838
1886.000000	1.552897
1887.000000	1.507486
1888.000000	1.464767
1889.000000	1.421271
1890.000000	1.363494
1891.000000	1.310584
1892.000000	1.257691
1893.000000	1.209533
1894.000000	1.177732
1895.000000	1.157742
1896.000000	1.148654
1897.000000	1.111899
1898.000000	1.088892
1899.000000	1.055263
1900.000000	1.028494
1901.000000	1.004039
1902.000000	1.005546
1903.000000	0.982879
1904.000000	0.982228
1905.000000	0.950166
1906.000000	0.931115
1907.000000	0.904586
1908.000000	0.889613
1909.000000	0.892370
1910.000000	0.889970
1911.000000	0.884597
1912.000000	0.879508
1913.000000	0.877062
1914.000000	0.863994
1915.000000	0.852307
1916.000000	0.835801
1917.000000	0.840712
1918.000000	0.837344
1919.000000	0.832912
1920.000000	0.828862
1921.000000	0.834680
1922.000000	0.819150
1923.000000	0.809640
1924.000000	0.814529
1925.000000	0.796853
1926.000000	0.800082
1927.000000	0.798652
1928.000000	0.792042
1929.000000	0.788772
1930.000000	0.787981
1931.000000	0.782281
1932.000000	0.781190
1933.000000	0.776401
1934.000000	0.781183
1935.000000	0.781907
1936.000000	0.768351
1937.000000	0.763127
1938.000000	0.769263
1939.000000	0.762827
1940.000000	0.758045
1941.000000	0.768144
1942.000000	0.758103
1943.000000	0.767834
1944.000000	0.752915
1945.000000	0.769131
1946.000000	0.773091
1947.000000	0.771176
1948.000000	0.760762
1949.000000	0.753041
1950.000000	0.769287
1951.000000	0.770662
1952.000000	0.764911
1953.000000	0.779832
1954.000000	0.759119
1955.000000	0.776943
1956.000000	0.777016
1957.000000	0.771030
1958.000000	0.777443
1959.000000	0.771605
1960.000000	0.775119
1961.000000	0.776910
1962.000000	0.773960
1963.000000	0.764875
1964.000000	0.759522
1965.000000	0.759888
1966.000000	0.767629
1967.000000	0.761620
1968.000000	0.771914
1969.000000	0.777010
1970.000000	0.785586
1971.000000	0.794310
1972.000000	0.789887
1973.000000	0.778799
1974.000000	0.774551
1975.000000	0.778998
1976.000000	0.795616
1977.000000	0.781549
1978.000000	0.778744
1979.000000	0.769719
1980.000000	0.785469
1981.000000	0.795883
1982.000000	0.792371
1983.000000	0.798068
1984.000000	0.797116
1985.000000	0.806075
1986.000000	0.814960
1987.000000	0.815384
1988.000000	0.815059
1989.000000	0.822596
1990.000000	0.825077
1991.000000	0.835766
1992.000000	0.832246
1993.000000	0.836606
1994.000000	0.842495
1995.000000	0.841785
1996.000000	0.848105
1997.000000	0.846441
1998.000000	0.857190
1999.000000	0.859965
2000.000000	0.856820
2001.000000	0.860694
2002.000000	0.873762
2003.000000	0.879520
2004.000000	0.880358
2005.000000	0.889640
2006.000000	0.879020
2007.000000	0.890307
2008.000000	0.889613
2009.000000	0.906515
2010.000000	0.906957
2011.000000	0.900999
2012.000000	0.916788
2013.000000	0.925957
2014.000000	0.912398
2015.000000	0.908302
2016.000000	0.922086
2017.000000	0.936670
2018.000000	0.934856
2019.000000	0.939185
2020.000000	0.932811
2021.000000	0.946185
2022.000000	0.964310
2023.000000	0.959292
2024.000000	0.944131
2025.000000	0.951936
2026.000000	0.961796
2027.000000	0.961027
2028.000000	0.968076
2029.000000	0.971544
2030.000000	0.972778
2031.000000	0.962857
2032.000000	0.981694
2033.000000	0.988900
2034.000000	0.992296
2035.000000	0.981599
2036.000000	0.983282
2037.000000	0.987314
2038.000000	0.982845
2039.000000	0.975444
2040.000000	0.981279
2041.000000	0.975493
2042.000000	0.990385
2043.000000	0.995490
2044.000000	0.984261
2045.000000	0.991666
2046.000000	0.972571
2047.000000	0.980259
2048.000000	0.988914
2049.000000	0.983685
2050.000000	0.987833
2051.000000	0.998095
2052.000000	0.997738
2053.000000	1.003501
2054.000000	1.015814
2055.000000	1.010180
2056.000000	1.017073
2057.000000	1.026596
2058.000000	1.026818
2059.000000	1.038175
2060.000000	1.046481
2061.000000	1.045063
2062.000000	1.067815
2063.000000	1.068635
2064.000000	1.077072
2065.000000	1.092224
2066.000000	1.105706
2067.000000	1.117751
2068.000000	1.115440
2069.000000	1.127180
2070.000000	1.130698
2071.000000	1.129294
2072.000000	1.136051
2073.000000	1.139116
2074.000000	1.151233
2075.000000	1.160452
2076.000000	1.165123
2077.000000	1.172987
2078.000000	1.178406
2079.000000	1.185599
2080.000000	1.191817
2081.000000	1.203625
2082.000000	1.200351
2083.000000	1.190680
2084.000000	1.203559
2085.000000	1.212004
2086.000000	1.211630
2087.000000	1.223412
2088.000000	1.230614
2089.000000	1.227915
2090.000000	1.223795
2091.000000	1.233320
2092.000000	1.236106
2093.000000	1.245910
2094.000000	1.253240
2095.000000	1.245758
2096.000000	1.242040
2097.000000	1.247644
2098.000000	1.257495
2099.000000	1.267158
2100.000000	1.265186
2101.000000	1.266641
2102.000000	1.274387
2103.000000	1.268745
2104.000000	1.277568
2105.000000	1.286901
2106.000000	1.271541
2107.000000	1.269292
2108.000000	1.286175
2109.000000	1.288533
2110.000000	1.292174
2111.000000	1.291828
2112.000000	1.294509
2113.000000	1.295939
2114.000000	1.310852
2115.000000	1.322538
2116.000000	1.297394
2117.000000	1.301538
2118.000000	1.312827
2119.000000	1.314363
2120.000000	1.320538
2121.000000	1.316691
2122.000000	1.319999
2123.000000	1.329363
2124.000000	1.316844
2125.000000	1.313927
2126.000000	1.318711
2127.000000	1.309794
2128.000000	1.303453
2129.000000	1.307631
2130.000000	1.308160
2131.000000	1.296403
2132.000000	1.303714
2133.000000	1.307285
2134.000000	1.303178
2135.000000	1.297806
2136.000000	1.299205
2137.000000	1.290467
2138.000000	1.286582
2139.000000	1.287366
2140.000000	1.281476
2141.000000	1.272907
2142.000000	1.273329
2143.000000	1.267845
2144.000000	1.269995
2145.000000	1.265897
2146.000000	1.260140
2147.000000	1.258407
2148.000000	1.259350
2149.000000	1.256536
2150.000000	1.248407
2151.000000	1.244182
2152.000000	1.238746
2153.000000	1.229886
2154.000000	1.236201
2155.000000	1.227613
2156.000000	1.222192
2157.000000	1.227193
2158.000000	1.238810
2159.000000	1.232385
2160.000000	1.231892
2161.000000	1.222248
2162.000000	1.223220
2163.000000	1.219867
2164.000000	1.226904
2165.000000	1.220288
2166.000000	1.215915
2167.000000	1.223484
2168.000000	1.212352
2169.000000	1.208559
2170.000000	1.210340
2171.000000	1.217401
2172.000000	1.212057
2173.000000	1.225455
2174.000000	1.224623
2175.000000	1.218890
2176.000000	1.222098
2177.000000	1.225880
2178.000000	1.224225
2179.000000	1.218359
2180.000000	1.221249
2181.000000	1.241169
2182.000000	1.232322
2183.000000	1.232784
2184.000000	1.243439
2185.000000	1.230570
2186.000000	1.246993
2187.000000	1.232699
2188.000000	1.240407
2189.000000	1.242835
2190.000000	1.240880
2191.000000	1.248114
2192.000000	1.253470
2193.000000	1.250288
2194.000000	1.243546
2195.000000	1.251240
2196.000000	1.250335
2197.000000	1.274889
2198.000000	1.269725
2199.000000	1.271836
2200.000000	1.270500
2201.000000	1.261568
2202.000000	1.274920
2203.000000	1.276086
2204.000000	1.287262
2205.000000	1.294280
2206.000000	1.281423
2207.000000	1.294047
2208.000000	1.293509
2209.000000	1.302682
2210.000000	1.314273
2211.000000	1.313987
2212.000000	1.308477
2213.000000	1.316290
2214.000000	1.333568
2215.000000	1.331832
2216.000000	1.330625
2217.000000	1.329865
2218.000000	1.342920
2219.000000	1.344853
2220.000000	1.356323
2221.000000	1.367371
2222.000000	1.372542
2223.000000	1.378207
2224.000000	1.372869
2225.000000	1.373020
2226.000000	1.350076
2227.000000	1.373758
2228.000000	1.368051
2229.000000	1.369191
2230.000000	1.375077
2231.000000	1.370579
2232.000000	1.371187
2233.000000	1.367088
2234.000000	1.369696
2235.000000	1.361498
2236.000000	1.367701
2237.000000	1.366631
2238.000000	1.372302
2239.000000	1.350048
2240.000000	1.346474
2241.000000	1.363427
2242.000000	1.350194
2243.000000	1.344922
2244.000000	1.340892
2245.000000	1.312835
2246.000000	1.326358
2247.000000	1.337521
2248.000000	1.307286
2249.000000	1.285545
2250.000000	1.277007
2251.000000	1.289652
2252.000000	1.292453
2253.000000	1.250588
2254.000000	1.250345
2255.000000	1.236891
2256.000000	1.256055
2257.000000	1.217843
2258.000000	1.219435
2259.000000	1.208345
2260.000000	1.224015
2261.000000	1.218764
2262.000000	1.209798
2263.000000	1.213467
2264.000000	1.200876
2265.000000	1.193707
2266.000000	1.197143
2267.000000	1.194098
2268.000000	1.179065
2269.000000	1.200230
2270.000000	1.193182
2271.000000	1.184305
2272.000000	1.162185
2273.000000	1.167846
2274.000000	1.181266
2275.000000	1.167811
2276.000000	1.167418
2277.000000	1.176896
2278.000000	1.164549
2279.000000	1.158165
2280.000000	1.159360
2281.000000	1.156961
2282.000000	1.158753
2283.000000	1.163484
2284.000000	1.160157
2285.000000	1.148879
2286.000000	1.142967
2287.000000	1.150143
2288.000000	1.145250
2289.000000	1.155902
2290.000000	1.147048
2291.000000	1.154051
2292.000000	1.152662
2293.000000	1.163046
2294.000000	1.151044
2295.000000	1.158740
2296.000000	1.153769
2297.000000	1.160251
2298.000000	1.153317
2299.000000	1.148268
2300.000000	1.156683
2301.000000	1.151318
2302.000000	1.148351
2303.000000	1.157608
2304.000000	1.165219
2305.000000	1.162475
2306.000000	1.155212
2307.000000	1.163027
2308.000000	1.161334
2309.000000	1.164957
2310.000000	1.174598
2311.000000	1.165564
2312.000000	1.160933
2313.000000	1.169546
2314.000000	1.180148
2315.000000	1.177586
2316.000000	1.188792
2317.000000	1.181164
2318.000000	1.171610
2319.000000	1.181017
2320.000000	1.177578
2321.000000	1.177318
2322.000000	1.196354
2323.000000	1.176801
2324.000000	1.185441
2325.000000	1.192614
2326.000000	1.170467
2327.000000	1.177783
2328.000000	1.184202
2329.000000	1.176902
2330.000000	1.189494
2331.000000	1.163807
2332.000000	1.173417
2333.000000	1.173976
2334.000000	1.177305
2335.000000	1.189678
2336.000000	1.167870
2337.000000	1.174031
2338.000000	1.175881
2339.000000	1.169789
2340.000000	1.178712
2341.000000	1.152868
2342.000000	1.161421
2343.000000	1.169937
2344.000000	1.150713
2345.000000	1.164173
2346.000000	1.176544
2347.000000	1.158820
2348.000000	1.169238
2349.000000	1.182769
2350.000000	1.173725
2351.000000	1.143301
2352.000000	1.148498
2353.000000	1.158955
2354.000000	1.141769
2355.000000	1.138543
2356.000000	1.156137
2357.000000	1.156709
2358.000000	1.143120
2359.000000	1.157196
2360.000000	1.170108
2361.000000	1.160687
2362.000000	1.145041
2363.000000	1.143448
2364.000000	1.141225
2365.000000	1.134478
2366.000000	1.128159
2367.000000	1.138728
2368.000000	1.147732
2369.000000	1.132094
2370.000000	1.113425
2371.000000	1.127886
2372.000000	1.132458
2373.000000	1.111103
2374.000000	1.125902
2375.000000	1.141626
2376.000000	1.116043
2377.000000	1.089589
2378.000000	1.112043
2379.000000	1.133431
2380.000000	1.111396
2381.000000	1.111509
2382.000000	1.118198
2383.000000	1.104757
2384.000000	1.090781
2385.000000	1.102421
2386.000000	1.093860
2387.000000	1.077227
2388.000000	1.088247
2389.000000	1.093573
2390.000000	1.082308
2391.000000	1.069926
2392.000000	1.059224
2393.000000	1.055064
2394.000000	1.068636
2395.000000	1.081186
2396.000000	1.058102
2397.000000	1.051432
2398.000000	1.048329
2399.000000	1.035557
2400.000000	1.046479
2401.000000	1.064187
2402.000000	1.041831
2403.000000	1.028916
2404.000000	1.024576
2405.000000	1.039488
2406.000000	1.053300
2407.000000	1.028699
2408.000000	1.007858
2409.000000	1.001281
2410.000000	1.011746
2411.000000	1.027385
2412.000000	1.007373
2413.000000	0.990749
2414.000000	1.010530
2415.000000	1.027028
2416.000000	0.991826
2417.000000	0.994325
2418.000000	0.960455
2419.000000	0.926751
2420.000000	0.902826
2421.000000	0.914760
2422.000000	0.970957
2423.000000	1.008572
2424.000000	1.015634
2425.000000	1.004871
2426.000000	0.990983
2427.000000	0.985097
2428.000000	0.976403
2429.000000	0.971359
2430.000000	0.979253
2431.000000	0.968903
2432.000000	0.956234
2433.000000	0.969479
2434.000000	0.957244
2435.000000	0.946682
2436.000000	0.944041
2437.000000	0.937935
2438.000000	0.935412
2439.000000	0.935218
2440.000000	0.927673
2441.000000	0.924151
2442.000000	0.916470
2443.000000	0.896156
2444.000000	0.890640
2445.000000	0.891694
2446.000000	0.889665
2447.000000	0.888496
2448.000000	0.881532
2449.000000	0.866116
2450.000000	0.871610
2451.000000	0.880031
2452.000000	0.866808
2453.000000	0.870693
2454.000000	0.861928
2455.000000	0.854712
2456.000000	0.844498
2457.000000	0.816976
2458.000000	0.845058
2459.000000	0.836284
2460.000000	0.824027
2461.000000	0.810948
2462.000000	0.802308
2463.000000	0.811053
2464.000000	0.820649
2465.000000	0.827149
2466.000000	0.839120
2467.000000	0.843307
2468.000000	0.807990
2469.000000	0.809485
2470.000000	0.773812
2471.000000	0.800141
2472.000000	0.821498
2473.000000	0.788945
2474.000000	0.792730
2475.000000	0.813248
2476.000000	0.800063
2477.000000	0.788008
2478.000000	0.789524
2479.000000	0.803362
2480.000000	0.806646
2481.000000	0.792245
2482.000000	0.766563
2483.000000	0.780374
2484.000000	0.815099
2485.000000	0.813634
2486.000000	0.759680
2487.000000	0.758921
2488.000000	0.797307
2489.000000	0.740771
2490.000000	0.786384
2491.000000	0.827732
2492.000000	0.749221
2493.000000	0.766143
2494.000000	0.746525
2495.000000	0.725755
2496.000000	0.759348
2497.000000	0.814560
2498.000000	0.731666
2499.000000	0.748718
2500.000000	0.853091
