PE UV       SUBTECH     SPECTRUM    ASCII       PEDS        4.00        
   -1
CICIMAUCR0113-6.Sample.ASC
24/04/25
11:40:20.00
24/04/25
11:40:20.00
Vinicio Soto Monge
C. kalinini
250,000000
1
Lambda 1050
1050L1511233
PerkinElmer UV WinLab 6.3.2.0749 / 2.02.05 Lambda 900 UV/VIS/NIR, Aug  7 2015 09:38:08

0
0
3350/servo 860,8/2
0
0
UV/VIS
1
1
1
DoubleDePol,CommonBeamDepol,RBeamAtt,SBeamAtt,60mm sphere, WB InGaAs Detector
0
0
0
0
Program
Program
3350/servo 860,8/2
3350/0,2 860,8/0,2
3350/0,2 860,8/0,2
0
15.00
 
 
 
0
 
860,8
319,2
860,8
Front
100
on
S:100 R:100
0
0
0
0
 
0
 
 
 
0
 
 
0
0
0
0
0
 
 
 
 
0
0


0
0
#HDR
-1
-1
#GR
nm
%R
1.0
0.0
2500,000000
-1,000000
2251
8
101,774400
5,807200
#DATA
250.000000	0.136029
251.000000	0.147102
252.000000	0.137468
253.000000	0.130710
254.000000	0.138168
255.000000	0.116694
256.000000	0.142947
257.000000	0.162637
258.000000	0.108962
259.000000	0.119299
260.000000	0.113464
261.000000	0.128067
262.000000	0.132311
263.000000	0.157642
264.000000	0.116382
265.000000	0.120680
266.000000	0.123556
267.000000	0.120371
268.000000	0.111878
269.000000	0.135939
270.000000	0.111367
271.000000	0.120311
272.000000	0.158723
273.000000	0.108026
274.000000	0.111351
275.000000	0.114963
276.000000	0.111805
277.000000	0.097620
278.000000	0.111855
279.000000	0.125170
280.000000	0.118500
281.000000	0.106391
282.000000	0.084334
283.000000	0.094115
284.000000	0.105470
285.000000	0.076752
286.000000	0.101426
287.000000	0.126354
288.000000	0.114749
289.000000	0.088451
290.000000	0.125358
291.000000	0.085816
292.000000	0.116702
293.000000	0.072263
294.000000	0.099490
295.000000	0.086381
296.000000	0.109948
297.000000	0.105680
298.000000	0.144952
299.000000	0.109854
300.000000	0.126194
301.000000	0.117668
302.000000	0.128831
303.000000	0.128718
304.000000	0.130634
305.000000	0.130569
306.000000	0.146503
307.000000	0.140361
308.000000	0.086790
309.000000	0.110678
310.000000	0.114185
311.000000	0.115717
312.000000	0.083947
313.000000	0.125981
314.000000	0.103379
315.000000	0.122189
316.000000	0.109664
317.000000	0.233709
318.000000	0.459801
319.000000	0.406148
320.000000	0.220450
321.000000	0.165780
322.000000	0.378656
323.000000	0.425887
324.000000	0.300536
325.000000	0.237049
326.000000	0.250523
327.000000	0.216994
328.000000	0.223225
329.000000	0.296450
330.000000	0.212338
331.000000	0.225854
332.000000	0.131961
333.000000	0.134367
334.000000	0.174923
335.000000	0.137606
336.000000	0.037546
337.000000	0.162469
338.000000	0.176509
339.000000	0.126563
340.000000	0.121059
341.000000	0.101262
342.000000	0.260829
343.000000	0.180791
344.000000	0.112647
345.000000	0.117226
346.000000	0.214174
347.000000	0.126345
348.000000	0.123450
349.000000	0.102551
350.000000	0.107300
351.000000	0.159584
352.000000	0.169736
353.000000	0.154356
354.000000	0.155144
355.000000	0.102676
356.000000	0.103805
357.000000	0.210640
358.000000	0.185695
359.000000	0.111379
360.000000	0.166117
361.000000	0.138543
362.000000	0.108856
363.000000	0.080308
364.000000	0.139300
365.000000	0.116485
366.000000	0.145817
367.000000	0.150818
368.000000	0.138279
369.000000	0.146875
370.000000	0.220618
371.000000	0.266914
372.000000	0.241669
373.000000	0.254819
374.000000	0.254497
375.000000	0.226951
376.000000	0.216652
377.000000	0.202862
378.000000	0.208499
379.000000	0.203208
380.000000	0.218741
381.000000	0.224685
382.000000	0.226918
383.000000	0.230772
384.000000	0.249963
385.000000	0.254147
386.000000	0.269093
387.000000	0.277099
388.000000	0.295689
389.000000	0.321644
390.000000	0.333203
391.000000	0.331723
392.000000	0.350424
393.000000	0.372670
394.000000	0.391409
395.000000	0.416916
396.000000	0.436124
397.000000	0.459791
398.000000	0.475878
399.000000	0.501872
400.000000	0.531385
401.000000	0.557520
402.000000	0.580224
403.000000	0.598835
404.000000	0.625622
405.000000	0.650707
406.000000	0.668898
407.000000	0.691569
408.000000	0.709108
409.000000	0.724274
410.000000	0.743503
411.000000	0.763780
412.000000	0.787885
413.000000	0.793095
414.000000	0.799754
415.000000	0.817481
416.000000	0.822226
417.000000	0.824152
418.000000	0.821145
419.000000	0.819329
420.000000	0.818580
421.000000	0.818735
422.000000	0.809029
423.000000	0.792951
424.000000	0.800153
425.000000	0.795773
426.000000	0.775893
427.000000	0.761371
428.000000	0.756800
429.000000	0.741694
430.000000	0.722455
431.000000	0.703826
432.000000	0.695676
433.000000	0.685172
434.000000	0.666965
435.000000	0.654872
436.000000	0.637641
437.000000	0.623227
438.000000	0.619631
439.000000	0.616096
440.000000	0.597494
441.000000	0.588773
442.000000	0.583737
443.000000	0.576801
444.000000	0.576685
445.000000	0.575326
446.000000	0.562599
447.000000	0.543375
448.000000	0.548723
449.000000	0.553886
450.000000	0.544879
451.000000	0.543820
452.000000	0.548747
453.000000	0.544228
454.000000	0.540248
455.000000	0.545402
456.000000	0.554639
457.000000	0.556138
458.000000	0.566277
459.000000	0.570916
460.000000	0.574472
461.000000	0.582986
462.000000	0.585363
463.000000	0.589214
464.000000	0.592556
465.000000	0.616662
466.000000	0.622453
467.000000	0.628624
468.000000	0.630570
469.000000	0.634576
470.000000	0.641003
471.000000	0.645097
472.000000	0.652329
473.000000	0.657350
474.000000	0.663968
475.000000	0.679967
476.000000	0.690719
477.000000	0.698035
478.000000	0.702639
479.000000	0.700291
480.000000	0.713435
481.000000	0.742573
482.000000	0.765614
483.000000	0.781599
484.000000	0.810463
485.000000	0.826667
486.000000	0.832967
487.000000	0.848193
488.000000	0.873342
489.000000	0.891726
490.000000	0.905117
491.000000	0.901204
492.000000	0.911534
493.000000	0.912521
494.000000	0.915738
495.000000	0.928402
496.000000	0.933525
497.000000	0.939183
498.000000	0.952936
499.000000	0.964891
500.000000	0.985504
501.000000	1.007252
502.000000	1.049079
503.000000	1.097470
504.000000	1.146014
505.000000	1.197658
506.000000	1.261245
507.000000	1.328595
508.000000	1.397577
509.000000	1.465835
510.000000	1.547215
511.000000	1.618938
512.000000	1.710753
513.000000	1.789809
514.000000	1.866765
515.000000	1.938488
516.000000	2.029545
517.000000	2.116721
518.000000	2.175986
519.000000	2.251802
520.000000	2.328518
521.000000	2.409398
522.000000	2.464904
523.000000	2.514980
524.000000	2.575028
525.000000	2.624391
526.000000	2.659589
527.000000	2.692197
528.000000	2.724115
529.000000	2.723750
530.000000	2.738057
531.000000	2.748227
532.000000	2.728153
533.000000	2.698138
534.000000	2.679790
535.000000	2.647352
536.000000	2.614162
537.000000	2.566374
538.000000	2.505573
539.000000	2.467688
540.000000	2.405939
541.000000	2.323593
542.000000	2.239539
543.000000	2.171086
544.000000	2.098836
545.000000	2.019776
546.000000	1.927730
547.000000	1.862724
548.000000	1.803753
549.000000	1.717022
550.000000	1.632781
551.000000	1.563850
552.000000	1.521413
553.000000	1.460988
554.000000	1.393786
555.000000	1.349481
556.000000	1.331316
557.000000	1.323043
558.000000	1.312025
559.000000	1.291538
560.000000	1.278879
561.000000	1.283627
562.000000	1.307034
563.000000	1.308481
564.000000	1.340415
565.000000	1.344017
566.000000	1.376513
567.000000	1.395183
568.000000	1.430156
569.000000	1.455944
570.000000	1.479774
571.000000	1.509252
572.000000	1.535278
573.000000	1.542246
574.000000	1.584899
575.000000	1.618921
576.000000	1.650573
577.000000	1.701806
578.000000	1.731035
579.000000	1.805562
580.000000	1.865748
581.000000	1.908998
582.000000	1.989734
583.000000	2.053894
584.000000	2.103404
585.000000	2.167600
586.000000	2.236594
587.000000	2.280615
588.000000	2.350443
589.000000	2.397334
590.000000	2.474334
591.000000	2.524680
592.000000	2.551694
593.000000	2.612385
594.000000	2.636164
595.000000	2.645728
596.000000	2.667517
597.000000	2.699362
598.000000	2.718094
599.000000	2.753499
600.000000	2.788954
601.000000	2.793886
602.000000	2.831476
603.000000	2.850670
604.000000	2.902267
605.000000	2.909413
606.000000	2.937895
607.000000	2.946804
608.000000	2.984199
609.000000	3.060021
610.000000	3.042967
611.000000	3.074527
612.000000	3.126878
613.000000	3.119764
614.000000	3.118387
615.000000	3.105045
616.000000	3.067094
617.000000	3.070856
618.000000	3.011682
619.000000	2.986083
620.000000	2.939061
621.000000	2.874841
622.000000	2.790569
623.000000	2.701699
624.000000	2.612283
625.000000	2.510901
626.000000	2.389716
627.000000	2.276036
628.000000	2.170844
629.000000	2.050913
630.000000	1.945739
631.000000	1.852554
632.000000	1.744303
633.000000	1.620146
634.000000	1.515995
635.000000	1.420530
636.000000	1.336738
637.000000	1.298005
638.000000	1.227152
639.000000	1.176835
640.000000	1.123342
641.000000	1.105608
642.000000	1.101051
643.000000	1.081795
644.000000	1.065431
645.000000	1.049894
646.000000	1.064822
647.000000	1.066359
648.000000	1.069615
649.000000	1.035732
650.000000	1.038552
651.000000	1.043292
652.000000	1.033067
653.000000	1.020326
654.000000	0.989207
655.000000	0.989823
656.000000	0.974657
657.000000	0.945295
658.000000	0.967472
659.000000	0.984795
660.000000	0.965199
661.000000	0.980688
662.000000	1.020854
663.000000	1.050708
664.000000	1.121653
665.000000	1.189550
666.000000	1.213174
667.000000	1.256960
668.000000	1.333501
669.000000	1.376195
670.000000	1.399504
671.000000	1.461185
672.000000	1.539246
673.000000	1.587925
674.000000	1.572652
675.000000	1.606387
676.000000	1.634317
677.000000	1.628121
678.000000	1.613695
679.000000	1.608811
680.000000	1.616101
681.000000	1.635772
682.000000	1.594356
683.000000	1.582007
684.000000	1.577144
685.000000	1.535524
686.000000	1.519743
687.000000	1.508952
688.000000	1.504501
689.000000	1.450060
690.000000	1.454267
691.000000	1.418262
692.000000	1.405303
693.000000	1.405199
694.000000	1.338282
695.000000	1.280040
696.000000	1.291540
697.000000	1.236845
698.000000	1.212506
699.000000	1.228358
700.000000	1.226956
701.000000	1.203300
702.000000	1.177609
703.000000	1.182117
704.000000	1.185519
705.000000	1.189592
706.000000	1.198212
707.000000	1.261452
708.000000	1.304661
709.000000	1.332869
710.000000	1.364010
711.000000	1.410569
712.000000	1.469523
713.000000	1.536279
714.000000	1.574091
715.000000	1.646751
716.000000	1.673129
717.000000	1.694912
718.000000	1.747502
719.000000	1.741981
720.000000	1.756871
721.000000	1.773524
722.000000	1.831674
723.000000	1.854290
724.000000	1.860792
725.000000	1.874856
726.000000	1.850516
727.000000	1.843703
728.000000	1.903234
729.000000	1.891166
730.000000	1.888849
731.000000	1.929047
732.000000	1.947400
733.000000	1.925957
734.000000	1.885598
735.000000	1.839211
736.000000	1.843775
737.000000	1.880853
738.000000	1.856121
739.000000	1.873043
740.000000	1.872624
741.000000	1.836965
742.000000	1.825673
743.000000	1.814223
744.000000	1.817666
745.000000	1.809563
746.000000	1.796238
747.000000	1.728741
748.000000	1.712614
749.000000	1.734308
750.000000	1.771189
751.000000	1.812921
752.000000	1.750909
753.000000	1.747086
754.000000	1.756961
755.000000	1.725672
756.000000	1.713956
757.000000	1.724335
758.000000	1.761243
759.000000	1.778647
760.000000	1.761636
761.000000	1.746147
762.000000	1.804436
763.000000	1.818759
764.000000	1.755759
765.000000	1.769201
766.000000	1.780512
767.000000	1.802894
768.000000	1.796567
769.000000	1.801651
770.000000	1.822569
771.000000	1.761302
772.000000	1.737322
773.000000	1.711923
774.000000	1.732472
775.000000	1.719767
776.000000	1.729988
777.000000	1.703548
778.000000	1.686282
779.000000	1.732507
780.000000	1.730737
781.000000	1.776304
782.000000	1.773653
783.000000	1.785251
784.000000	1.832855
785.000000	1.823046
786.000000	1.835317
787.000000	1.930405
788.000000	1.996820
789.000000	2.051662
790.000000	1.938032
791.000000	1.937038
792.000000	1.993511
793.000000	1.975549
794.000000	2.021067
795.000000	2.134935
796.000000	2.122486
797.000000	2.166644
798.000000	2.255987
799.000000	2.260140
800.000000	2.287367
801.000000	2.276559
802.000000	2.350722
803.000000	2.311829
804.000000	2.365791
805.000000	2.362419
806.000000	2.419673
807.000000	2.461564
808.000000	2.526129
809.000000	2.510950
810.000000	2.524670
811.000000	2.554310
812.000000	2.636255
813.000000	2.657250
814.000000	2.547152
815.000000	2.472917
816.000000	2.532784
817.000000	2.577691
818.000000	2.612584
819.000000	2.723158
820.000000	2.593633
821.000000	2.513865
822.000000	2.546543
823.000000	2.586689
824.000000	2.629336
825.000000	2.586253
826.000000	2.647878
827.000000	2.650034
828.000000	2.587610
829.000000	2.643605
830.000000	2.746046
831.000000	2.692192
832.000000	2.695099
833.000000	2.685882
834.000000	2.697205
835.000000	2.705853
836.000000	2.591481
837.000000	2.482770
838.000000	2.585719
839.000000	2.641528
840.000000	2.818725
841.000000	2.722039
842.000000	2.708645
843.000000	2.790393
844.000000	2.782154
845.000000	2.775960
846.000000	2.907356
847.000000	2.930915
848.000000	2.786367
849.000000	2.768724
850.000000	2.809460
851.000000	2.960595
852.000000	3.065293
853.000000	3.099906
854.000000	2.887266
855.000000	3.053176
856.000000	3.281225
857.000000	3.304460
858.000000	3.860405
859.000000	3.177206
860.000000	3.166823
861.000000	3.122322
862.000000	3.105152
863.000000	3.101213
864.000000	3.075550
865.000000	3.064801
866.000000	3.087364
867.000000	3.224623
868.000000	3.493802
869.000000	3.834296
870.000000	4.154457
871.000000	4.476474
872.000000	4.758102
873.000000	5.013457
874.000000	5.205522
875.000000	5.430878
876.000000	5.618204
877.000000	5.834779
878.000000	6.009441
879.000000	6.192437
880.000000	6.334386
881.000000	6.538770
882.000000	6.666345
883.000000	6.821075
884.000000	6.926260
885.000000	7.059953
886.000000	7.140238
887.000000	7.230986
888.000000	7.284834
889.000000	7.383970
890.000000	7.502190
891.000000	7.559187
892.000000	7.586913
893.000000	7.664269
894.000000	7.730627
895.000000	7.749673
896.000000	7.759885
897.000000	7.772320
898.000000	7.790866
899.000000	7.799666
900.000000	7.811861
901.000000	7.811564
902.000000	7.862935
903.000000	7.856677
904.000000	7.839194
905.000000	7.846631
906.000000	7.823375
907.000000	7.836932
908.000000	7.821972
909.000000	7.804068
910.000000	7.800414
911.000000	7.805839
912.000000	7.796841
913.000000	7.753503
914.000000	7.785176
915.000000	7.768654
916.000000	7.744904
917.000000	7.730817
918.000000	7.696674
919.000000	7.672831
920.000000	7.692242
921.000000	7.637344
922.000000	7.606399
923.000000	7.561691
924.000000	7.546588
925.000000	7.520709
926.000000	7.486240
927.000000	7.429167
928.000000	7.408117
929.000000	7.346654
930.000000	7.310740
931.000000	7.270882
932.000000	7.209579
933.000000	7.172800
934.000000	7.142297
935.000000	7.102753
936.000000	7.053174
937.000000	6.987844
938.000000	6.935458
939.000000	6.889553
940.000000	6.837444
941.000000	6.773878
942.000000	6.708032
943.000000	6.669726
944.000000	6.620798
945.000000	6.559484
946.000000	6.520550
947.000000	6.467391
948.000000	6.403832
949.000000	6.342685
950.000000	6.298076
951.000000	6.233247
952.000000	6.191072
953.000000	6.124421
954.000000	6.079970
955.000000	6.026531
956.000000	5.953220
957.000000	5.893810
958.000000	5.850219
959.000000	5.804372
960.000000	5.736361
961.000000	5.681200
962.000000	5.630690
963.000000	5.582120
964.000000	5.534198
965.000000	5.490363
966.000000	5.428028
967.000000	5.375167
968.000000	5.324708
969.000000	5.283346
970.000000	5.242626
971.000000	5.209076
972.000000	5.161588
973.000000	5.120373
974.000000	5.083909
975.000000	5.057607
976.000000	5.015593
977.000000	4.971505
978.000000	4.936622
979.000000	4.901232
980.000000	4.857892
981.000000	4.829442
982.000000	4.799711
983.000000	4.747784
984.000000	4.726658
985.000000	4.680384
986.000000	4.651941
987.000000	4.621095
988.000000	4.580586
989.000000	4.556862
990.000000	4.519821
991.000000	4.481573
992.000000	4.450450
993.000000	4.419873
994.000000	4.390005
995.000000	4.361986
996.000000	4.316508
997.000000	4.289332
998.000000	4.263998
999.000000	4.239615
1000.000000	4.209062
1001.000000	4.184907
1002.000000	4.158505
1003.000000	4.126155
1004.000000	4.095097
1005.000000	4.070576
1006.000000	4.043061
1007.000000	4.013206
1008.000000	3.991504
1009.000000	3.977574
1010.000000	3.945789
1011.000000	3.913890
1012.000000	3.889237
1013.000000	3.868496
1014.000000	3.853059
1015.000000	3.842546
1016.000000	3.817369
1017.000000	3.807033
1018.000000	3.809019
1019.000000	3.792290
1020.000000	3.780596
1021.000000	3.780466
1022.000000	3.764588
1023.000000	3.760038
1024.000000	3.760486
1025.000000	3.744311
1026.000000	3.737803
1027.000000	3.748162
1028.000000	3.748336
1029.000000	3.729718
1030.000000	3.729536
1031.000000	3.726583
1032.000000	3.713297
1033.000000	3.710587
1034.000000	3.713696
1035.000000	3.693165
1036.000000	3.678215
1037.000000	3.680719
1038.000000	3.671409
1039.000000	3.648425
1040.000000	3.632631
1041.000000	3.627384
1042.000000	3.615251
1043.000000	3.604033
1044.000000	3.595880
1045.000000	3.576185
1046.000000	3.558557
1047.000000	3.544072
1048.000000	3.535954
1049.000000	3.535065
1050.000000	3.523421
1051.000000	3.517727
1052.000000	3.509406
1053.000000	3.507057
1054.000000	3.499053
1055.000000	3.500443
1056.000000	3.496810
1057.000000	3.492496
1058.000000	3.488095
1059.000000	3.495635
1060.000000	3.508749
1061.000000	3.507999
1062.000000	3.510259
1063.000000	3.512959
1064.000000	3.510271
1065.000000	3.519899
1066.000000	3.526809
1067.000000	3.528117
1068.000000	3.534385
1069.000000	3.542341
1070.000000	3.540235
1071.000000	3.542454
1072.000000	3.543634
1073.000000	3.536770
1074.000000	3.543891
1075.000000	3.552810
1076.000000	3.558410
1077.000000	3.566332
1078.000000	3.568874
1079.000000	3.567835
1080.000000	3.553563
1081.000000	3.551212
1082.000000	3.542531
1083.000000	3.556021
1084.000000	3.559471
1085.000000	3.555279
1086.000000	3.554501
1087.000000	3.555573
1088.000000	3.548894
1089.000000	3.565613
1090.000000	3.550092
1091.000000	3.542653
1092.000000	3.554905
1093.000000	3.554692
1094.000000	3.544633
1095.000000	3.544289
1096.000000	3.542316
1097.000000	3.547719
1098.000000	3.543980
1099.000000	3.540371
1100.000000	3.521401
1101.000000	3.528971
1102.000000	3.517748
1103.000000	3.520982
1104.000000	3.528269
1105.000000	3.519022
1106.000000	3.518371
1107.000000	3.511230
1108.000000	3.503309
1109.000000	3.504593
1110.000000	3.499731
1111.000000	3.489904
1112.000000	3.495105
1113.000000	3.496202
1114.000000	3.496290
1115.000000	3.499322
1116.000000	3.488026
1117.000000	3.498335
1118.000000	3.497213
1119.000000	3.496130
1120.000000	3.487145
1121.000000	3.471850
1122.000000	3.472870
1123.000000	3.466710
1124.000000	3.474401
1125.000000	3.442228
1126.000000	3.428934
1127.000000	3.428304
1128.000000	3.399934
1129.000000	3.394814
1130.000000	3.374629
1131.000000	3.346442
1132.000000	3.300657
1133.000000	3.267086
1134.000000	3.218033
1135.000000	3.192400
1136.000000	3.143106
1137.000000	3.090104
1138.000000	3.035387
1139.000000	2.983653
1140.000000	2.931185
1141.000000	2.907384
1142.000000	2.868380
1143.000000	2.841109
1144.000000	2.804071
1145.000000	2.784034
1146.000000	2.761036
1147.000000	2.730514
1148.000000	2.706511
1149.000000	2.687034
1150.000000	2.683691
1151.000000	2.692315
1152.000000	2.667410
1153.000000	2.675129
1154.000000	2.679479
1155.000000	2.680486
1156.000000	2.681051
1157.000000	2.686617
1158.000000	2.669843
1159.000000	2.664214
1160.000000	2.662177
1161.000000	2.659292
1162.000000	2.650293
1163.000000	2.668796
1164.000000	2.674804
1165.000000	2.685252
1166.000000	2.691684
1167.000000	2.699219
1168.000000	2.717198
1169.000000	2.760387
1170.000000	2.793827
1171.000000	2.809176
1172.000000	2.851680
1173.000000	2.878673
1174.000000	2.912737
1175.000000	2.946252
1176.000000	2.976655
1177.000000	3.025814
1178.000000	3.051111
1179.000000	3.113107
1180.000000	3.168717
1181.000000	3.233568
1182.000000	3.322229
1183.000000	3.384810
1184.000000	3.451427
1185.000000	3.495674
1186.000000	3.523991
1187.000000	3.547373
1188.000000	3.526564
1189.000000	3.498982
1190.000000	3.462105
1191.000000	3.414146
1192.000000	3.329660
1193.000000	3.255884
1194.000000	3.204250
1195.000000	3.139999
1196.000000	3.110349
1197.000000	3.087971
1198.000000	3.056427
1199.000000	3.056173
1200.000000	3.043299
1201.000000	3.034640
1202.000000	3.040234
1203.000000	3.044353
1204.000000	3.048837
1205.000000	3.056619
1206.000000	3.054288
1207.000000	3.062519
1208.000000	3.054043
1209.000000	3.045681
1210.000000	3.037257
1211.000000	3.029126
1212.000000	3.015561
1213.000000	3.007310
1214.000000	3.004247
1215.000000	2.992280
1216.000000	2.974861
1217.000000	2.960916
1218.000000	2.938064
1219.000000	2.925303
1220.000000	2.907951
1221.000000	2.900236
1222.000000	2.878586
1223.000000	2.857749
1224.000000	2.836229
1225.000000	2.817392
1226.000000	2.799555
1227.000000	2.777968
1228.000000	2.745775
1229.000000	2.729324
1230.000000	2.714709
1231.000000	2.684013
1232.000000	2.672649
1233.000000	2.667480
1234.000000	2.637653
1235.000000	2.613111
1236.000000	2.596162
1237.000000	2.586201
1238.000000	2.582985
1239.000000	2.563915
1240.000000	2.550802
1241.000000	2.543290
1242.000000	2.524951
1243.000000	2.524922
1244.000000	2.527142
1245.000000	2.526191
1246.000000	2.515306
1247.000000	2.503544
1248.000000	2.508520
1249.000000	2.501988
1250.000000	2.504233
1251.000000	2.502608
1252.000000	2.499477
1253.000000	2.508710
1254.000000	2.507795
1255.000000	2.504039
1256.000000	2.499714
1257.000000	2.508456
1258.000000	2.520273
1259.000000	2.515351
1260.000000	2.521079
1261.000000	2.537010
1262.000000	2.540005
1263.000000	2.529785
1264.000000	2.530829
1265.000000	2.537604
1266.000000	2.531484
1267.000000	2.525406
1268.000000	2.516669
1269.000000	2.516057
1270.000000	2.513571
1271.000000	2.507100
1272.000000	2.505068
1273.000000	2.501827
1274.000000	2.498807
1275.000000	2.485795
1276.000000	2.469471
1277.000000	2.461933
1278.000000	2.451793
1279.000000	2.441940
1280.000000	2.442780
1281.000000	2.440078
1282.000000	2.430658
1283.000000	2.424040
1284.000000	2.431427
1285.000000	2.429249
1286.000000	2.427918
1287.000000	2.429291
1288.000000	2.419443
1289.000000	2.417104
1290.000000	2.411728
1291.000000	2.399082
1292.000000	2.404037
1293.000000	2.399944
1294.000000	2.385886
1295.000000	2.384416
1296.000000	2.394976
1297.000000	2.390464
1298.000000	2.377296
1299.000000	2.373663
1300.000000	2.364975
1301.000000	2.357610
1302.000000	2.346723
1303.000000	2.340353
1304.000000	2.337484
1305.000000	2.333745
1306.000000	2.333153
1307.000000	2.333331
1308.000000	2.329146
1309.000000	2.326025
1310.000000	2.317086
1311.000000	2.316078
1312.000000	2.317181
1313.000000	2.309948
1314.000000	2.305503
1315.000000	2.304848
1316.000000	2.303016
1317.000000	2.306469
1318.000000	2.303650
1319.000000	2.299407
1320.000000	2.296821
1321.000000	2.297382
1322.000000	2.310426
1323.000000	2.317676
1324.000000	2.320047
1325.000000	2.321107
1326.000000	2.320344
1327.000000	2.322349
1328.000000	2.332031
1329.000000	2.341136
1330.000000	2.343878
1331.000000	2.342619
1332.000000	2.351605
1333.000000	2.370516
1334.000000	2.378817
1335.000000	2.386576
1336.000000	2.390262
1337.000000	2.400196
1338.000000	2.407084
1339.000000	2.421916
1340.000000	2.438898
1341.000000	2.443561
1342.000000	2.465008
1343.000000	2.484955
1344.000000	2.498454
1345.000000	2.516604
1346.000000	2.540245
1347.000000	2.570043
1348.000000	2.598635
1349.000000	2.636918
1350.000000	2.669896
1351.000000	2.714603
1352.000000	2.776106
1353.000000	2.825413
1354.000000	2.913549
1355.000000	3.000895
1356.000000	3.063370
1357.000000	3.099516
1358.000000	3.136675
1359.000000	3.166637
1360.000000	3.197153
1361.000000	3.187085
1362.000000	3.194671
1363.000000	3.217973
1364.000000	3.211866
1365.000000	3.228865
1366.000000	3.238095
1367.000000	3.257727
1368.000000	3.279002
1369.000000	3.324869
1370.000000	3.361758
1371.000000	3.387888
1372.000000	3.423825
1373.000000	3.480982
1374.000000	3.510289
1375.000000	3.554473
1376.000000	3.589388
1377.000000	3.603417
1378.000000	3.616884
1379.000000	3.612044
1380.000000	3.602754
1381.000000	3.582657
1382.000000	3.597175
1383.000000	3.596732
1384.000000	3.618357
1385.000000	3.616287
1386.000000	3.628014
1387.000000	3.640783
1388.000000	3.649496
1389.000000	3.654257
1390.000000	3.656905
1391.000000	3.646263
1392.000000	3.644588
1393.000000	3.637115
1394.000000	3.634939
1395.000000	3.637411
1396.000000	3.625748
1397.000000	3.593294
1398.000000	3.573324
1399.000000	3.551869
1400.000000	3.542670
1401.000000	3.556569
1402.000000	3.523718
1403.000000	3.517393
1404.000000	3.516313
1405.000000	3.523684
1406.000000	3.516138
1407.000000	3.510989
1408.000000	3.520670
1409.000000	3.498757
1410.000000	3.497234
1411.000000	3.494072
1412.000000	3.480356
1413.000000	3.456301
1414.000000	3.441323
1415.000000	3.413501
1416.000000	3.390662
1417.000000	3.391435
1418.000000	3.366086
1419.000000	3.347038
1420.000000	3.352002
1421.000000	3.331197
1422.000000	3.307402
1423.000000	3.309118
1424.000000	3.288817
1425.000000	3.284925
1426.000000	3.276640
1427.000000	3.270504
1428.000000	3.268506
1429.000000	3.260868
1430.000000	3.249207
1431.000000	3.252003
1432.000000	3.239709
1433.000000	3.228541
1434.000000	3.217942
1435.000000	3.225070
1436.000000	3.215451
1437.000000	3.205216
1438.000000	3.195964
1439.000000	3.191030
1440.000000	3.178119
1441.000000	3.178896
1442.000000	3.172986
1443.000000	3.184098
1444.000000	3.167431
1445.000000	3.185796
1446.000000	3.189212
1447.000000	3.176819
1448.000000	3.163953
1449.000000	3.173757
1450.000000	3.184280
1451.000000	3.180802
1452.000000	3.191281
1453.000000	3.182283
1454.000000	3.189467
1455.000000	3.190263
1456.000000	3.193969
1457.000000	3.168737
1458.000000	3.193119
1459.000000	3.194378
1460.000000	3.203388
1461.000000	3.208011
1462.000000	3.210033
1463.000000	3.219255
1464.000000	3.213615
1465.000000	3.219506
1466.000000	3.219633
1467.000000	3.229353
1468.000000	3.232703
1469.000000	3.247949
1470.000000	3.238290
1471.000000	3.240046
1472.000000	3.236961
1473.000000	3.240433
1474.000000	3.244971
1475.000000	3.241491
1476.000000	3.248549
1477.000000	3.255130
1478.000000	3.259386
1479.000000	3.258731
1480.000000	3.255247
1481.000000	3.256635
1482.000000	3.259581
1483.000000	3.252774
1484.000000	3.252793
1485.000000	3.256890
1486.000000	3.264520
1487.000000	3.268223
1488.000000	3.264291
1489.000000	3.272006
1490.000000	3.276884
1491.000000	3.269524
1492.000000	3.271088
1493.000000	3.274580
1494.000000	3.262745
1495.000000	3.254767
1496.000000	3.263874
1497.000000	3.263504
1498.000000	3.262511
1499.000000	3.242594
1500.000000	3.247516
1501.000000	3.249908
1502.000000	3.246611
1503.000000	3.247203
1504.000000	3.251628
1505.000000	3.250909
1506.000000	3.241467
1507.000000	3.240449
1508.000000	3.252894
1509.000000	3.260174
1510.000000	3.253538
1511.000000	3.247413
1512.000000	3.249222
1513.000000	3.253837
1514.000000	3.257487
1515.000000	3.262578
1516.000000	3.256821
1517.000000	3.245509
1518.000000	3.247450
1519.000000	3.251561
1520.000000	3.249893
1521.000000	3.255002
1522.000000	3.257862
1523.000000	3.261134
1524.000000	3.266773
1525.000000	3.277968
1526.000000	3.265134
1527.000000	3.262541
1528.000000	3.268525
1529.000000	3.275271
1530.000000	3.279103
1531.000000	3.288759
1532.000000	3.280451
1533.000000	3.273492
1534.000000	3.274029
1535.000000	3.286462
1536.000000	3.295766
1537.000000	3.297381
1538.000000	3.289543
1539.000000	3.291528
1540.000000	3.295646
1541.000000	3.305929
1542.000000	3.310381
1543.000000	3.324947
1544.000000	3.331074
1545.000000	3.334806
1546.000000	3.348224
1547.000000	3.352272
1548.000000	3.359683
1549.000000	3.372080
1550.000000	3.368011
1551.000000	3.380172
1552.000000	3.383998
1553.000000	3.388687
1554.000000	3.399365
1555.000000	3.407529
1556.000000	3.420002
1557.000000	3.424445
1558.000000	3.428433
1559.000000	3.441618
1560.000000	3.445168
1561.000000	3.451825
1562.000000	3.455715
1563.000000	3.451624
1564.000000	3.454503
1565.000000	3.459266
1566.000000	3.465290
1567.000000	3.471927
1568.000000	3.475919
1569.000000	3.486891
1570.000000	3.491422
1571.000000	3.486862
1572.000000	3.491736
1573.000000	3.502154
1574.000000	3.510161
1575.000000	3.516376
1576.000000	3.522512
1577.000000	3.530428
1578.000000	3.539279
1579.000000	3.540837
1580.000000	3.545804
1581.000000	3.550971
1582.000000	3.559637
1583.000000	3.578029
1584.000000	3.586441
1585.000000	3.581770
1586.000000	3.578848
1587.000000	3.590695
1588.000000	3.599666
1589.000000	3.600775
1590.000000	3.607222
1591.000000	3.618009
1592.000000	3.622680
1593.000000	3.618559
1594.000000	3.631940
1595.000000	3.635425
1596.000000	3.639655
1597.000000	3.641813
1598.000000	3.652676
1599.000000	3.654277
1600.000000	3.646216
1601.000000	3.654511
1602.000000	3.661098
1603.000000	3.661053
1604.000000	3.668621
1605.000000	3.678555
1606.000000	3.682261
1607.000000	3.679350
1608.000000	3.683941
1609.000000	3.682856
1610.000000	3.686795
1611.000000	3.685873
1612.000000	3.680385
1613.000000	3.678207
1614.000000	3.676258
1615.000000	3.680954
1616.000000	3.676551
1617.000000	3.675472
1618.000000	3.687436
1619.000000	3.684411
1620.000000	3.677415
1621.000000	3.687642
1622.000000	3.684225
1623.000000	3.680297
1624.000000	3.676748
1625.000000	3.689414
1626.000000	3.680650
1627.000000	3.672121
1628.000000	3.681896
1629.000000	3.676576
1630.000000	3.674054
1631.000000	3.682283
1632.000000	3.680104
1633.000000	3.670332
1634.000000	3.678996
1635.000000	3.675294
1636.000000	3.677875
1637.000000	3.671417
1638.000000	3.659673
1639.000000	3.675329
1640.000000	3.678264
1641.000000	3.685198
1642.000000	3.669094
1643.000000	3.679273
1644.000000	3.669825
1645.000000	3.672426
1646.000000	3.667049
1647.000000	3.668500
1648.000000	3.670031
1649.000000	3.664763
1650.000000	3.661923
1651.000000	3.666640
1652.000000	3.650498
1653.000000	3.655422
1654.000000	3.655870
1655.000000	3.646381
1656.000000	3.649105
1657.000000	3.640483
1658.000000	3.643001
1659.000000	3.636269
1660.000000	3.620604
1661.000000	3.629862
1662.000000	3.612929
1663.000000	3.608032
1664.000000	3.602580
1665.000000	3.606704
1666.000000	3.590879
1667.000000	3.589899
1668.000000	3.590166
1669.000000	3.565687
1670.000000	3.558909
1671.000000	3.540781
1672.000000	3.536378
1673.000000	3.529697
1674.000000	3.516791
1675.000000	3.501701
1676.000000	3.469026
1677.000000	3.443593
1678.000000	3.416085
1679.000000	3.366785
1680.000000	3.349072
1681.000000	3.306487
1682.000000	3.287035
1683.000000	3.275014
1684.000000	3.270478
1685.000000	3.286644
1686.000000	3.290109
1687.000000	3.287453
1688.000000	3.283146
1689.000000	3.282964
1690.000000	3.258862
1691.000000	3.217957
1692.000000	3.221121
1693.000000	3.206001
1694.000000	3.212782
1695.000000	3.210161
1696.000000	3.221592
1697.000000	3.254007
1698.000000	3.268963
1699.000000	3.290376
1700.000000	3.322691
1701.000000	3.340077
1702.000000	3.341950
1703.000000	3.342165
1704.000000	3.372096
1705.000000	3.367998
1706.000000	3.372022
1707.000000	3.350180
1708.000000	3.379479
1709.000000	3.365599
1710.000000	3.350428
1711.000000	3.355654
1712.000000	3.341102
1713.000000	3.329824
1714.000000	3.316307
1715.000000	3.299687
1716.000000	3.284766
1717.000000	3.279018
1718.000000	3.273528
1719.000000	3.259479
1720.000000	3.244471
1721.000000	3.244651
1722.000000	3.235143
1723.000000	3.209663
1724.000000	3.205965
1725.000000	3.210615
1726.000000	3.198484
1727.000000	3.170189
1728.000000	3.153970
1729.000000	3.138985
1730.000000	3.144801
1731.000000	3.122284
1732.000000	3.110818
1733.000000	3.119521
1734.000000	3.120492
1735.000000	3.132894
1736.000000	3.156870
1737.000000	3.164642
1738.000000	3.191241
1739.000000	3.224719
1740.000000	3.238696
1741.000000	3.272851
1742.000000	3.273467
1743.000000	3.294209
1744.000000	3.288610
1745.000000	3.301739
1746.000000	3.308028
1747.000000	3.318800
1748.000000	3.309622
1749.000000	3.309372
1750.000000	3.313403
1751.000000	3.304373
1752.000000	3.294465
1753.000000	3.292379
1754.000000	3.292779
1755.000000	3.277818
1756.000000	3.268800
1757.000000	3.262668
1758.000000	3.245484
1759.000000	3.245939
1760.000000	3.243987
1761.000000	3.249627
1762.000000	3.241368
1763.000000	3.242618
1764.000000	3.257231
1765.000000	3.262594
1766.000000	3.268067
1767.000000	3.272821
1768.000000	3.282690
1769.000000	3.293238
1770.000000	3.312076
1771.000000	3.312710
1772.000000	3.312490
1773.000000	3.316825
1774.000000	3.327411
1775.000000	3.350805
1776.000000	3.351379
1777.000000	3.349494
1778.000000	3.350056
1779.000000	3.347023
1780.000000	3.356963
1781.000000	3.348584
1782.000000	3.353740
1783.000000	3.356901
1784.000000	3.356340
1785.000000	3.359761
1786.000000	3.351359
1787.000000	3.344658
1788.000000	3.351018
1789.000000	3.342801
1790.000000	3.350044
1791.000000	3.352602
1792.000000	3.350427
1793.000000	3.354357
1794.000000	3.352506
1795.000000	3.359344
1796.000000	3.364780
1797.000000	3.364177
1798.000000	3.352093
1799.000000	3.352634
1800.000000	3.372062
1801.000000	3.377365
1802.000000	3.382769
1803.000000	3.380475
1804.000000	3.385195
1805.000000	3.391541
1806.000000	3.384991
1807.000000	3.385434
1808.000000	3.392450
1809.000000	3.390900
1810.000000	3.386700
1811.000000	3.391884
1812.000000	3.399801
1813.000000	3.399702
1814.000000	3.386939
1815.000000	3.391357
1816.000000	3.399411
1817.000000	3.403781
1818.000000	3.398738
1819.000000	3.393221
1820.000000	3.401900
1821.000000	3.421434
1822.000000	3.427532
1823.000000	3.415845
1824.000000	3.408988
1825.000000	3.406137
1826.000000	3.404400
1827.000000	3.403605
1828.000000	3.405566
1829.000000	3.412369
1830.000000	3.415476
1831.000000	3.417015
1832.000000	3.411651
1833.000000	3.394275
1834.000000	3.379318
1835.000000	3.372680
1836.000000	3.366114
1837.000000	3.357802
1838.000000	3.355606
1839.000000	3.362504
1840.000000	3.364013
1841.000000	3.372081
1842.000000	3.383314
1843.000000	3.377657
1844.000000	3.357678
1845.000000	3.335168
1846.000000	3.322306
1847.000000	3.325078
1848.000000	3.337436
1849.000000	3.357508
1850.000000	3.341428
1851.000000	3.311982
1852.000000	3.287463
1853.000000	3.275319
1854.000000	3.267207
1855.000000	3.258624
1856.000000	3.241737
1857.000000	3.213700
1858.000000	3.195899
1859.000000	3.191684
1860.000000	3.188743
1861.000000	3.182059
1862.000000	3.166165
1863.000000	3.143413
1864.000000	3.107811
1865.000000	3.065537
1866.000000	3.029917
1867.000000	3.013321
1868.000000	2.994638
1869.000000	2.972526
1870.000000	2.953343
1871.000000	2.937858
1872.000000	2.932650
1873.000000	2.925861
1874.000000	2.911825
1875.000000	2.898309
1876.000000	2.890719
1877.000000	2.867537
1878.000000	2.849251
1879.000000	2.825408
1880.000000	2.794687
1881.000000	2.754395
1882.000000	2.727506
1883.000000	2.682891
1884.000000	2.640987
1885.000000	2.630253
1886.000000	2.610272
1887.000000	2.577560
1888.000000	2.536981
1889.000000	2.494972
1890.000000	2.464195
1891.000000	2.439105
1892.000000	2.407960
1893.000000	2.368263
1894.000000	2.324709
1895.000000	2.293296
1896.000000	2.250259
1897.000000	2.215293
1898.000000	2.168164
1899.000000	2.141538
1900.000000	2.092522
1901.000000	2.066232
1902.000000	2.036946
1903.000000	1.996854
1904.000000	1.965758
1905.000000	1.932960
1906.000000	1.891476
1907.000000	1.871433
1908.000000	1.842713
1909.000000	1.816978
1910.000000	1.795115
1911.000000	1.755676
1912.000000	1.732186
1913.000000	1.703430
1914.000000	1.670047
1915.000000	1.650624
1916.000000	1.633401
1917.000000	1.609879
1918.000000	1.607452
1919.000000	1.567836
1920.000000	1.535344
1921.000000	1.522360
1922.000000	1.514016
1923.000000	1.489551
1924.000000	1.479226
1925.000000	1.464946
1926.000000	1.447235
1927.000000	1.430132
1928.000000	1.426096
1929.000000	1.415602
1930.000000	1.406206
1931.000000	1.417712
1932.000000	1.404581
1933.000000	1.401569
1934.000000	1.395433
1935.000000	1.392715
1936.000000	1.386710
1937.000000	1.390506
1938.000000	1.380258
1939.000000	1.387950
1940.000000	1.399048
1941.000000	1.391082
1942.000000	1.394268
1943.000000	1.392527
1944.000000	1.400554
1945.000000	1.414645
1946.000000	1.422549
1947.000000	1.414733
1948.000000	1.431672
1949.000000	1.435323
1950.000000	1.446535
1951.000000	1.462823
1952.000000	1.469330
1953.000000	1.468310
1954.000000	1.460011
1955.000000	1.461878
1956.000000	1.473327
1957.000000	1.486586
1958.000000	1.483074
1959.000000	1.482713
1960.000000	1.501813
1961.000000	1.511741
1962.000000	1.523627
1963.000000	1.539572
1964.000000	1.537369
1965.000000	1.545481
1966.000000	1.568731
1967.000000	1.563859
1968.000000	1.584065
1969.000000	1.598424
1970.000000	1.598853
1971.000000	1.607959
1972.000000	1.618922
1973.000000	1.626226
1974.000000	1.627682
1975.000000	1.646268
1976.000000	1.646978
1977.000000	1.655368
1978.000000	1.676402
1979.000000	1.675788
1980.000000	1.686389
1981.000000	1.699662
1982.000000	1.705781
1983.000000	1.720706
1984.000000	1.715650
1985.000000	1.721548
1986.000000	1.734509
1987.000000	1.734052
1988.000000	1.748381
1989.000000	1.753848
1990.000000	1.743866
1991.000000	1.764219
1992.000000	1.761427
1993.000000	1.771580
1994.000000	1.778527
1995.000000	1.790014
1996.000000	1.792699
1997.000000	1.808435
1998.000000	1.818824
1999.000000	1.798044
2000.000000	1.807953
2001.000000	1.799717
2002.000000	1.814093
2003.000000	1.814180
2004.000000	1.810333
2005.000000	1.808351
2006.000000	1.803503
2007.000000	1.808158
2008.000000	1.812724
2009.000000	1.812332
2010.000000	1.804241
2011.000000	1.800057
2012.000000	1.804769
2013.000000	1.796083
2014.000000	1.799265
2015.000000	1.794392
2016.000000	1.781260
2017.000000	1.768643
2018.000000	1.768353
2019.000000	1.768644
2020.000000	1.762794
2021.000000	1.755190
2022.000000	1.735094
2023.000000	1.738473
2024.000000	1.725573
2025.000000	1.732095
2026.000000	1.718442
2027.000000	1.705077
2028.000000	1.700686
2029.000000	1.690907
2030.000000	1.681797
2031.000000	1.666682
2032.000000	1.655600
2033.000000	1.645393
2034.000000	1.638597
2035.000000	1.617907
2036.000000	1.600361
2037.000000	1.589615
2038.000000	1.580036
2039.000000	1.561556
2040.000000	1.548337
2041.000000	1.527397
2042.000000	1.514970
2043.000000	1.492607
2044.000000	1.486902
2045.000000	1.460971
2046.000000	1.439989
2047.000000	1.432621
2048.000000	1.427513
2049.000000	1.403480
2050.000000	1.395950
2051.000000	1.382338
2052.000000	1.379854
2053.000000	1.373124
2054.000000	1.374129
2055.000000	1.366671
2056.000000	1.363751
2057.000000	1.376472
2058.000000	1.383607
2059.000000	1.379395
2060.000000	1.357989
2061.000000	1.367411
2062.000000	1.378026
2063.000000	1.382710
2064.000000	1.391154
2065.000000	1.395898
2066.000000	1.400955
2067.000000	1.405812
2068.000000	1.415433
2069.000000	1.416891
2070.000000	1.415579
2071.000000	1.426664
2072.000000	1.421594
2073.000000	1.422066
2074.000000	1.437292
2075.000000	1.433303
2076.000000	1.446565
2077.000000	1.456529
2078.000000	1.447425
2079.000000	1.441159
2080.000000	1.454902
2081.000000	1.468769
2082.000000	1.465723
2083.000000	1.467443
2084.000000	1.476961
2085.000000	1.474198
2086.000000	1.471204
2087.000000	1.476500
2088.000000	1.485082
2089.000000	1.478310
2090.000000	1.479138
2091.000000	1.494609
2092.000000	1.486091
2093.000000	1.482345
2094.000000	1.495414
2095.000000	1.495496
2096.000000	1.501677
2097.000000	1.508929
2098.000000	1.505856
2099.000000	1.506144
2100.000000	1.515203
2101.000000	1.525310
2102.000000	1.520464
2103.000000	1.523572
2104.000000	1.527841
2105.000000	1.523065
2106.000000	1.519998
2107.000000	1.523387
2108.000000	1.529602
2109.000000	1.526315
2110.000000	1.533475
2111.000000	1.541131
2112.000000	1.539213
2113.000000	1.542337
2114.000000	1.539901
2115.000000	1.535238
2116.000000	1.537932
2117.000000	1.543134
2118.000000	1.539088
2119.000000	1.531209
2120.000000	1.539228
2121.000000	1.549432
2122.000000	1.537871
2123.000000	1.537028
2124.000000	1.535935
2125.000000	1.532627
2126.000000	1.521236
2127.000000	1.513347
2128.000000	1.517357
2129.000000	1.515217
2130.000000	1.511429
2131.000000	1.510838
2132.000000	1.500775
2133.000000	1.493754
2134.000000	1.489093
2135.000000	1.482909
2136.000000	1.473376
2137.000000	1.462203
2138.000000	1.466938
2139.000000	1.457899
2140.000000	1.449489
2141.000000	1.453410
2142.000000	1.446113
2143.000000	1.435534
2144.000000	1.436290
2145.000000	1.419915
2146.000000	1.413055
2147.000000	1.396495
2148.000000	1.386851
2149.000000	1.391658
2150.000000	1.377570
2151.000000	1.372194
2152.000000	1.368040
2153.000000	1.367225
2154.000000	1.356757
2155.000000	1.348533
2156.000000	1.340370
2157.000000	1.336634
2158.000000	1.334588
2159.000000	1.337143
2160.000000	1.328765
2161.000000	1.330533
2162.000000	1.325738
2163.000000	1.317194
2164.000000	1.319115
2165.000000	1.305302
2166.000000	1.312259
2167.000000	1.311449
2168.000000	1.313508
2169.000000	1.307418
2170.000000	1.311356
2171.000000	1.308036
2172.000000	1.305345
2173.000000	1.309864
2174.000000	1.314269
2175.000000	1.304657
2176.000000	1.303041
2177.000000	1.299625
2178.000000	1.310917
2179.000000	1.327529
2180.000000	1.309905
2181.000000	1.319544
2182.000000	1.319384
2183.000000	1.312026
2184.000000	1.322353
2185.000000	1.322057
2186.000000	1.331757
2187.000000	1.331877
2188.000000	1.343159
2189.000000	1.338879
2190.000000	1.326160
2191.000000	1.342349
2192.000000	1.336443
2193.000000	1.331598
2194.000000	1.336749
2195.000000	1.352624
2196.000000	1.340243
2197.000000	1.339308
2198.000000	1.338444
2199.000000	1.345349
2200.000000	1.341853
2201.000000	1.332419
2202.000000	1.352967
2203.000000	1.358540
2204.000000	1.336342
2205.000000	1.352421
2206.000000	1.353836
2207.000000	1.372951
2208.000000	1.378754
2209.000000	1.375367
2210.000000	1.367115
2211.000000	1.380970
2212.000000	1.377725
2213.000000	1.404692
2214.000000	1.390516
2215.000000	1.395472
2216.000000	1.401183
2217.000000	1.402716
2218.000000	1.397810
2219.000000	1.414470
2220.000000	1.411689
2221.000000	1.417265
2222.000000	1.441339
2223.000000	1.439485
2224.000000	1.437168
2225.000000	1.430574
2226.000000	1.443994
2227.000000	1.444306
2228.000000	1.434315
2229.000000	1.437466
2230.000000	1.423864
2231.000000	1.433491
2232.000000	1.419803
2233.000000	1.411974
2234.000000	1.406528
2235.000000	1.414986
2236.000000	1.413157
2237.000000	1.392926
2238.000000	1.379997
2239.000000	1.375511
2240.000000	1.359590
2241.000000	1.343314
2242.000000	1.328439
2243.000000	1.319771
2244.000000	1.309908
2245.000000	1.287418
2246.000000	1.271904
2247.000000	1.263940
2248.000000	1.241886
2249.000000	1.216333
2250.000000	1.172098
2251.000000	1.153424
2252.000000	1.122549
2253.000000	1.074132
2254.000000	1.038106
2255.000000	1.043780
2256.000000	1.005313
2257.000000	0.987107
2258.000000	0.940157
2259.000000	0.905468
2260.000000	0.869486
2261.000000	0.847963
2262.000000	0.808493
2263.000000	0.797987
2264.000000	0.785992
2265.000000	0.775840
2266.000000	0.754830
2267.000000	0.741029
2268.000000	0.740537
2269.000000	0.738703
2270.000000	0.736305
2271.000000	0.735539
2272.000000	0.732484
2273.000000	0.731277
2274.000000	0.744665
2275.000000	0.741230
2276.000000	0.732431
2277.000000	0.750416
2278.000000	0.762307
2279.000000	0.769563
2280.000000	0.766799
2281.000000	0.782428
2282.000000	0.769585
2283.000000	0.779744
2284.000000	0.804362
2285.000000	0.802089
2286.000000	0.802923
2287.000000	0.791604
2288.000000	0.800037
2289.000000	0.812818
2290.000000	0.808862
2291.000000	0.806793
2292.000000	0.805398
2293.000000	0.788926
2294.000000	0.773812
2295.000000	0.778586
2296.000000	0.757147
2297.000000	0.737034
2298.000000	0.723692
2299.000000	0.713788
2300.000000	0.716468
2301.000000	0.700465
2302.000000	0.699395
2303.000000	0.685575
2304.000000	0.673907
2305.000000	0.678200
2306.000000	0.666579
2307.000000	0.682997
2308.000000	0.698439
2309.000000	0.702745
2310.000000	0.696084
2311.000000	0.700860
2312.000000	0.721594
2313.000000	0.735925
2314.000000	0.759200
2315.000000	0.772547
2316.000000	0.789898
2317.000000	0.805104
2318.000000	0.808684
2319.000000	0.826923
2320.000000	0.847916
2321.000000	0.861008
2322.000000	0.872211
2323.000000	0.882758
2324.000000	0.881530
2325.000000	0.898277
2326.000000	0.929283
2327.000000	0.924305
2328.000000	0.934307
2329.000000	0.938446
2330.000000	0.946338
2331.000000	0.952299
2332.000000	0.955213
2333.000000	0.960627
2334.000000	0.978870
2335.000000	0.972280
2336.000000	0.977413
2337.000000	0.988950
2338.000000	0.997774
2339.000000	0.989654
2340.000000	0.982983
2341.000000	0.977183
2342.000000	0.979407
2343.000000	0.986977
2344.000000	0.981358
2345.000000	0.975823
2346.000000	0.977821
2347.000000	0.971849
2348.000000	0.972980
2349.000000	0.976128
2350.000000	0.975363
2351.000000	0.975232
2352.000000	0.974912
2353.000000	0.975066
2354.000000	0.979422
2355.000000	0.988392
2356.000000	1.004355
2357.000000	1.017923
2358.000000	1.025139
2359.000000	1.042647
2360.000000	1.052022
2361.000000	1.052859
2362.000000	1.063526
2363.000000	1.075887
2364.000000	1.085517
2365.000000	1.094305
2366.000000	1.113253
2367.000000	1.129470
2368.000000	1.130952
2369.000000	1.130473
2370.000000	1.137753
2371.000000	1.151166
2372.000000	1.157773
2373.000000	1.166205
2374.000000	1.175582
2375.000000	1.186855
2376.000000	1.192962
2377.000000	1.199587
2378.000000	1.208998
2379.000000	1.200937
2380.000000	1.212826
2381.000000	1.234947
2382.000000	1.237327
2383.000000	1.242327
2384.000000	1.241182
2385.000000	1.251522
2386.000000	1.258644
2387.000000	1.249893
2388.000000	1.262650
2389.000000	1.274917
2390.000000	1.274324
2391.000000	1.277722
2392.000000	1.279356
2393.000000	1.294687
2394.000000	1.312805
2395.000000	1.309855
2396.000000	1.310540
2397.000000	1.303354
2398.000000	1.312956
2399.000000	1.327598
2400.000000	1.337486
2401.000000	1.342889
2402.000000	1.352363
2403.000000	1.355242
2404.000000	1.357290
2405.000000	1.356977
2406.000000	1.358187
2407.000000	1.373864
2408.000000	1.390731
2409.000000	1.397357
2410.000000	1.405371
2411.000000	1.424044
2412.000000	1.437970
2413.000000	1.433828
2414.000000	1.432109
2415.000000	1.436917
2416.000000	1.456065
2417.000000	1.451440
2418.000000	1.443095
2419.000000	1.447826
2420.000000	1.440779
2421.000000	1.458186
2422.000000	1.473233
2423.000000	1.497974
2424.000000	1.531786
2425.000000	1.529647
2426.000000	1.528347
2427.000000	1.523078
2428.000000	1.508858
2429.000000	1.496026
2430.000000	1.489164
2431.000000	1.493713
2432.000000	1.483300
2433.000000	1.470695
2434.000000	1.450449
2435.000000	1.435857
2436.000000	1.421251
2437.000000	1.411513
2438.000000	1.414433
2439.000000	1.398370
2440.000000	1.377538
2441.000000	1.361893
2442.000000	1.353258
2443.000000	1.341938
2444.000000	1.346768
2445.000000	1.330092
2446.000000	1.311642
2447.000000	1.292201
2448.000000	1.283644
2449.000000	1.271029
2450.000000	1.264344
2451.000000	1.245665
2452.000000	1.241290
2453.000000	1.232508
2454.000000	1.211531
2455.000000	1.204705
2456.000000	1.172429
2457.000000	1.177499
2458.000000	1.159541
2459.000000	1.143280
2460.000000	1.132485
2461.000000	1.100157
2462.000000	1.106195
2463.000000	1.114308
2464.000000	1.118144
2465.000000	1.108140
2466.000000	1.088579
2467.000000	1.073526
2468.000000	1.062887
2469.000000	1.090880
2470.000000	1.021318
2471.000000	1.019822
2472.000000	1.046682
2473.000000	1.056593
2474.000000	1.035115
2475.000000	1.034844
2476.000000	1.017521
2477.000000	1.073150
2478.000000	1.046343
2479.000000	1.013636
2480.000000	1.016294
2481.000000	1.056032
2482.000000	1.013298
2483.000000	1.027715
2484.000000	1.023639
2485.000000	1.048138
2486.000000	0.979498
2487.000000	1.006931
2488.000000	1.042789
2489.000000	1.023971
2490.000000	1.062876
2491.000000	1.008679
2492.000000	0.981296
2493.000000	1.012959
2494.000000	1.024115
2495.000000	1.006553
2496.000000	0.971039
2497.000000	0.947545
2498.000000	1.006160
2499.000000	1.051968
2500.000000	1.060461
