PE UV       SUBTECH     SPECTRUM    ASCII       PEDS        4.00        
   -1
CICIMAUCR0101-3.Sample.ASC
24/04/11
14:27:02.00
24/04/11
14:27:02.00
Vinicio Soto Monge
C. resplendens
250,000000
1
Lambda 1050
1050L1511233
PerkinElmer UV WinLab 6.3.2.0749 / 2.02.05 Lambda 900 UV/VIS/NIR, Aug  7 2015 09:38:08

0
0
3350/2 860,8/2
0
0
UV/VIS
1
1
1
DoubleDePol,CommonBeamDepol,RBeamAtt,SBeamAtt,60mm sphere, WB InGaAs Detector
0
0
0
0
Program
Program
3350/2 860,8/2
3350/0,2 860,8/0,2
3350/0,2 860,8/0,2
0
15.00
 
 
 
0
 
860,8
319,2
860,8
Front
100
on
S:100 R:100
0
0
0
0
 
0
 
 
 
0
 
 
0
0
0
0
0
 
 
 
 
0
0


0
0
#HDR
-1
-1
#GR
nm
%R
1.0
0.0
2400,000000
-1,000000
2151
8
92,537900
5,932000
#DATA
250.000000	0.417675
251.000000	0.428036
252.000000	0.415522
253.000000	0.383845
254.000000	0.415477
255.000000	0.396294
256.000000	0.404489
257.000000	0.420631
258.000000	0.397772
259.000000	0.401838
260.000000	0.379000
261.000000	0.377974
262.000000	0.401915
263.000000	0.361277
264.000000	0.360966
265.000000	0.344082
266.000000	0.313816
267.000000	0.363274
268.000000	0.358604
269.000000	0.363826
270.000000	0.373759
271.000000	0.298498
272.000000	0.319019
273.000000	0.354225
274.000000	0.355337
275.000000	0.308818
276.000000	0.323679
277.000000	0.318710
278.000000	0.342796
279.000000	0.350191
280.000000	0.317033
281.000000	0.302003
282.000000	0.327997
283.000000	0.328581
284.000000	0.364473
285.000000	0.306073
286.000000	0.331776
287.000000	0.308441
288.000000	0.323498
289.000000	0.341455
290.000000	0.322838
291.000000	0.327444
292.000000	0.326984
293.000000	0.350837
294.000000	0.324143
295.000000	0.308671
296.000000	0.281642
297.000000	0.276448
298.000000	0.324659
299.000000	0.343130
300.000000	0.319755
301.000000	0.320594
302.000000	0.344399
303.000000	0.324251
304.000000	0.295630
305.000000	0.301490
306.000000	0.315249
307.000000	0.309027
308.000000	0.282102
309.000000	0.288772
310.000000	0.323948
311.000000	0.312851
312.000000	0.279617
313.000000	0.299579
314.000000	0.281122
315.000000	0.270842
316.000000	0.451274
317.000000	0.532130
318.000000	0.667563
319.000000	0.490635
320.000000	0.317563
321.000000	0.392583
322.000000	0.252484
323.000000	0.353025
324.000000	0.290521
325.000000	0.251492
326.000000	0.205104
327.000000	0.287585
328.000000	0.289243
329.000000	0.261187
330.000000	0.322801
331.000000	0.348398
332.000000	0.190164
333.000000	0.163587
334.000000	0.187365
335.000000	0.226968
336.000000	0.259804
337.000000	0.250220
338.000000	0.249781
339.000000	0.296996
340.000000	0.262378
341.000000	0.333076
342.000000	0.264694
343.000000	0.236360
344.000000	0.240756
345.000000	0.266861
346.000000	0.322287
347.000000	0.379686
348.000000	0.362996
349.000000	0.293789
350.000000	0.237010
351.000000	0.246223
352.000000	0.211219
353.000000	0.308112
354.000000	0.322329
355.000000	0.335884
356.000000	0.258050
357.000000	0.228335
358.000000	0.252214
359.000000	0.290385
360.000000	0.256678
361.000000	0.213438
362.000000	0.245162
363.000000	0.228444
364.000000	0.247673
365.000000	0.338525
366.000000	0.324359
367.000000	0.276777
368.000000	0.293306
369.000000	0.229484
370.000000	0.249689
371.000000	0.261447
372.000000	0.235048
373.000000	0.246830
374.000000	0.259951
375.000000	0.275009
376.000000	0.184116
377.000000	0.174852
378.000000	0.168316
379.000000	0.141702
380.000000	0.142584
381.000000	0.140764
382.000000	0.124964
383.000000	0.100348
384.000000	0.083427
385.000000	0.089928
386.000000	0.087969
387.000000	0.088475
388.000000	0.099500
389.000000	0.125698
390.000000	0.160857
391.000000	0.188195
392.000000	0.211225
393.000000	0.237846
394.000000	0.272769
395.000000	0.312915
396.000000	0.345057
397.000000	0.388950
398.000000	0.419676
399.000000	0.464471
400.000000	0.489243
401.000000	0.527182
402.000000	0.568221
403.000000	0.595772
404.000000	0.615931
405.000000	0.654457
406.000000	0.687188
407.000000	0.709737
408.000000	0.729613
409.000000	0.752473
410.000000	0.766459
411.000000	0.777220
412.000000	0.787493
413.000000	0.779713
414.000000	0.795844
415.000000	0.797399
416.000000	0.789683
417.000000	0.785316
418.000000	0.791644
419.000000	0.791751
420.000000	0.775393
421.000000	0.768170
422.000000	0.764638
423.000000	0.751951
424.000000	0.738455
425.000000	0.714474
426.000000	0.710794
427.000000	0.713684
428.000000	0.699158
429.000000	0.680959
430.000000	0.675316
431.000000	0.653103
432.000000	0.646430
433.000000	0.614658
434.000000	0.606688
435.000000	0.594418
436.000000	0.575972
437.000000	0.553399
438.000000	0.543177
439.000000	0.513983
440.000000	0.504815
441.000000	0.486247
442.000000	0.452018
443.000000	0.434930
444.000000	0.420616
445.000000	0.395505
446.000000	0.358367
447.000000	0.337168
448.000000	0.339600
449.000000	0.329331
450.000000	0.332421
451.000000	0.322105
452.000000	0.330516
453.000000	0.348766
454.000000	0.360493
455.000000	0.391731
456.000000	0.411345
457.000000	0.470970
458.000000	0.502649
459.000000	0.522531
460.000000	0.595847
461.000000	0.676094
462.000000	0.745043
463.000000	0.796341
464.000000	0.875948
465.000000	0.964647
466.000000	1.025727
467.000000	1.101501
468.000000	1.164947
469.000000	1.230022
470.000000	1.285208
471.000000	1.337907
472.000000	1.386322
473.000000	1.427438
474.000000	1.439685
475.000000	1.447400
476.000000	1.444566
477.000000	1.413239
478.000000	1.383281
479.000000	1.342652
480.000000	1.292506
481.000000	1.231818
482.000000	1.153625
483.000000	1.078046
484.000000	1.011116
485.000000	0.924860
486.000000	0.870713
487.000000	0.825476
488.000000	0.771994
489.000000	0.760317
490.000000	0.736767
491.000000	0.764318
492.000000	0.781890
493.000000	0.826955
494.000000	0.883415
495.000000	0.957842
496.000000	1.069193
497.000000	1.165610
498.000000	1.290684
499.000000	1.420095
500.000000	1.564184
501.000000	1.727184
502.000000	1.904221
503.000000	2.081428
504.000000	2.269957
505.000000	2.442639
506.000000	2.635344
507.000000	2.803023
508.000000	2.968808
509.000000	3.143996
510.000000	3.277964
511.000000	3.419584
512.000000	3.524073
513.000000	3.599315
514.000000	3.681866
515.000000	3.722026
516.000000	3.762199
517.000000	3.777816
518.000000	3.760770
519.000000	3.739582
520.000000	3.689442
521.000000	3.620280
522.000000	3.525840
523.000000	3.429037
524.000000	3.318033
525.000000	3.222089
526.000000	3.123005
527.000000	3.017136
528.000000	2.926681
529.000000	2.839514
530.000000	2.759971
531.000000	2.681361
532.000000	2.638426
533.000000	2.589917
534.000000	2.527487
535.000000	2.456141
536.000000	2.407007
537.000000	2.357845
538.000000	2.291241
539.000000	2.231111
540.000000	2.178861
541.000000	2.130935
542.000000	2.092732
543.000000	2.015071
544.000000	1.974721
545.000000	1.923570
546.000000	1.893008
547.000000	1.858201
548.000000	1.783339
549.000000	1.748914
550.000000	1.676740
551.000000	1.634246
552.000000	1.568463
553.000000	1.525062
554.000000	1.505510
555.000000	1.487359
556.000000	1.465418
557.000000	1.446477
558.000000	1.398185
559.000000	1.379206
560.000000	1.353535
561.000000	1.332832
562.000000	1.340299
563.000000	1.316898
564.000000	1.320156
565.000000	1.341410
566.000000	1.342835
567.000000	1.328166
568.000000	1.322458
569.000000	1.318789
570.000000	1.306801
571.000000	1.274717
572.000000	1.280120
573.000000	1.248712
574.000000	1.224858
575.000000	1.189025
576.000000	1.146136
577.000000	1.143988
578.000000	1.107856
579.000000	1.060964
580.000000	1.056869
581.000000	1.019873
582.000000	0.972838
583.000000	0.957446
584.000000	0.924367
585.000000	0.915224
586.000000	0.863590
587.000000	0.815411
588.000000	0.800036
589.000000	0.783614
590.000000	0.753172
591.000000	0.735233
592.000000	0.724812
593.000000	0.695609
594.000000	0.663178
595.000000	0.646157
596.000000	0.669481
597.000000	0.698694
598.000000	0.721001
599.000000	0.763420
600.000000	0.832502
601.000000	0.914309
602.000000	1.065895
603.000000	1.134735
604.000000	1.245044
605.000000	1.377021
606.000000	1.452361
607.000000	1.543281
608.000000	1.614621
609.000000	1.663552
610.000000	1.737495
611.000000	1.767184
612.000000	1.764574
613.000000	1.766271
614.000000	1.760601
615.000000	1.698510
616.000000	1.666836
617.000000	1.634605
618.000000	1.514334
619.000000	1.393650
620.000000	1.277548
621.000000	1.109306
622.000000	0.901509
623.000000	0.690387
624.000000	0.479076
625.000000	0.316090
626.000000	0.416366
627.000000	0.700666
628.000000	1.023791
629.000000	1.392912
630.000000	1.759507
631.000000	2.150558
632.000000	2.516939
633.000000	2.862667
634.000000	3.156415
635.000000	3.403598
636.000000	3.669625
637.000000	3.824518
638.000000	3.954263
639.000000	4.024435
640.000000	4.074747
641.000000	4.049214
642.000000	3.992066
643.000000	3.901526
644.000000	3.809257
645.000000	3.673240
646.000000	3.509128
647.000000	3.341833
648.000000	3.177940
649.000000	2.974155
650.000000	2.795218
651.000000	2.587393
652.000000	2.420434
653.000000	2.205137
654.000000	2.017713
655.000000	1.874637
656.000000	1.731313
657.000000	1.642477
658.000000	1.550467
659.000000	1.455015
660.000000	1.363604
661.000000	1.307509
662.000000	1.285970
663.000000	1.266069
664.000000	1.194019
665.000000	1.131453
666.000000	1.113442
667.000000	1.060087
668.000000	1.002290
669.000000	0.937697
670.000000	0.915240
671.000000	0.900699
672.000000	0.881588
673.000000	0.862006
674.000000	0.898830
675.000000	0.909146
676.000000	0.945727
677.000000	0.996018
678.000000	1.037125
679.000000	1.072817
680.000000	1.154640
681.000000	1.181826
682.000000	1.192399
683.000000	1.233994
684.000000	1.316227
685.000000	1.312115
686.000000	1.360192
687.000000	1.421092
688.000000	1.484571
689.000000	1.497278
690.000000	1.533756
691.000000	1.599403
692.000000	1.735961
693.000000	1.852707
694.000000	1.934171
695.000000	1.999612
696.000000	2.108854
697.000000	2.200010
698.000000	2.264579
699.000000	2.318565
700.000000	2.351329
701.000000	2.388697
702.000000	2.369004
703.000000	2.342044
704.000000	2.398952
705.000000	2.378019
706.000000	2.350615
707.000000	2.321911
708.000000	2.272062
709.000000	2.230024
710.000000	2.208774
711.000000	2.194910
712.000000	2.123885
713.000000	2.067178
714.000000	2.057738
715.000000	2.040984
716.000000	1.974881
717.000000	1.942675
718.000000	1.910408
719.000000	1.866150
720.000000	1.842110
721.000000	1.779882
722.000000	1.730160
723.000000	1.736227
724.000000	1.746328
725.000000	1.733465
726.000000	1.683568
727.000000	1.646986
728.000000	1.658854
729.000000	1.673030
730.000000	1.575819
731.000000	1.518053
732.000000	1.474319
733.000000	1.403392
734.000000	1.374564
735.000000	1.316940
736.000000	1.291538
737.000000	1.178060
738.000000	1.127893
739.000000	1.097092
740.000000	1.044833
741.000000	1.090101
742.000000	1.056908
743.000000	0.969713
744.000000	1.025997
745.000000	1.031375
746.000000	1.009812
747.000000	0.975291
748.000000	1.001194
749.000000	1.015924
750.000000	0.980020
751.000000	1.015682
752.000000	1.057390
753.000000	1.052345
754.000000	1.090937
755.000000	1.104655
756.000000	1.226620
757.000000	1.204217
758.000000	1.274190
759.000000	1.199062
760.000000	1.247535
761.000000	1.217586
762.000000	1.288200
763.000000	1.315842
764.000000	1.330510
765.000000	1.462031
766.000000	1.410389
767.000000	1.361011
768.000000	1.368488
769.000000	1.305051
770.000000	1.299484
771.000000	1.333599
772.000000	1.244028
773.000000	1.251505
774.000000	1.273295
775.000000	1.238091
776.000000	1.270652
777.000000	1.226700
778.000000	1.206181
779.000000	1.176916
780.000000	1.141136
781.000000	1.169593
782.000000	1.154744
783.000000	1.125394
784.000000	1.088836
785.000000	1.071337
786.000000	1.085456
787.000000	1.087639
788.000000	1.082701
789.000000	1.085980
790.000000	1.094799
791.000000	1.025812
792.000000	1.065825
793.000000	1.040848
794.000000	1.053007
795.000000	1.017189
796.000000	1.091583
797.000000	1.033937
798.000000	1.039811
799.000000	0.984416
800.000000	1.005092
801.000000	0.882093
802.000000	0.895726
803.000000	0.854756
804.000000	0.925855
805.000000	0.873865
806.000000	0.870709
807.000000	0.853051
808.000000	0.873528
809.000000	0.836414
810.000000	1.054325
811.000000	1.091875
812.000000	1.075692
813.000000	1.038120
814.000000	1.177804
815.000000	1.079459
816.000000	1.066653
817.000000	1.172710
818.000000	1.188979
819.000000	1.316309
820.000000	1.356403
821.000000	1.470752
822.000000	1.449974
823.000000	1.475191
824.000000	1.577957
825.000000	1.540986
826.000000	1.463080
827.000000	1.487783
828.000000	1.541456
829.000000	1.695285
830.000000	1.597137
831.000000	1.547180
832.000000	1.528266
833.000000	1.393086
834.000000	1.478940
835.000000	1.448450
836.000000	1.345369
837.000000	1.410961
838.000000	1.240133
839.000000	1.205145
840.000000	1.091200
841.000000	1.252015
842.000000	1.192064
843.000000	1.127076
844.000000	1.075300
845.000000	1.104165
846.000000	0.963090
847.000000	0.893780
848.000000	0.854349
849.000000	0.973995
850.000000	0.987010
851.000000	0.824991
852.000000	0.719239
853.000000	0.813669
854.000000	0.661875
855.000000	0.928504
856.000000	0.776867
857.000000	0.937531
858.000000	0.863996
859.000000	1.517313
860.000000	1.265424
861.000000	0.722728
862.000000	0.695483
863.000000	0.730868
864.000000	1.599779
865.000000	1.508346
866.000000	0.828814
867.000000	1.418128
868.000000	0.925684
869.000000	1.026267
870.000000	1.292674
871.000000	1.615952
872.000000	1.555937
873.000000	1.728378
874.000000	1.606644
875.000000	1.759058
876.000000	1.550380
877.000000	1.934663
878.000000	1.718392
879.000000	1.577229
880.000000	1.649203
881.000000	1.829518
882.000000	2.149017
883.000000	1.838343
884.000000	2.030037
885.000000	2.001037
886.000000	1.877384
887.000000	1.881723
888.000000	2.024113
889.000000	2.017194
890.000000	1.937957
891.000000	1.973525
892.000000	1.945045
893.000000	1.912824
894.000000	1.968141
895.000000	1.915563
896.000000	2.054952
897.000000	2.100663
898.000000	2.158087
899.000000	2.140476
900.000000	2.133725
901.000000	2.176968
902.000000	2.061608
903.000000	2.036254
904.000000	2.227073
905.000000	2.337212
906.000000	2.355188
907.000000	2.337653
908.000000	2.421807
909.000000	2.368186
910.000000	2.427830
911.000000	2.492124
912.000000	2.408742
913.000000	2.414291
914.000000	2.462723
915.000000	2.336046
916.000000	2.415589
917.000000	2.587537
918.000000	2.557733
919.000000	2.539057
920.000000	2.567700
921.000000	2.580441
922.000000	2.543176
923.000000	2.550691
924.000000	2.549848
925.000000	2.584720
926.000000	2.657755
927.000000	2.622098
928.000000	2.615846
929.000000	2.620615
930.000000	2.634743
931.000000	2.631409
932.000000	2.603426
933.000000	2.555668
934.000000	2.528508
935.000000	2.527597
936.000000	2.543239
937.000000	2.569417
938.000000	2.555564
939.000000	2.549863
940.000000	2.544252
941.000000	2.502862
942.000000	2.470707
943.000000	2.468237
944.000000	2.479935
945.000000	2.489497
946.000000	2.446749
947.000000	2.457673
948.000000	2.457694
949.000000	2.421998
950.000000	2.403692
951.000000	2.365522
952.000000	2.374441
953.000000	2.435529
954.000000	2.398477
955.000000	2.356908
956.000000	2.399934
957.000000	2.396201
958.000000	2.384803
959.000000	2.388670
960.000000	2.383059
961.000000	2.422059
962.000000	2.425432
963.000000	2.435942
964.000000	2.435401
965.000000	2.449763
966.000000	2.499979
967.000000	2.498850
968.000000	2.480814
969.000000	2.507526
970.000000	2.543115
971.000000	2.558530
972.000000	2.544193
973.000000	2.516523
974.000000	2.539620
975.000000	2.578863
976.000000	2.550673
977.000000	2.596864
978.000000	2.605923
979.000000	2.586506
980.000000	2.667967
981.000000	2.693152
982.000000	2.680032
983.000000	2.704185
984.000000	2.683348
985.000000	2.693214
986.000000	2.718623
987.000000	2.739062
988.000000	2.757031
989.000000	2.745873
990.000000	2.745690
991.000000	2.761646
992.000000	2.789300
993.000000	2.750494
994.000000	2.774700
995.000000	2.810942
996.000000	2.786782
997.000000	2.762948
998.000000	2.791110
999.000000	2.821181
1000.000000	2.827320
1001.000000	2.801093
1002.000000	2.796072
1003.000000	2.795595
1004.000000	2.818812
1005.000000	2.812268
1006.000000	2.824989
1007.000000	2.803846
1008.000000	2.784020
1009.000000	2.806324
1010.000000	2.838123
1011.000000	2.809543
1012.000000	2.806951
1013.000000	2.789387
1014.000000	2.794380
1015.000000	2.773751
1016.000000	2.766054
1017.000000	2.785727
1018.000000	2.801921
1019.000000	2.764768
1020.000000	2.767966
1021.000000	2.774465
1022.000000	2.771453
1023.000000	2.786224
1024.000000	2.765166
1025.000000	2.786642
1026.000000	2.777286
1027.000000	2.779009
1028.000000	2.761982
1029.000000	2.776340
1030.000000	2.789032
1031.000000	2.777880
1032.000000	2.785379
1033.000000	2.793575
1034.000000	2.766527
1035.000000	2.790927
1036.000000	2.799832
1037.000000	2.830412
1038.000000	2.845886
1039.000000	2.839656
1040.000000	2.871072
1041.000000	2.904036
1042.000000	2.903584
1043.000000	2.891445
1044.000000	2.906053
1045.000000	2.925957
1046.000000	2.944969
1047.000000	2.947949
1048.000000	2.929674
1049.000000	2.974020
1050.000000	2.985122
1051.000000	2.989004
1052.000000	3.000608
1053.000000	3.023430
1054.000000	3.021355
1055.000000	2.976836
1056.000000	2.994242
1057.000000	2.990274
1058.000000	2.963557
1059.000000	2.972992
1060.000000	2.969234
1061.000000	2.971623
1062.000000	2.969266
1063.000000	2.987502
1064.000000	2.984598
1065.000000	2.964630
1066.000000	2.945852
1067.000000	2.943607
1068.000000	2.969861
1069.000000	2.967444
1070.000000	2.932269
1071.000000	2.927713
1072.000000	2.934722
1073.000000	2.932689
1074.000000	2.913751
1075.000000	2.874853
1076.000000	2.910492
1077.000000	2.899023
1078.000000	2.898447
1079.000000	2.875089
1080.000000	2.891408
1081.000000	2.859714
1082.000000	2.876983
1083.000000	2.861501
1084.000000	2.850813
1085.000000	2.852053
1086.000000	2.846486
1087.000000	2.864214
1088.000000	2.865249
1089.000000	2.853005
1090.000000	2.851049
1091.000000	2.856358
1092.000000	2.856870
1093.000000	2.853031
1094.000000	2.881062
1095.000000	2.859775
1096.000000	2.894083
1097.000000	2.907814
1098.000000	2.912198
1099.000000	2.909687
1100.000000	2.920679
1101.000000	2.941051
1102.000000	2.939378
1103.000000	2.951064
1104.000000	2.939274
1105.000000	2.949393
1106.000000	2.979529
1107.000000	2.986438
1108.000000	2.996206
1109.000000	3.004168
1110.000000	3.004259
1111.000000	3.006133
1112.000000	3.037728
1113.000000	3.034714
1114.000000	3.034503
1115.000000	3.031350
1116.000000	3.032603
1117.000000	3.058600
1118.000000	3.068659
1119.000000	3.071456
1120.000000	3.070107
1121.000000	3.074230
1122.000000	3.085378
1123.000000	3.078855
1124.000000	3.118430
1125.000000	3.107434
1126.000000	3.111656
1127.000000	3.125097
1128.000000	3.142747
1129.000000	3.178423
1130.000000	3.190996
1131.000000	3.229098
1132.000000	3.259269
1133.000000	3.296191
1134.000000	3.303829
1135.000000	3.353588
1136.000000	3.385433
1137.000000	3.448776
1138.000000	3.493606
1139.000000	3.521126
1140.000000	3.543118
1141.000000	3.560486
1142.000000	3.597736
1143.000000	3.637037
1144.000000	3.652198
1145.000000	3.665532
1146.000000	3.641735
1147.000000	3.608149
1148.000000	3.586151
1149.000000	3.557073
1150.000000	3.551033
1151.000000	3.551233
1152.000000	3.560957
1153.000000	3.573685
1154.000000	3.592304
1155.000000	3.633865
1156.000000	3.687495
1157.000000	3.729745
1158.000000	3.771398
1159.000000	3.818587
1160.000000	3.845718
1161.000000	3.885849
1162.000000	3.920646
1163.000000	3.937541
1164.000000	3.964725
1165.000000	3.997240
1166.000000	4.025247
1167.000000	4.052677
1168.000000	4.035157
1169.000000	4.055643
1170.000000	4.057605
1171.000000	4.090564
1172.000000	4.105712
1173.000000	4.100756
1174.000000	4.091860
1175.000000	4.104450
1176.000000	4.108717
1177.000000	4.126225
1178.000000	4.154440
1179.000000	4.197005
1180.000000	4.246987
1181.000000	4.281339
1182.000000	4.296638
1183.000000	4.283522
1184.000000	4.262738
1185.000000	4.204331
1186.000000	4.150923
1187.000000	4.105034
1188.000000	4.050423
1189.000000	3.995195
1190.000000	3.975860
1191.000000	3.953433
1192.000000	3.944153
1193.000000	3.953172
1194.000000	3.986704
1195.000000	4.018613
1196.000000	4.047439
1197.000000	4.078271
1198.000000	4.100987
1199.000000	4.134186
1200.000000	4.172258
1201.000000	4.190152
1202.000000	4.223916
1203.000000	4.234280
1204.000000	4.244400
1205.000000	4.267889
1206.000000	4.283579
1207.000000	4.284706
1208.000000	4.292614
1209.000000	4.308423
1210.000000	4.302601
1211.000000	4.301254
1212.000000	4.296321
1213.000000	4.299955
1214.000000	4.319245
1215.000000	4.307842
1216.000000	4.295590
1217.000000	4.290203
1218.000000	4.280171
1219.000000	4.280913
1220.000000	4.270938
1221.000000	4.255746
1222.000000	4.235516
1223.000000	4.217659
1224.000000	4.201086
1225.000000	4.187333
1226.000000	4.165745
1227.000000	4.137808
1228.000000	4.118859
1229.000000	4.096038
1230.000000	4.075269
1231.000000	4.056896
1232.000000	4.046877
1233.000000	4.037643
1234.000000	4.025695
1235.000000	3.992866
1236.000000	3.968417
1237.000000	3.958720
1238.000000	3.941580
1239.000000	3.927957
1240.000000	3.905041
1241.000000	3.883696
1242.000000	3.857908
1243.000000	3.842203
1244.000000	3.844957
1245.000000	3.827759
1246.000000	3.816346
1247.000000	3.807342
1248.000000	3.806513
1249.000000	3.804472
1250.000000	3.798567
1251.000000	3.792602
1252.000000	3.778978
1253.000000	3.777041
1254.000000	3.774975
1255.000000	3.769264
1256.000000	3.764396
1257.000000	3.753849
1258.000000	3.767409
1259.000000	3.774629
1260.000000	3.759840
1261.000000	3.753139
1262.000000	3.753373
1263.000000	3.756042
1264.000000	3.743689
1265.000000	3.744275
1266.000000	3.734305
1267.000000	3.734397
1268.000000	3.724620
1269.000000	3.717744
1270.000000	3.711820
1271.000000	3.705142
1272.000000	3.701195
1273.000000	3.704651
1274.000000	3.699053
1275.000000	3.693674
1276.000000	3.689394
1277.000000	3.683107
1278.000000	3.684090
1279.000000	3.667731
1280.000000	3.668285
1281.000000	3.691506
1282.000000	3.673073
1283.000000	3.670189
1284.000000	3.670995
1285.000000	3.657448
1286.000000	3.669821
1287.000000	3.675467
1288.000000	3.671243
1289.000000	3.667657
1290.000000	3.657585
1291.000000	3.659284
1292.000000	3.678099
1293.000000	3.678812
1294.000000	3.673862
1295.000000	3.663723
1296.000000	3.667031
1297.000000	3.658017
1298.000000	3.659278
1299.000000	3.660736
1300.000000	3.656268
1301.000000	3.654168
1302.000000	3.649325
1303.000000	3.644503
1304.000000	3.627093
1305.000000	3.640443
1306.000000	3.645451
1307.000000	3.638038
1308.000000	3.645709
1309.000000	3.643245
1310.000000	3.640079
1311.000000	3.639208
1312.000000	3.653495
1313.000000	3.652512
1314.000000	3.651439
1315.000000	3.643318
1316.000000	3.640006
1317.000000	3.641843
1318.000000	3.628000
1319.000000	3.643448
1320.000000	3.660527
1321.000000	3.666854
1322.000000	3.652949
1323.000000	3.659073
1324.000000	3.667146
1325.000000	3.682608
1326.000000	3.693477
1327.000000	3.697206
1328.000000	3.702848
1329.000000	3.709204
1330.000000	3.721718
1331.000000	3.722885
1332.000000	3.755138
1333.000000	3.767618
1334.000000	3.790909
1335.000000	3.797639
1336.000000	3.803331
1337.000000	3.829272
1338.000000	3.840687
1339.000000	3.843434
1340.000000	3.875768
1341.000000	3.886792
1342.000000	3.894633
1343.000000	3.930406
1344.000000	3.936660
1345.000000	3.994053
1346.000000	3.996728
1347.000000	4.035190
1348.000000	4.069947
1349.000000	4.106583
1350.000000	4.129649
1351.000000	4.180838
1352.000000	4.222938
1353.000000	4.232295
1354.000000	4.258361
1355.000000	4.265052
1356.000000	4.222099
1357.000000	4.166170
1358.000000	4.120491
1359.000000	4.084006
1360.000000	4.037508
1361.000000	4.038369
1362.000000	4.036569
1363.000000	4.096622
1364.000000	4.094855
1365.000000	4.093875
1366.000000	4.113926
1367.000000	4.116786
1368.000000	4.133197
1369.000000	4.163218
1370.000000	4.172962
1371.000000	4.164615
1372.000000	4.166901
1373.000000	4.166865
1374.000000	4.155792
1375.000000	4.136249
1376.000000	4.095022
1377.000000	4.073205
1378.000000	4.038948
1379.000000	4.036733
1380.000000	4.009331
1381.000000	4.028818
1382.000000	4.041955
1383.000000	4.052510
1384.000000	4.061398
1385.000000	4.055272
1386.000000	4.048030
1387.000000	4.022672
1388.000000	3.967206
1389.000000	3.957339
1390.000000	3.931607
1391.000000	3.924017
1392.000000	3.900183
1393.000000	3.883744
1394.000000	3.870020
1395.000000	3.820310
1396.000000	3.805049
1397.000000	3.795876
1398.000000	3.808558
1399.000000	3.825216
1400.000000	3.800915
1401.000000	3.786232
1402.000000	3.799212
1403.000000	3.772082
1404.000000	3.725272
1405.000000	3.705730
1406.000000	3.703471
1407.000000	3.652919
1408.000000	3.636294
1409.000000	3.589850
1410.000000	3.563053
1411.000000	3.514213
1412.000000	3.481386
1413.000000	3.460573
1414.000000	3.423091
1415.000000	3.424285
1416.000000	3.396694
1417.000000	3.368268
1418.000000	3.336546
1419.000000	3.311675
1420.000000	3.301681
1421.000000	3.278673
1422.000000	3.245574
1423.000000	3.201295
1424.000000	3.178184
1425.000000	3.173845
1426.000000	3.145627
1427.000000	3.112530
1428.000000	3.103422
1429.000000	3.071583
1430.000000	3.039481
1431.000000	3.018863
1432.000000	2.992289
1433.000000	2.977443
1434.000000	2.942578
1435.000000	2.932573
1436.000000	2.912878
1437.000000	2.897452
1438.000000	2.891520
1439.000000	2.869216
1440.000000	2.859498
1441.000000	2.851514
1442.000000	2.808299
1443.000000	2.794085
1444.000000	2.765904
1445.000000	2.750966
1446.000000	2.740623
1447.000000	2.721442
1448.000000	2.700872
1449.000000	2.674313
1450.000000	2.666039
1451.000000	2.644129
1452.000000	2.639965
1453.000000	2.611963
1454.000000	2.591657
1455.000000	2.581897
1456.000000	2.564166
1457.000000	2.544292
1458.000000	2.525669
1459.000000	2.522722
1460.000000	2.496324
1461.000000	2.480557
1462.000000	2.460761
1463.000000	2.448829
1464.000000	2.438666
1465.000000	2.424602
1466.000000	2.418374
1467.000000	2.413875
1468.000000	2.413125
1469.000000	2.389034
1470.000000	2.385191
1471.000000	2.366853
1472.000000	2.360334
1473.000000	2.363421
1474.000000	2.357368
1475.000000	2.367704
1476.000000	2.366733
1477.000000	2.348101
1478.000000	2.344607
1479.000000	2.350171
1480.000000	2.342801
1481.000000	2.325816
1482.000000	2.324087
1483.000000	2.331342
1484.000000	2.325605
1485.000000	2.324284
1486.000000	2.322165
1487.000000	2.319529
1488.000000	2.312761
1489.000000	2.307774
1490.000000	2.322129
1491.000000	2.336084
1492.000000	2.347002
1493.000000	2.353340
1494.000000	2.341832
1495.000000	2.364734
1496.000000	2.357530
1497.000000	2.350423
1498.000000	2.363150
1499.000000	2.352984
1500.000000	2.360583
1501.000000	2.390173
1502.000000	2.394701
1503.000000	2.395867
1504.000000	2.395758
1505.000000	2.398271
1506.000000	2.415508
1507.000000	2.417876
1508.000000	2.425559
1509.000000	2.432134
1510.000000	2.462597
1511.000000	2.477133
1512.000000	2.478969
1513.000000	2.466497
1514.000000	2.481216
1515.000000	2.496580
1516.000000	2.534116
1517.000000	2.547028
1518.000000	2.551267
1519.000000	2.553789
1520.000000	2.562840
1521.000000	2.548168
1522.000000	2.546877
1523.000000	2.543806
1524.000000	2.532251
1525.000000	2.528501
1526.000000	2.549913
1527.000000	2.556239
1528.000000	2.555390
1529.000000	2.546584
1530.000000	2.544812
1531.000000	2.547347
1532.000000	2.548265
1533.000000	2.569508
1534.000000	2.558311
1535.000000	2.542144
1536.000000	2.546722
1537.000000	2.552617
1538.000000	2.564570
1539.000000	2.552772
1540.000000	2.544829
1541.000000	2.544161
1542.000000	2.538322
1543.000000	2.524761
1544.000000	2.523259
1545.000000	2.525074
1546.000000	2.514224
1547.000000	2.516759
1548.000000	2.533003
1549.000000	2.521814
1550.000000	2.518179
1551.000000	2.513407
1552.000000	2.509617
1553.000000	2.516446
1554.000000	2.521704
1555.000000	2.527490
1556.000000	2.507225
1557.000000	2.510915
1558.000000	2.530199
1559.000000	2.546838
1560.000000	2.540911
1561.000000	2.529311
1562.000000	2.537325
1563.000000	2.528252
1564.000000	2.530664
1565.000000	2.548598
1566.000000	2.537126
1567.000000	2.536283
1568.000000	2.556330
1569.000000	2.523265
1570.000000	2.527318
1571.000000	2.542486
1572.000000	2.543059
1573.000000	2.528719
1574.000000	2.522879
1575.000000	2.537345
1576.000000	2.532080
1577.000000	2.537793
1578.000000	2.523996
1579.000000	2.540983
1580.000000	2.527936
1581.000000	2.534293
1582.000000	2.549464
1583.000000	2.544992
1584.000000	2.558688
1585.000000	2.559729
1586.000000	2.563832
1587.000000	2.568687
1588.000000	2.572515
1589.000000	2.573428
1590.000000	2.578317
1591.000000	2.603386
1592.000000	2.610282
1593.000000	2.608299
1594.000000	2.631513
1595.000000	2.636495
1596.000000	2.651233
1597.000000	2.674292
1598.000000	2.669346
1599.000000	2.673358
1600.000000	2.690818
1601.000000	2.697168
1602.000000	2.709973
1603.000000	2.692877
1604.000000	2.714894
1605.000000	2.754101
1606.000000	2.760299
1607.000000	2.756557
1608.000000	2.768598
1609.000000	2.844085
1610.000000	2.861109
1611.000000	2.884643
1612.000000	2.890459
1613.000000	2.887740
1614.000000	2.911962
1615.000000	2.908089
1616.000000	2.909633
1617.000000	2.900653
1618.000000	2.920308
1619.000000	2.935829
1620.000000	2.920938
1621.000000	2.938037
1622.000000	2.938372
1623.000000	2.945368
1624.000000	2.945044
1625.000000	2.961366
1626.000000	2.952265
1627.000000	2.981707
1628.000000	2.981138
1629.000000	2.980848
1630.000000	2.976699
1631.000000	2.986247
1632.000000	2.997787
1633.000000	3.016554
1634.000000	3.012160
1635.000000	3.013710
1636.000000	3.001652
1637.000000	3.005274
1638.000000	3.001346
1639.000000	3.009948
1640.000000	3.037911
1641.000000	3.029690
1642.000000	3.040732
1643.000000	3.054777
1644.000000	3.064102
1645.000000	3.038675
1646.000000	3.048142
1647.000000	3.058654
1648.000000	3.066637
1649.000000	3.067101
1650.000000	3.073586
1651.000000	3.051369
1652.000000	3.080054
1653.000000	3.074918
1654.000000	3.066286
1655.000000	3.069718
1656.000000	3.056512
1657.000000	3.042299
1658.000000	3.049736
1659.000000	3.054792
1660.000000	3.049303
1661.000000	3.049401
1662.000000	3.029257
1663.000000	3.024075
1664.000000	3.026779
1665.000000	3.008174
1666.000000	3.012031
1667.000000	2.991912
1668.000000	2.982192
1669.000000	2.983905
1670.000000	2.964769
1671.000000	2.954294
1672.000000	2.933632
1673.000000	2.913529
1674.000000	2.888218
1675.000000	2.864019
1676.000000	2.795319
1677.000000	2.777427
1678.000000	2.722782
1679.000000	2.673926
1680.000000	2.623901
1681.000000	2.528353
1682.000000	2.456485
1683.000000	2.362931
1684.000000	2.283633
1685.000000	2.223252
1686.000000	2.196275
1687.000000	2.194077
1688.000000	2.219291
1689.000000	2.254598
1690.000000	2.240395
1691.000000	2.246417
1692.000000	2.259989
1693.000000	2.251553
1694.000000	2.223945
1695.000000	2.230407
1696.000000	2.235909
1697.000000	2.225726
1698.000000	2.277989
1699.000000	2.311126
1700.000000	2.328618
1701.000000	2.397719
1702.000000	2.439904
1703.000000	2.463201
1704.000000	2.512328
1705.000000	2.531045
1706.000000	2.567790
1707.000000	2.589034
1708.000000	2.606951
1709.000000	2.622554
1710.000000	2.631220
1711.000000	2.656135
1712.000000	2.659841
1713.000000	2.679493
1714.000000	2.697216
1715.000000	2.654270
1716.000000	2.649375
1717.000000	2.665358
1718.000000	2.659872
1719.000000	2.628774
1720.000000	2.637626
1721.000000	2.651901
1722.000000	2.684229
1723.000000	2.691406
1724.000000	2.689580
1725.000000	2.676223
1726.000000	2.692607
1727.000000	2.703042
1728.000000	2.699083
1729.000000	2.690612
1730.000000	2.683402
1731.000000	2.663992
1732.000000	2.625898
1733.000000	2.597408
1734.000000	2.587700
1735.000000	2.534412
1736.000000	2.509065
1737.000000	2.488368
1738.000000	2.476659
1739.000000	2.476604
1740.000000	2.501253
1741.000000	2.538058
1742.000000	2.578206
1743.000000	2.605910
1744.000000	2.625154
1745.000000	2.642206
1746.000000	2.659623
1747.000000	2.670547
1748.000000	2.697690
1749.000000	2.722146
1750.000000	2.738695
1751.000000	2.747815
1752.000000	2.773458
1753.000000	2.812045
1754.000000	2.779634
1755.000000	2.782882
1756.000000	2.781894
1757.000000	2.815036
1758.000000	2.816958
1759.000000	2.788258
1760.000000	2.794048
1761.000000	2.783535
1762.000000	2.754844
1763.000000	2.763320
1764.000000	2.772345
1765.000000	2.727423
1766.000000	2.727865
1767.000000	2.759520
1768.000000	2.726735
1769.000000	2.690605
1770.000000	2.677965
1771.000000	2.675490
1772.000000	2.670298
1773.000000	2.707466
1774.000000	2.714424
1775.000000	2.722913
1776.000000	2.746599
1777.000000	2.755896
1778.000000	2.800517
1779.000000	2.789693
1780.000000	2.787585
1781.000000	2.806280
1782.000000	2.815478
1783.000000	2.831190
1784.000000	2.837191
1785.000000	2.823695
1786.000000	2.843096
1787.000000	2.842791
1788.000000	2.866917
1789.000000	2.861807
1790.000000	2.888106
1791.000000	2.890566
1792.000000	2.906813
1793.000000	2.926502
1794.000000	2.935762
1795.000000	2.914080
1796.000000	2.925843
1797.000000	2.939924
1798.000000	2.977199
1799.000000	2.987499
1800.000000	2.975766
1801.000000	2.939297
1802.000000	2.957898
1803.000000	2.970832
1804.000000	2.995403
1805.000000	3.015039
1806.000000	2.997744
1807.000000	3.013663
1808.000000	3.027940
1809.000000	3.021557
1810.000000	3.007745
1811.000000	3.014828
1812.000000	3.042849
1813.000000	3.063584
1814.000000	3.082505
1815.000000	3.069286
1816.000000	3.055191
1817.000000	3.054681
1818.000000	3.071971
1819.000000	3.104988
1820.000000	3.040142
1821.000000	3.046769
1822.000000	3.089517
1823.000000	3.104555
1824.000000	3.105858
1825.000000	3.084694
1826.000000	3.086966
1827.000000	3.092098
1828.000000	3.095769
1829.000000	3.087616
1830.000000	3.096016
1831.000000	3.082196
1832.000000	3.065168
1833.000000	3.133275
1834.000000	3.142083
1835.000000	3.157217
1836.000000	3.121941
1837.000000	3.091451
1838.000000	3.199736
1839.000000	3.192925
1840.000000	3.135564
1841.000000	3.138540
1842.000000	3.149861
1843.000000	3.176739
1844.000000	3.209565
1845.000000	3.209900
1846.000000	3.190305
1847.000000	3.080052
1848.000000	3.071848
1849.000000	3.166271
1850.000000	3.185621
1851.000000	3.206046
1852.000000	3.232509
1853.000000	3.175510
1854.000000	3.144081
1855.000000	3.213922
1856.000000	3.161368
1857.000000	3.179479
1858.000000	3.222878
1859.000000	3.135714
1860.000000	3.072877
1861.000000	3.160107
1862.000000	3.184059
1863.000000	3.120746
1864.000000	3.116347
1865.000000	3.146703
1866.000000	3.137287
1867.000000	3.036430
1868.000000	3.022604
1869.000000	3.057849
1870.000000	2.997153
1871.000000	3.024356
1872.000000	3.027521
1873.000000	2.917787
1874.000000	2.936338
1875.000000	2.969388
1876.000000	2.904560
1877.000000	2.773423
1878.000000	2.928601
1879.000000	2.889124
1880.000000	2.789036
1881.000000	2.754815
1882.000000	2.818035
1883.000000	2.719260
1884.000000	2.628921
1885.000000	2.594799
1886.000000	2.545820
1887.000000	2.472498
1888.000000	2.439373
1889.000000	2.357968
1890.000000	2.298949
1891.000000	2.276117
1892.000000	2.230764
1893.000000	2.168086
1894.000000	2.158383
1895.000000	2.164584
1896.000000	2.062717
1897.000000	1.998438
1898.000000	1.932383
1899.000000	1.800535
1900.000000	1.823577
1901.000000	1.798634
1902.000000	1.710224
1903.000000	1.699261
1904.000000	1.716472
1905.000000	1.572296
1906.000000	1.530078
1907.000000	1.467341
1908.000000	1.503911
1909.000000	1.419102
1910.000000	1.347170
1911.000000	1.289233
1912.000000	1.311280
1913.000000	1.260453
1914.000000	1.159410
1915.000000	1.121065
1916.000000	1.088444
1917.000000	1.142764
1918.000000	1.141789
1919.000000	1.069373
1920.000000	0.891838
1921.000000	0.899963
1922.000000	0.978844
1923.000000	0.951417
1924.000000	0.908166
1925.000000	0.956174
1926.000000	0.866649
1927.000000	0.850393
1928.000000	0.798083
1929.000000	0.810320
1930.000000	0.801260
1931.000000	0.786423
1932.000000	0.775937
1933.000000	0.791331
1934.000000	0.775093
1935.000000	0.804486
1936.000000	0.794441
1937.000000	0.813079
1938.000000	0.750391
1939.000000	0.732635
1940.000000	0.779480
1941.000000	0.773798
1942.000000	0.756739
1943.000000	0.790130
1944.000000	0.763099
1945.000000	0.748677
1946.000000	0.786699
1947.000000	0.804381
1948.000000	0.771025
1949.000000	0.820581
1950.000000	0.806634
1951.000000	0.801916
1952.000000	0.825976
1953.000000	0.861096
1954.000000	0.863676
1955.000000	0.922033
1956.000000	0.929829
1957.000000	0.970796
1958.000000	0.955733
1959.000000	0.966613
1960.000000	0.959688
1961.000000	0.965140
1962.000000	0.978928
1963.000000	1.009078
1964.000000	1.045982
1965.000000	1.055502
1966.000000	1.044746
1967.000000	1.042200
1968.000000	1.067811
1969.000000	1.093626
1970.000000	1.115221
1971.000000	1.108531
1972.000000	1.080038
1973.000000	1.091957
1974.000000	1.109606
1975.000000	1.152807
1976.000000	1.177074
1977.000000	1.150306
1978.000000	1.203777
1979.000000	1.198825
1980.000000	1.185259
1981.000000	1.194724
1982.000000	1.209666
1983.000000	1.218843
1984.000000	1.220303
1985.000000	1.257999
1986.000000	1.294968
1987.000000	1.262245
1988.000000	1.275026
1989.000000	1.326492
1990.000000	1.308053
1991.000000	1.312189
1992.000000	1.353184
1993.000000	1.340949
1994.000000	1.404863
1995.000000	1.411623
1996.000000	1.371968
1997.000000	1.359388
1998.000000	1.374871
1999.000000	1.370262
2000.000000	1.407780
2001.000000	1.417127
2002.000000	1.388673
2003.000000	1.420964
2004.000000	1.423538
2005.000000	1.443403
2006.000000	1.438360
2007.000000	1.424565
2008.000000	1.417355
2009.000000	1.424539
2010.000000	1.429795
2011.000000	1.406405
2012.000000	1.373279
2013.000000	1.421415
2014.000000	1.438446
2015.000000	1.402649
2016.000000	1.392134
2017.000000	1.382365
2018.000000	1.377914
2019.000000	1.359325
2020.000000	1.323594
2021.000000	1.306735
2022.000000	1.285710
2023.000000	1.282498
2024.000000	1.307113
2025.000000	1.233756
2026.000000	1.209307
2027.000000	1.227859
2028.000000	1.183343
2029.000000	1.148423
2030.000000	1.136980
2031.000000	1.205193
2032.000000	1.171163
2033.000000	1.112523
2034.000000	1.100172
2035.000000	1.095355
2036.000000	1.008582
2037.000000	1.032961
2038.000000	0.992306
2039.000000	1.011989
2040.000000	0.973690
2041.000000	0.946725
2042.000000	0.961026
2043.000000	0.880218
2044.000000	0.826474
2045.000000	0.852201
2046.000000	0.879850
2047.000000	0.812470
2048.000000	0.709991
2049.000000	0.668137
2050.000000	0.673607
2051.000000	0.698879
2052.000000	0.664580
2053.000000	0.611043
2054.000000	0.556103
2055.000000	0.468221
2056.000000	0.462298
2057.000000	0.461860
2058.000000	0.522121
2059.000000	0.415296
2060.000000	0.404792
2061.000000	0.409936
2062.000000	0.442351
2063.000000	0.352799
2064.000000	0.306053
2065.000000	0.450449
2066.000000	0.363474
2067.000000	0.346353
2068.000000	0.395749
2069.000000	0.334676
2070.000000	0.436367
2071.000000	0.562848
2072.000000	0.519500
2073.000000	0.387463
2074.000000	0.373934
2075.000000	0.566346
2076.000000	0.546674
2077.000000	0.490856
2078.000000	0.438211
2079.000000	0.547520
2080.000000	0.483108
2081.000000	0.351990
2082.000000	0.499990
2083.000000	0.556349
2084.000000	0.454156
2085.000000	0.457508
2086.000000	0.596634
2087.000000	0.656662
2088.000000	0.435009
2089.000000	0.549330
2090.000000	0.508965
2091.000000	0.520364
2092.000000	0.413661
2093.000000	0.530341
2094.000000	0.486483
2095.000000	0.590923
2096.000000	0.573707
2097.000000	0.544632
2098.000000	0.607507
2099.000000	0.483640
2100.000000	0.478097
2101.000000	0.685390
2102.000000	0.781106
2103.000000	0.732057
2104.000000	0.648998
2105.000000	0.550270
2106.000000	0.681145
2107.000000	0.730085
2108.000000	0.687263
2109.000000	0.638925
2110.000000	0.768440
2111.000000	0.432235
2112.000000	0.742382
2113.000000	0.623038
2114.000000	0.713117
2115.000000	0.578018
2116.000000	0.407623
2117.000000	0.631778
2118.000000	0.737973
2119.000000	0.789812
2120.000000	0.684463
2121.000000	0.777724
2122.000000	0.461213
2123.000000	0.437917
2124.000000	0.831975
2125.000000	0.977111
2126.000000	0.751120
2127.000000	0.608210
2128.000000	0.451410
2129.000000	0.815176
2130.000000	0.967045
2131.000000	0.489857
2132.000000	0.700444
2133.000000	0.753639
2134.000000	0.758627
2135.000000	0.627629
2136.000000	0.745247
2137.000000	0.699949
2138.000000	0.645878
2139.000000	0.559795
2140.000000	0.734908
2141.000000	0.673227
2142.000000	0.775721
2143.000000	1.040956
2144.000000	0.748354
2145.000000	0.686805
2146.000000	0.666791
2147.000000	0.473582
2148.000000	0.610925
2149.000000	0.450340
2150.000000	0.616819
2151.000000	0.676083
2152.000000	0.474792
2153.000000	0.644735
2154.000000	0.436369
2155.000000	0.827345
2156.000000	0.664676
2157.000000	0.747272
2158.000000	0.543337
2159.000000	0.475332
2160.000000	0.610214
2161.000000	0.725523
2162.000000	0.720284
2163.000000	0.658756
2164.000000	0.660203
2165.000000	0.637925
2166.000000	0.771149
2167.000000	0.533724
2168.000000	0.729934
2169.000000	0.691527
2170.000000	0.801768
2171.000000	0.805562
2172.000000	0.717127
2173.000000	0.658652
2174.000000	0.505234
2175.000000	0.651748
2176.000000	0.717840
2177.000000	0.665583
2178.000000	0.534584
2179.000000	0.557929
2180.000000	0.813956
2181.000000	0.594685
2182.000000	0.449234
2183.000000	0.467779
2184.000000	0.726836
2185.000000	0.507816
2186.000000	0.653621
2187.000000	0.785209
2188.000000	0.600480
2189.000000	0.573154
2190.000000	0.612075
2191.000000	0.732704
2192.000000	0.595556
2193.000000	0.874180
2194.000000	0.895090
2195.000000	0.589676
2196.000000	0.517733
2197.000000	0.660043
2198.000000	0.747522
2199.000000	0.866646
2200.000000	0.651223
2201.000000	0.607316
2202.000000	0.698639
2203.000000	0.646051
2204.000000	0.690273
2205.000000	0.652640
2206.000000	0.815134
2207.000000	0.736018
2208.000000	0.725906
2209.000000	0.816040
2210.000000	0.814162
2211.000000	0.755034
2212.000000	0.663655
2213.000000	0.732502
2214.000000	0.725855
2215.000000	0.666496
2216.000000	0.782250
2217.000000	0.854980
2218.000000	0.825573
2219.000000	0.654139
2220.000000	0.625025
2221.000000	0.729524
2222.000000	0.847461
2223.000000	0.760096
2224.000000	0.755149
2225.000000	0.804628
2226.000000	0.741760
2227.000000	0.801704
2228.000000	0.818465
2229.000000	0.647447
2230.000000	0.727029
2231.000000	0.767434
2232.000000	0.798470
2233.000000	0.789511
2234.000000	0.815713
2235.000000	0.760483
2236.000000	0.841597
2237.000000	0.679729
2238.000000	0.715660
2239.000000	0.750680
2240.000000	0.699177
2241.000000	0.587014
2242.000000	0.540316
2243.000000	0.592120
2244.000000	0.519176
2245.000000	0.620760
2246.000000	0.456298
2247.000000	0.504767
2248.000000	0.439771
2249.000000	0.126951
2250.000000	0.062313
2251.000000	0.180459
2252.000000	0.244732
2253.000000	0.201459
2254.000000	0.255930
2255.000000	0.438864
2256.000000	0.215511
2257.000000	0.256890
2258.000000	0.243399
2259.000000	0.350311
2260.000000	0.496125
2261.000000	0.448271
2262.000000	0.463600
2263.000000	0.637566
2264.000000	0.552105
2265.000000	0.533356
2266.000000	0.633330
2267.000000	0.655824
2268.000000	0.685557
2269.000000	0.632801
2270.000000	0.563124
2271.000000	0.518737
2272.000000	0.470738
2273.000000	0.549038
2274.000000	0.646770
2275.000000	0.526633
2276.000000	0.536730
2277.000000	0.681473
2278.000000	0.761286
2279.000000	0.659316
2280.000000	0.547262
2281.000000	0.555408
2282.000000	0.638002
2283.000000	0.704677
2284.000000	0.526619
2285.000000	0.537910
2286.000000	0.596827
2287.000000	0.669294
2288.000000	0.726975
2289.000000	0.683582
2290.000000	0.536500
2291.000000	0.628121
2292.000000	0.759272
2293.000000	0.711624
2294.000000	0.641305
2295.000000	0.635707
2296.000000	0.624845
2297.000000	0.626568
2298.000000	0.499403
2299.000000	0.647336
2300.000000	0.731403
2301.000000	0.482860
2302.000000	0.585021
2303.000000	0.647533
2304.000000	0.726531
2305.000000	0.756295
2306.000000	0.632231
2307.000000	0.830770
2308.000000	0.533351
2309.000000	0.648863
2310.000000	0.814585
2311.000000	0.615182
2312.000000	0.645220
2313.000000	0.890506
2314.000000	0.864391
2315.000000	0.685139
2316.000000	0.702285
2317.000000	0.883950
2318.000000	0.657467
2319.000000	0.797438
2320.000000	0.882513
2321.000000	0.873478
2322.000000	0.597454
2323.000000	0.655039
2324.000000	0.779159
2325.000000	0.881434
2326.000000	0.721448
2327.000000	0.859696
2328.000000	1.054807
2329.000000	0.711631
2330.000000	0.694724
2331.000000	0.817041
2332.000000	0.776913
2333.000000	0.566198
2334.000000	0.737173
2335.000000	0.608825
2336.000000	0.801632
2337.000000	0.675154
2338.000000	0.561340
2339.000000	0.913275
2340.000000	0.811448
2341.000000	0.642105
2342.000000	0.775359
2343.000000	0.780513
2344.000000	1.080338
2345.000000	0.645421
2346.000000	0.777813
2347.000000	0.970494
2348.000000	0.581988
2349.000000	0.512702
2350.000000	1.021797
2351.000000	0.545682
2352.000000	0.948635
2353.000000	0.879258
2354.000000	0.810918
2355.000000	0.706291
2356.000000	1.014764
2357.000000	0.913362
2358.000000	0.909381
2359.000000	1.121858
2360.000000	0.929678
2361.000000	0.906781
2362.000000	0.930056
2363.000000	0.947045
2364.000000	0.833458
2365.000000	0.702177
2366.000000	0.974251
2367.000000	0.511156
2368.000000	0.746714
2369.000000	0.857394
2370.000000	1.202304
2371.000000	1.253911
2372.000000	0.798239
2373.000000	1.028658
2374.000000	1.012873
2375.000000	0.652907
2376.000000	0.850084
2377.000000	1.010504
2378.000000	0.788226
2379.000000	1.006349
2380.000000	0.896482
2381.000000	1.428059
2382.000000	1.745097
2383.000000	1.430284
2384.000000	0.887513
2385.000000	1.360263
2386.000000	0.850358
2387.000000	1.759310
2388.000000	1.397936
2389.000000	0.762196
2390.000000	1.168146
2391.000000	0.932083
2392.000000	1.085129
2393.000000	1.114883
2394.000000	1.114958
2395.000000	1.134843
2396.000000	0.963053
2397.000000	0.826019
2398.000000	1.505912
2399.000000	0.777770
2400.000000	0.957309
2401.000000	nan
2402.000000	nan
2403.000000	nan
2404.000000	nan
2405.000000	nan
2406.000000	nan
2407.000000	nan
2408.000000	nan
2409.000000	nan
2410.000000	nan
2411.000000	nan
2412.000000	nan
2413.000000	nan
2414.000000	nan
2415.000000	nan
2416.000000	nan
2417.000000	nan
2418.000000	nan
2419.000000	nan
2420.000000	nan
2421.000000	nan
2422.000000	nan
2423.000000	nan
2424.000000	nan
2425.000000	nan
2426.000000	nan
2427.000000	nan
2428.000000	nan
2429.000000	nan
2430.000000	nan
2431.000000	nan
2432.000000	nan
2433.000000	nan
2434.000000	nan
2435.000000	nan
2436.000000	nan
2437.000000	nan
2438.000000	nan
2439.000000	nan
2440.000000	nan
2441.000000	nan
2442.000000	nan
2443.000000	nan
2444.000000	nan
2445.000000	nan
2446.000000	nan
2447.000000	nan
2448.000000	nan
2449.000000	nan
2450.000000	nan
2451.000000	nan
2452.000000	nan
2453.000000	nan
2454.000000	nan
2455.000000	nan
2456.000000	nan
2457.000000	nan
2458.000000	nan
2459.000000	nan
2460.000000	nan
2461.000000	nan
2462.000000	nan
2463.000000	nan
2464.000000	nan
2465.000000	nan
2466.000000	nan
2467.000000	nan
2468.000000	nan
2469.000000	nan
2470.000000	nan
2471.000000	nan
2472.000000	nan
2473.000000	nan
2474.000000	nan
2475.000000	nan
2476.000000	nan
2477.000000	nan
2478.000000	nan
2479.000000	nan
2480.000000	nan
2481.000000	nan
2482.000000	nan
2483.000000	nan
2484.000000	nan
2485.000000	nan
2486.000000	nan
2487.000000	nan
2488.000000	nan
2489.000000	nan
2490.000000	nan
2491.000000	nan
2492.000000	nan
2493.000000	nan
2494.000000	nan
2495.000000	nan
2496.000000	nan
2497.000000	nan
2498.000000	nan
2499.000000	nan
2500.000000	nan
