PE UV       SUBTECH     SPECTRUM    ASCII       PEDS        4.00        
   -1
CICIMAUCR0141-3.Sample.ASC
24/04/22
09:38:58.00
24/04/22
09:38:58.00
Vinicio Soto Monge
C. kalinini
250,000000
1
Lambda 1050
1050L1511233
PerkinElmer UV WinLab 6.3.2.0749 / 2.02.05 Lambda 900 UV/VIS/NIR, Aug  7 2015 09:38:08

0
0
3350/servo 860,8/2
0
0
UV/VIS
1
1
1
DoubleDePol,CommonBeamDepol,RBeamAtt,SBeamAtt,60mm sphere, WB InGaAs Detector
0
0
0
0
Program
Program
3350/servo 860,8/2
3350/0,2 860,8/0,2
3350/0,2 860,8/0,2
0
15.00
 
 
 
0
 
860,8
319,2
860,8
Front
100
on
S:100 R:100
0
0
0
0
 
0
 
 
 
0
 
 
0
0
0
0
0
 
 
 
 
0
0


0
0
#HDR
-1
-1
#GR
nm
%R
1.0
0.0
2500,000000
-1,000000
2251
8
96,279600
5,742600
#DATA
250.000000	0.201809
251.000000	0.197989
252.000000	0.248994
253.000000	0.230627
254.000000	0.224857
255.000000	0.209076
256.000000	0.229165
257.000000	0.232223
258.000000	0.205642
259.000000	0.248710
260.000000	0.260211
261.000000	0.234844
262.000000	0.271687
263.000000	0.235250
264.000000	0.230138
265.000000	0.231000
266.000000	0.238445
267.000000	0.242184
268.000000	0.214760
269.000000	0.231600
270.000000	0.233809
271.000000	0.196750
272.000000	0.221696
273.000000	0.200872
274.000000	0.215614
275.000000	0.243228
276.000000	0.237188
277.000000	0.212073
278.000000	0.212502
279.000000	0.226845
280.000000	0.260305
281.000000	0.204917
282.000000	0.222008
283.000000	0.234822
284.000000	0.229545
285.000000	0.209582
286.000000	0.233937
287.000000	0.235787
288.000000	0.208798
289.000000	0.190009
290.000000	0.209415
291.000000	0.223414
292.000000	0.198500
293.000000	0.230904
294.000000	0.218456
295.000000	0.235120
296.000000	0.225862
297.000000	0.210267
298.000000	0.216460
299.000000	0.236847
300.000000	0.212733
301.000000	0.189845
302.000000	0.236147
303.000000	0.230277
304.000000	0.203938
305.000000	0.206317
306.000000	0.218676
307.000000	0.277629
308.000000	0.248408
309.000000	0.232313
310.000000	0.224106
311.000000	0.220382
312.000000	0.248782
313.000000	0.232188
314.000000	0.256932
315.000000	0.217060
316.000000	0.277930
317.000000	0.498008
318.000000	0.390754
319.000000	0.566108
320.000000	0.600083
321.000000	0.511665
322.000000	0.583057
323.000000	0.399150
324.000000	0.495980
325.000000	0.551878
326.000000	0.340984
327.000000	0.384875
328.000000	0.334033
329.000000	0.376956
330.000000	0.401374
331.000000	0.445639
332.000000	0.329906
333.000000	0.366984
334.000000	0.378044
335.000000	0.260399
336.000000	0.324293
337.000000	0.330676
338.000000	0.253790
339.000000	0.263431
340.000000	0.307393
341.000000	0.340905
342.000000	0.315964
343.000000	0.310523
344.000000	0.356809
345.000000	0.261385
346.000000	0.282967
347.000000	0.280264
348.000000	0.309061
349.000000	0.319826
350.000000	0.320812
351.000000	0.298065
352.000000	0.263612
353.000000	0.287855
354.000000	0.296413
355.000000	0.267380
356.000000	0.256136
357.000000	0.259025
358.000000	0.266557
359.000000	0.265378
360.000000	0.275728
361.000000	0.318586
362.000000	0.277351
363.000000	0.245320
364.000000	0.272750
365.000000	0.236908
366.000000	0.217308
367.000000	0.252744
368.000000	0.243774
369.000000	0.211387
370.000000	0.117984
371.000000	0.124628
372.000000	0.170113
373.000000	0.127029
374.000000	0.192306
375.000000	0.205185
376.000000	0.302356
377.000000	0.276846
378.000000	0.259298
379.000000	0.256162
380.000000	0.264503
381.000000	0.269995
382.000000	0.266848
383.000000	0.253010
384.000000	0.254653
385.000000	0.266980
386.000000	0.269924
387.000000	0.268048
388.000000	0.250789
389.000000	0.247371
390.000000	0.237349
391.000000	0.229838
392.000000	0.222491
393.000000	0.220289
394.000000	0.223109
395.000000	0.217962
396.000000	0.215326
397.000000	0.195896
398.000000	0.188752
399.000000	0.182501
400.000000	0.180901
401.000000	0.165891
402.000000	0.148951
403.000000	0.142890
404.000000	0.128615
405.000000	0.111868
406.000000	0.107950
407.000000	0.105341
408.000000	0.099316
409.000000	0.088785
410.000000	0.089261
411.000000	0.085517
412.000000	0.082916
413.000000	0.095167
414.000000	0.096667
415.000000	0.091316
416.000000	0.089289
417.000000	0.087427
418.000000	0.093958
419.000000	0.096226
420.000000	0.082329
421.000000	0.077126
422.000000	0.077551
423.000000	0.076411
424.000000	0.076999
425.000000	0.081579
426.000000	0.097361
427.000000	0.115400
428.000000	0.137771
429.000000	0.180034
430.000000	0.207409
431.000000	0.233523
432.000000	0.265217
433.000000	0.310500
434.000000	0.348547
435.000000	0.379395
436.000000	0.425032
437.000000	0.471976
438.000000	0.504410
439.000000	0.532920
440.000000	0.563095
441.000000	0.597604
442.000000	0.641631
443.000000	0.683269
444.000000	0.725871
445.000000	0.757552
446.000000	0.777345
447.000000	0.800186
448.000000	0.829486
449.000000	0.859062
450.000000	0.888658
451.000000	0.915878
452.000000	0.935953
453.000000	0.968962
454.000000	0.996545
455.000000	1.014751
456.000000	1.037947
457.000000	1.060368
458.000000	1.086588
459.000000	1.109441
460.000000	1.136197
461.000000	1.151201
462.000000	1.170612
463.000000	1.211572
464.000000	1.237134
465.000000	1.259766
466.000000	1.290789
467.000000	1.320857
468.000000	1.340099
469.000000	1.354243
470.000000	1.376799
471.000000	1.397407
472.000000	1.423557
473.000000	1.441992
474.000000	1.449259
475.000000	1.460525
476.000000	1.470604
477.000000	1.470323
478.000000	1.465659
479.000000	1.451693
480.000000	1.432759
481.000000	1.416657
482.000000	1.382340
483.000000	1.340701
484.000000	1.298087
485.000000	1.227276
486.000000	1.155568
487.000000	1.097855
488.000000	1.030446
489.000000	0.952055
490.000000	0.872438
491.000000	0.784122
492.000000	0.707878
493.000000	0.630210
494.000000	0.553177
495.000000	0.478440
496.000000	0.422501
497.000000	0.357856
498.000000	0.298099
499.000000	0.258039
500.000000	0.241837
501.000000	0.234894
502.000000	0.234776
503.000000	0.237005
504.000000	0.267880
505.000000	0.282779
506.000000	0.298891
507.000000	0.322076
508.000000	0.342180
509.000000	0.370540
510.000000	0.384275
511.000000	0.398027
512.000000	0.422778
513.000000	0.427712
514.000000	0.444561
515.000000	0.465155
516.000000	0.477567
517.000000	0.494354
518.000000	0.501939
519.000000	0.500650
520.000000	0.496732
521.000000	0.500739
522.000000	0.525470
523.000000	0.525356
524.000000	0.538039
525.000000	0.547585
526.000000	0.562795
527.000000	0.582276
528.000000	0.591126
529.000000	0.606305
530.000000	0.630915
531.000000	0.654688
532.000000	0.678620
533.000000	0.707576
534.000000	0.732350
535.000000	0.750390
536.000000	0.783980
537.000000	0.827446
538.000000	0.875473
539.000000	0.924954
540.000000	0.960526
541.000000	1.024915
542.000000	1.089486
543.000000	1.151765
544.000000	1.227925
545.000000	1.296938
546.000000	1.370442
547.000000	1.452810
548.000000	1.500975
549.000000	1.584009
550.000000	1.651401
551.000000	1.723191
552.000000	1.788654
553.000000	1.864146
554.000000	1.937031
555.000000	1.999334
556.000000	2.076797
557.000000	2.129375
558.000000	2.175506
559.000000	2.254119
560.000000	2.316828
561.000000	2.376026
562.000000	2.411652
563.000000	2.478371
564.000000	2.547872
565.000000	2.573574
566.000000	2.623479
567.000000	2.669947
568.000000	2.729236
569.000000	2.763301
570.000000	2.826202
571.000000	2.852582
572.000000	2.917062
573.000000	2.935878
574.000000	3.021868
575.000000	3.082415
576.000000	3.132548
577.000000	3.182189
578.000000	3.232523
579.000000	3.296054
580.000000	3.359171
581.000000	3.410237
582.000000	3.445859
583.000000	3.528376
584.000000	3.597592
585.000000	3.643056
586.000000	3.679619
587.000000	3.743552
588.000000	3.784383
589.000000	3.819973
590.000000	3.846447
591.000000	3.852238
592.000000	3.856465
593.000000	3.838427
594.000000	3.865805
595.000000	3.843910
596.000000	3.857040
597.000000	3.806390
598.000000	3.762449
599.000000	3.725005
600.000000	3.707740
601.000000	3.666421
602.000000	3.618899
603.000000	3.562335
604.000000	3.511913
605.000000	3.456848
606.000000	3.430512
607.000000	3.386327
608.000000	3.310537
609.000000	3.293623
610.000000	3.249328
611.000000	3.241968
612.000000	3.191619
613.000000	3.169722
614.000000	3.161912
615.000000	3.086257
616.000000	3.056853
617.000000	3.018159
618.000000	2.978179
619.000000	2.925735
620.000000	2.913937
621.000000	2.859479
622.000000	2.791590
623.000000	2.717826
624.000000	2.673439
625.000000	2.599482
626.000000	2.588379
627.000000	2.522170
628.000000	2.455096
629.000000	2.449503
630.000000	2.464252
631.000000	2.412251
632.000000	2.447388
633.000000	2.452981
634.000000	2.481399
635.000000	2.495220
636.000000	2.501802
637.000000	2.547149
638.000000	2.550539
639.000000	2.537614
640.000000	2.533751
641.000000	2.524109
642.000000	2.464132
643.000000	2.410674
644.000000	2.325597
645.000000	2.237011
646.000000	2.134921
647.000000	2.053910
648.000000	1.940309
649.000000	1.894623
650.000000	1.844590
651.000000	1.819836
652.000000	1.841386
653.000000	1.834331
654.000000	1.858518
655.000000	1.873668
656.000000	1.862232
657.000000	1.821825
658.000000	1.780487
659.000000	1.781952
660.000000	1.716322
661.000000	1.620219
662.000000	1.557698
663.000000	1.461294
664.000000	1.339274
665.000000	1.259807
666.000000	1.158798
667.000000	1.079790
668.000000	1.018391
669.000000	0.981657
670.000000	0.926339
671.000000	0.885062
672.000000	0.910798
673.000000	0.963687
674.000000	1.016571
675.000000	1.086516
676.000000	1.132218
677.000000	1.218597
678.000000	1.312749
679.000000	1.381730
680.000000	1.466751
681.000000	1.577932
682.000000	1.670171
683.000000	1.741035
684.000000	1.794195
685.000000	1.852254
686.000000	1.887280
687.000000	1.914778
688.000000	1.965261
689.000000	1.981128
690.000000	1.991345
691.000000	2.050082
692.000000	2.069053
693.000000	2.123742
694.000000	2.192416
695.000000	2.259172
696.000000	2.311880
697.000000	2.361368
698.000000	2.398029
699.000000	2.415075
700.000000	2.453991
701.000000	2.484448
702.000000	2.471348
703.000000	2.435996
704.000000	2.413078
705.000000	2.396277
706.000000	2.363453
707.000000	2.313536
708.000000	2.266707
709.000000	2.216640
710.000000	2.176977
711.000000	2.094181
712.000000	2.067258
713.000000	2.059742
714.000000	2.027241
715.000000	2.039178
716.000000	2.032398
717.000000	2.006900
718.000000	2.035526
719.000000	2.061321
720.000000	2.072574
721.000000	2.089549
722.000000	2.145140
723.000000	2.188624
724.000000	2.225495
725.000000	2.282795
726.000000	2.328102
727.000000	2.342109
728.000000	2.346065
729.000000	2.424498
730.000000	2.468009
731.000000	2.503126
732.000000	2.542834
733.000000	2.582980
734.000000	2.641801
735.000000	2.646967
736.000000	2.685085
737.000000	2.722113
738.000000	2.749159
739.000000	2.823852
740.000000	2.887046
741.000000	2.943209
742.000000	2.987853
743.000000	3.039440
744.000000	3.103516
745.000000	3.138929
746.000000	3.154732
747.000000	3.189800
748.000000	3.170525
749.000000	3.194820
750.000000	3.205349
751.000000	3.168586
752.000000	3.205545
753.000000	3.204161
754.000000	3.182176
755.000000	3.216842
756.000000	3.241304
757.000000	3.256018
758.000000	3.311559
759.000000	3.333416
760.000000	3.326314
761.000000	3.330660
762.000000	3.310383
763.000000	3.305635
764.000000	3.378998
765.000000	3.395031
766.000000	3.467079
767.000000	3.573594
768.000000	3.563166
769.000000	3.489370
770.000000	3.455658
771.000000	3.501485
772.000000	3.570350
773.000000	3.579677
774.000000	3.609221
775.000000	3.617818
776.000000	3.619914
777.000000	3.638524
778.000000	3.718746
779.000000	3.743546
780.000000	3.699205
781.000000	3.761006
782.000000	3.734464
783.000000	3.677841
784.000000	3.740715
785.000000	3.800056
786.000000	3.790189
787.000000	3.765246
788.000000	3.684304
789.000000	3.633395
790.000000	3.717577
791.000000	3.724504
792.000000	3.817502
793.000000	3.776438
794.000000	3.810254
795.000000	3.718291
796.000000	3.681103
797.000000	3.723142
798.000000	3.815808
799.000000	3.742947
800.000000	3.676028
801.000000	3.713632
802.000000	3.737202
803.000000	3.759225
804.000000	3.856645
805.000000	3.851520
806.000000	3.765737
807.000000	3.774210
808.000000	3.828720
809.000000	3.804599
810.000000	3.889451
811.000000	3.973099
812.000000	3.881108
813.000000	3.983566
814.000000	3.982832
815.000000	4.078106
816.000000	4.103847
817.000000	4.131116
818.000000	4.097234
819.000000	4.041474
820.000000	4.269118
821.000000	4.310751
822.000000	4.259532
823.000000	4.393627
824.000000	4.440526
825.000000	4.421074
826.000000	4.375871
827.000000	4.448365
828.000000	4.555222
829.000000	4.494718
830.000000	4.442051
831.000000	4.479071
832.000000	4.526730
833.000000	4.546837
834.000000	4.406189
835.000000	4.360427
836.000000	4.393204
837.000000	4.367941
838.000000	4.292022
839.000000	4.275464
840.000000	4.193485
841.000000	4.023950
842.000000	4.075300
843.000000	3.836115
844.000000	3.996656
845.000000	4.083194
846.000000	3.981760
847.000000	3.614023
848.000000	3.982077
849.000000	4.060890
850.000000	3.903387
851.000000	3.721331
852.000000	3.824554
853.000000	3.614680
854.000000	3.755344
855.000000	3.543234
856.000000	3.566457
857.000000	3.463455
858.000000	3.214399
859.000000	3.666877
860.000000	3.478735
861.000000	3.298576
862.000000	3.144927
863.000000	3.022736
864.000000	2.905551
865.000000	2.806485
866.000000	2.689474
867.000000	2.585332
868.000000	2.476931
869.000000	2.368313
870.000000	2.245423
871.000000	2.158185
872.000000	2.039970
873.000000	1.964479
874.000000	1.886896
875.000000	1.779138
876.000000	1.712230
877.000000	1.616683
878.000000	1.544467
879.000000	1.497878
880.000000	1.450510
881.000000	1.371660
882.000000	1.325603
883.000000	1.276932
884.000000	1.179594
885.000000	1.125988
886.000000	1.075518
887.000000	1.039691
888.000000	1.006048
889.000000	0.968579
890.000000	0.925800
891.000000	0.850244
892.000000	0.785255
893.000000	0.746262
894.000000	0.713803
895.000000	0.685128
896.000000	0.643137
897.000000	0.619012
898.000000	0.587435
899.000000	0.564152
900.000000	0.544056
901.000000	0.479841
902.000000	0.452149
903.000000	0.440169
904.000000	0.445826
905.000000	0.443774
906.000000	0.421916
907.000000	0.422865
908.000000	0.389592
909.000000	0.412835
910.000000	0.408834
911.000000	0.436734
912.000000	0.468852
913.000000	0.484240
914.000000	0.491896
915.000000	0.515643
916.000000	0.544776
917.000000	0.590766
918.000000	0.610079
919.000000	0.658217
920.000000	0.694306
921.000000	0.745153
922.000000	0.739870
923.000000	0.766161
924.000000	0.805120
925.000000	0.835226
926.000000	0.869703
927.000000	0.883429
928.000000	0.910788
929.000000	0.949194
930.000000	0.968765
931.000000	0.983672
932.000000	0.988847
933.000000	0.994785
934.000000	1.005936
935.000000	1.028289
936.000000	1.044074
937.000000	1.062284
938.000000	1.082695
939.000000	1.076329
940.000000	1.079983
941.000000	1.103168
942.000000	1.082675
943.000000	1.086669
944.000000	1.091526
945.000000	1.071645
946.000000	1.073005
947.000000	1.076768
948.000000	1.069410
949.000000	1.066814
950.000000	1.065890
951.000000	1.063458
952.000000	1.055675
953.000000	1.077922
954.000000	1.071804
955.000000	1.048724
956.000000	1.040590
957.000000	1.039219
958.000000	1.025561
959.000000	1.039428
960.000000	1.023044
961.000000	1.020414
962.000000	1.012733
963.000000	1.004466
964.000000	1.007801
965.000000	1.003071
966.000000	0.996434
967.000000	0.987745
968.000000	0.981895
969.000000	1.002390
970.000000	0.992671
971.000000	0.983703
972.000000	1.008866
973.000000	1.018241
974.000000	1.015109
975.000000	1.014322
976.000000	1.022930
977.000000	1.036280
978.000000	1.040274
979.000000	1.032755
980.000000	1.036844
981.000000	1.051467
982.000000	1.061084
983.000000	1.058715
984.000000	1.063652
985.000000	1.075570
986.000000	1.087605
987.000000	1.094713
988.000000	1.097992
989.000000	1.109195
990.000000	1.115421
991.000000	1.113699
992.000000	1.129373
993.000000	1.158204
994.000000	1.164958
995.000000	1.170353
996.000000	1.178433
997.000000	1.179605
998.000000	1.196023
999.000000	1.202363
1000.000000	1.203775
1001.000000	1.222996
1002.000000	1.235579
1003.000000	1.233512
1004.000000	1.247984
1005.000000	1.263532
1006.000000	1.266733
1007.000000	1.276339
1008.000000	1.288043
1009.000000	1.301861
1010.000000	1.309300
1011.000000	1.309692
1012.000000	1.329613
1013.000000	1.343728
1014.000000	1.355128
1015.000000	1.376406
1016.000000	1.384112
1017.000000	1.395398
1018.000000	1.404273
1019.000000	1.414499
1020.000000	1.434465
1021.000000	1.448890
1022.000000	1.452529
1023.000000	1.468192
1024.000000	1.487004
1025.000000	1.502788
1026.000000	1.516789
1027.000000	1.534794
1028.000000	1.549797
1029.000000	1.554906
1030.000000	1.570724
1031.000000	1.592612
1032.000000	1.600876
1033.000000	1.611578
1034.000000	1.630717
1035.000000	1.641132
1036.000000	1.651028
1037.000000	1.665207
1038.000000	1.675097
1039.000000	1.683967
1040.000000	1.702805
1041.000000	1.725551
1042.000000	1.741757
1043.000000	1.755914
1044.000000	1.770996
1045.000000	1.789035
1046.000000	1.797568
1047.000000	1.814796
1048.000000	1.832231
1049.000000	1.852458
1050.000000	1.881525
1051.000000	1.889140
1052.000000	1.898953
1053.000000	1.921349
1054.000000	1.931961
1055.000000	1.954181
1056.000000	1.968343
1057.000000	1.983486
1058.000000	2.008294
1059.000000	2.021939
1060.000000	2.033228
1061.000000	2.051616
1062.000000	2.059465
1063.000000	2.066580
1064.000000	2.083108
1065.000000	2.096553
1066.000000	2.114952
1067.000000	2.130411
1068.000000	2.139027
1069.000000	2.143166
1070.000000	2.161576
1071.000000	2.183814
1072.000000	2.196700
1073.000000	2.199024
1074.000000	2.209305
1075.000000	2.230403
1076.000000	2.241231
1077.000000	2.248664
1078.000000	2.259742
1079.000000	2.266788
1080.000000	2.274273
1081.000000	2.279583
1082.000000	2.297952
1083.000000	2.301955
1084.000000	2.304666
1085.000000	2.315407
1086.000000	2.334267
1087.000000	2.334451
1088.000000	2.338235
1089.000000	2.355840
1090.000000	2.377330
1091.000000	2.392878
1092.000000	2.401240
1093.000000	2.411352
1094.000000	2.426993
1095.000000	2.454689
1096.000000	2.455190
1097.000000	2.473622
1098.000000	2.483849
1099.000000	2.496599
1100.000000	2.527029
1101.000000	2.527779
1102.000000	2.541980
1103.000000	2.561650
1104.000000	2.571040
1105.000000	2.591636
1106.000000	2.601181
1107.000000	2.613039
1108.000000	2.623308
1109.000000	2.634727
1110.000000	2.655494
1111.000000	2.667367
1112.000000	2.677327
1113.000000	2.690390
1114.000000	2.701172
1115.000000	2.710045
1116.000000	2.710832
1117.000000	2.721484
1118.000000	2.715322
1119.000000	2.734832
1120.000000	2.743183
1121.000000	2.746626
1122.000000	2.752340
1123.000000	2.759422
1124.000000	2.768694
1125.000000	2.770959
1126.000000	2.768542
1127.000000	2.753776
1128.000000	2.768667
1129.000000	2.772710
1130.000000	2.739881
1131.000000	2.738327
1132.000000	2.740292
1133.000000	2.731269
1134.000000	2.727808
1135.000000	2.707394
1136.000000	2.692401
1137.000000	2.688471
1138.000000	2.665446
1139.000000	2.647254
1140.000000	2.653016
1141.000000	2.648191
1142.000000	2.637008
1143.000000	2.632665
1144.000000	2.626586
1145.000000	2.625618
1146.000000	2.614806
1147.000000	2.609188
1148.000000	2.602101
1149.000000	2.590485
1150.000000	2.573865
1151.000000	2.585931
1152.000000	2.585436
1153.000000	2.579274
1154.000000	2.581632
1155.000000	2.561805
1156.000000	2.559561
1157.000000	2.543185
1158.000000	2.525181
1159.000000	2.525417
1160.000000	2.503888
1161.000000	2.501395
1162.000000	2.480289
1163.000000	2.466188
1164.000000	2.459229
1165.000000	2.447570
1166.000000	2.431480
1167.000000	2.435588
1168.000000	2.421922
1169.000000	2.413473
1170.000000	2.401961
1171.000000	2.399438
1172.000000	2.394209
1173.000000	2.391358
1174.000000	2.393324
1175.000000	2.384919
1176.000000	2.372291
1177.000000	2.372503
1178.000000	2.365410
1179.000000	2.347107
1180.000000	2.343008
1181.000000	2.348937
1182.000000	2.344644
1183.000000	2.329143
1184.000000	2.324286
1185.000000	2.342584
1186.000000	2.335620
1187.000000	2.341774
1188.000000	2.354518
1189.000000	2.362445
1190.000000	2.375353
1191.000000	2.367876
1192.000000	2.391100
1193.000000	2.396976
1194.000000	2.418326
1195.000000	2.430128
1196.000000	2.446854
1197.000000	2.461281
1198.000000	2.473836
1199.000000	2.482270
1200.000000	2.495309
1201.000000	2.505225
1202.000000	2.528014
1203.000000	2.541027
1204.000000	2.542896
1205.000000	2.563122
1206.000000	2.567732
1207.000000	2.586640
1208.000000	2.592764
1209.000000	2.604702
1210.000000	2.611794
1211.000000	2.643203
1212.000000	2.659026
1213.000000	2.667880
1214.000000	2.669465
1215.000000	2.686534
1216.000000	2.701226
1217.000000	2.717968
1218.000000	2.731691
1219.000000	2.746064
1220.000000	2.757312
1221.000000	2.773632
1222.000000	2.790110
1223.000000	2.798137
1224.000000	2.811829
1225.000000	2.821857
1226.000000	2.828780
1227.000000	2.849658
1228.000000	2.862398
1229.000000	2.866505
1230.000000	2.885153
1231.000000	2.897165
1232.000000	2.906573
1233.000000	2.914582
1234.000000	2.922065
1235.000000	2.932423
1236.000000	2.936444
1237.000000	2.954846
1238.000000	2.963348
1239.000000	2.968741
1240.000000	2.983960
1241.000000	2.986011
1242.000000	3.005788
1243.000000	3.009220
1244.000000	3.018586
1245.000000	3.031474
1246.000000	3.043418
1247.000000	3.051253
1248.000000	3.070019
1249.000000	3.076120
1250.000000	3.079516
1251.000000	3.078179
1252.000000	3.083781
1253.000000	3.099986
1254.000000	3.089885
1255.000000	3.088361
1256.000000	3.106515
1257.000000	3.115138
1258.000000	3.112056
1259.000000	3.106869
1260.000000	3.121303
1261.000000	3.128510
1262.000000	3.129792
1263.000000	3.126223
1264.000000	3.135922
1265.000000	3.132086
1266.000000	3.134446
1267.000000	3.143936
1268.000000	3.141263
1269.000000	3.144958
1270.000000	3.153355
1271.000000	3.153821
1272.000000	3.157119
1273.000000	3.158883
1274.000000	3.159426
1275.000000	3.173881
1276.000000	3.186489
1277.000000	3.186092
1278.000000	3.187759
1279.000000	3.198908
1280.000000	3.209884
1281.000000	3.216611
1282.000000	3.220817
1283.000000	3.231104
1284.000000	3.242382
1285.000000	3.254133
1286.000000	3.260424
1287.000000	3.265954
1288.000000	3.273816
1289.000000	3.276682
1290.000000	3.285834
1291.000000	3.292261
1292.000000	3.297930
1293.000000	3.303400
1294.000000	3.307548
1295.000000	3.301594
1296.000000	3.305211
1297.000000	3.313357
1298.000000	3.308481
1299.000000	3.306924
1300.000000	3.315821
1301.000000	3.319477
1302.000000	3.312421
1303.000000	3.309620
1304.000000	3.305208
1305.000000	3.298849
1306.000000	3.295926
1307.000000	3.286296
1308.000000	3.289208
1309.000000	3.291626
1310.000000	3.276902
1311.000000	3.271062
1312.000000	3.260371
1313.000000	3.246355
1314.000000	3.242402
1315.000000	3.238681
1316.000000	3.227290
1317.000000	3.219760
1318.000000	3.205960
1319.000000	3.186006
1320.000000	3.171933
1321.000000	3.159015
1322.000000	3.158103
1323.000000	3.139900
1324.000000	3.117797
1325.000000	3.113152
1326.000000	3.101883
1327.000000	3.085325
1328.000000	3.066383
1329.000000	3.051936
1330.000000	3.032796
1331.000000	3.016994
1332.000000	2.996175
1333.000000	2.977562
1334.000000	2.957969
1335.000000	2.927948
1336.000000	2.909192
1337.000000	2.890931
1338.000000	2.860724
1339.000000	2.845694
1340.000000	2.832023
1341.000000	2.803216
1342.000000	2.766408
1343.000000	2.748143
1344.000000	2.724661
1345.000000	2.687040
1346.000000	2.655312
1347.000000	2.620646
1348.000000	2.592111
1349.000000	2.555998
1350.000000	2.540584
1351.000000	2.518513
1352.000000	2.487242
1353.000000	2.478778
1354.000000	2.477897
1355.000000	2.427626
1356.000000	2.397025
1357.000000	2.400366
1358.000000	2.392650
1359.000000	2.383111
1360.000000	2.394152
1361.000000	2.382206
1362.000000	2.342915
1363.000000	2.276676
1364.000000	2.297355
1365.000000	2.291359
1366.000000	2.258094
1367.000000	2.246819
1368.000000	2.237768
1369.000000	2.197269
1370.000000	2.199976
1371.000000	2.177589
1372.000000	2.152228
1373.000000	2.121682
1374.000000	2.100209
1375.000000	2.088630
1376.000000	2.070446
1377.000000	2.052304
1378.000000	2.014824
1379.000000	1.995882
1380.000000	1.959278
1381.000000	1.954460
1382.000000	1.900573
1383.000000	1.842994
1384.000000	1.781882
1385.000000	1.689844
1386.000000	1.676380
1387.000000	1.634630
1388.000000	1.586226
1389.000000	1.471595
1390.000000	1.441390
1391.000000	1.410165
1392.000000	1.339558
1393.000000	1.248546
1394.000000	1.233950
1395.000000	1.193404
1396.000000	1.099813
1397.000000	1.014358
1398.000000	0.986945
1399.000000	0.967475
1400.000000	0.896793
1401.000000	0.825102
1402.000000	0.737623
1403.000000	0.711273
1404.000000	0.643410
1405.000000	0.597212
1406.000000	0.562998
1407.000000	0.523972
1408.000000	0.471202
1409.000000	0.451669
1410.000000	0.397681
1411.000000	0.385146
1412.000000	0.357222
1413.000000	0.345700
1414.000000	0.338412
1415.000000	0.325942
1416.000000	0.318910
1417.000000	0.327689
1418.000000	0.292500
1419.000000	0.293207
1420.000000	0.301568
1421.000000	0.308462
1422.000000	0.312864
1423.000000	0.307226
1424.000000	0.298682
1425.000000	0.323643
1426.000000	0.325895
1427.000000	0.328535
1428.000000	0.319132
1429.000000	0.341182
1430.000000	0.333457
1431.000000	0.343684
1432.000000	0.348582
1433.000000	0.359618
1434.000000	0.357668
1435.000000	0.372772
1436.000000	0.365012
1437.000000	0.376101
1438.000000	0.372643
1439.000000	0.397957
1440.000000	0.395836
1441.000000	0.392053
1442.000000	0.395719
1443.000000	0.396389
1444.000000	0.396634
1445.000000	0.417352
1446.000000	0.398629
1447.000000	0.435415
1448.000000	0.431794
1449.000000	0.431076
1450.000000	0.421800
1451.000000	0.448523
1452.000000	0.449697
1453.000000	0.455157
1454.000000	0.452569
1455.000000	0.458060
1456.000000	0.466497
1457.000000	0.466893
1458.000000	0.474138
1459.000000	0.467320
1460.000000	0.471124
1461.000000	0.474204
1462.000000	0.470349
1463.000000	0.470447
1464.000000	0.477600
1465.000000	0.468247
1466.000000	0.466758
1467.000000	0.464385
1468.000000	0.488426
1469.000000	0.477297
1470.000000	0.463136
1471.000000	0.461039
1472.000000	0.481444
1473.000000	0.465828
1474.000000	0.460661
1475.000000	0.460995
1476.000000	0.451875
1477.000000	0.452850
1478.000000	0.456860
1479.000000	0.444001
1480.000000	0.430739
1481.000000	0.438167
1482.000000	0.433870
1483.000000	0.420503
1484.000000	0.417140
1485.000000	0.411536
1486.000000	0.399506
1487.000000	0.392161
1488.000000	0.379976
1489.000000	0.393390
1490.000000	0.380193
1491.000000	0.375042
1492.000000	0.370441
1493.000000	0.354955
1494.000000	0.346492
1495.000000	0.343757
1496.000000	0.336266
1497.000000	0.328120
1498.000000	0.319564
1499.000000	0.315086
1500.000000	0.316053
1501.000000	0.314840
1502.000000	0.307938
1503.000000	0.298111
1504.000000	0.282723
1505.000000	0.275337
1506.000000	0.280984
1507.000000	0.275686
1508.000000	0.278490
1509.000000	0.263069
1510.000000	0.265085
1511.000000	0.258338
1512.000000	0.245379
1513.000000	0.248924
1514.000000	0.246878
1515.000000	0.242388
1516.000000	0.240565
1517.000000	0.245374
1518.000000	0.238086
1519.000000	0.240775
1520.000000	0.244140
1521.000000	0.248333
1522.000000	0.243950
1523.000000	0.245934
1524.000000	0.247861
1525.000000	0.250364
1526.000000	0.248027
1527.000000	0.248139
1528.000000	0.241441
1529.000000	0.253839
1530.000000	0.255738
1531.000000	0.254278
1532.000000	0.258938
1533.000000	0.253472
1534.000000	0.262839
1535.000000	0.271285
1536.000000	0.273666
1537.000000	0.280322
1538.000000	0.287072
1539.000000	0.294817
1540.000000	0.294723
1541.000000	0.303735
1542.000000	0.306670
1543.000000	0.310824
1544.000000	0.317406
1545.000000	0.318895
1546.000000	0.329467
1547.000000	0.333102
1548.000000	0.334360
1549.000000	0.341635
1550.000000	0.353873
1551.000000	0.365542
1552.000000	0.373734
1553.000000	0.380809
1554.000000	0.385958
1555.000000	0.398169
1556.000000	0.406524
1557.000000	0.411186
1558.000000	0.415803
1559.000000	0.423517
1560.000000	0.428649
1561.000000	0.433431
1562.000000	0.441922
1563.000000	0.449430
1564.000000	0.454855
1565.000000	0.453689
1566.000000	0.457394
1567.000000	0.459373
1568.000000	0.464972
1569.000000	0.469111
1570.000000	0.470482
1571.000000	0.478762
1572.000000	0.477488
1573.000000	0.475055
1574.000000	0.470811
1575.000000	0.472553
1576.000000	0.481411
1577.000000	0.483962
1578.000000	0.482072
1579.000000	0.484366
1580.000000	0.482899
1581.000000	0.479177
1582.000000	0.477978
1583.000000	0.475746
1584.000000	0.485130
1585.000000	0.482799
1586.000000	0.478594
1587.000000	0.474596
1588.000000	0.478745
1589.000000	0.490544
1590.000000	0.484747
1591.000000	0.478438
1592.000000	0.486907
1593.000000	0.489354
1594.000000	0.483685
1595.000000	0.471678
1596.000000	0.466181
1597.000000	0.472981
1598.000000	0.480820
1599.000000	0.483141
1600.000000	0.488216
1601.000000	0.486442
1602.000000	0.482905
1603.000000	0.486358
1604.000000	0.494141
1605.000000	0.498724
1606.000000	0.500761
1607.000000	0.495103
1608.000000	0.490280
1609.000000	0.501880
1610.000000	0.506630
1611.000000	0.502486
1612.000000	0.502382
1613.000000	0.505638
1614.000000	0.512327
1615.000000	0.510670
1616.000000	0.510208
1617.000000	0.516643
1618.000000	0.524465
1619.000000	0.516079
1620.000000	0.515831
1621.000000	0.521908
1622.000000	0.531283
1623.000000	0.534641
1624.000000	0.530470
1625.000000	0.530759
1626.000000	0.540374
1627.000000	0.543859
1628.000000	0.549520
1629.000000	0.554090
1630.000000	0.564732
1631.000000	0.560087
1632.000000	0.567489
1633.000000	0.573440
1634.000000	0.575339
1635.000000	0.571855
1636.000000	0.570254
1637.000000	0.592914
1638.000000	0.586774
1639.000000	0.590127
1640.000000	0.596610
1641.000000	0.603006
1642.000000	0.606371
1643.000000	0.618059
1644.000000	0.619236
1645.000000	0.619077
1646.000000	0.629026
1647.000000	0.624647
1648.000000	0.621160
1649.000000	0.633907
1650.000000	0.633600
1651.000000	0.636049
1652.000000	0.629184
1653.000000	0.638374
1654.000000	0.649876
1655.000000	0.646551
1656.000000	0.642827
1657.000000	0.635536
1658.000000	0.636246
1659.000000	0.632748
1660.000000	0.629274
1661.000000	0.612377
1662.000000	0.616125
1663.000000	0.616051
1664.000000	0.602409
1665.000000	0.608269
1666.000000	0.592110
1667.000000	0.579217
1668.000000	0.596848
1669.000000	0.595262
1670.000000	0.586601
1671.000000	0.574585
1672.000000	0.574877
1673.000000	0.586279
1674.000000	0.577261
1675.000000	0.569160
1676.000000	0.565973
1677.000000	0.571320
1678.000000	0.561990
1679.000000	0.549191
1680.000000	0.547229
1681.000000	0.532788
1682.000000	0.522810
1683.000000	0.529768
1684.000000	0.526759
1685.000000	0.525416
1686.000000	0.508517
1687.000000	0.525285
1688.000000	0.548192
1689.000000	0.553033
1690.000000	0.556759
1691.000000	0.582950
1692.000000	0.581630
1693.000000	0.585347
1694.000000	0.596386
1695.000000	0.604485
1696.000000	0.611930
1697.000000	0.597299
1698.000000	0.591548
1699.000000	0.594453
1700.000000	0.590066
1701.000000	0.585795
1702.000000	0.597952
1703.000000	0.575731
1704.000000	0.571759
1705.000000	0.591711
1706.000000	0.567883
1707.000000	0.557602
1708.000000	0.566299
1709.000000	0.551999
1710.000000	0.532572
1711.000000	0.531091
1712.000000	0.504874
1713.000000	0.508421
1714.000000	0.479369
1715.000000	0.462285
1716.000000	0.443982
1717.000000	0.428067
1718.000000	0.407742
1719.000000	0.405873
1720.000000	0.402953
1721.000000	0.381234
1722.000000	0.368032
1723.000000	0.353085
1724.000000	0.380534
1725.000000	0.378534
1726.000000	0.385224
1727.000000	0.369498
1728.000000	0.384555
1729.000000	0.397617
1730.000000	0.395038
1731.000000	0.388500
1732.000000	0.397315
1733.000000	0.394756
1734.000000	0.392768
1735.000000	0.393643
1736.000000	0.401535
1737.000000	0.415245
1738.000000	0.421013
1739.000000	0.417953
1740.000000	0.415037
1741.000000	0.442190
1742.000000	0.445794
1743.000000	0.449533
1744.000000	0.441380
1745.000000	0.441441
1746.000000	0.451949
1747.000000	0.449507
1748.000000	0.433723
1749.000000	0.441190
1750.000000	0.438402
1751.000000	0.431200
1752.000000	0.434707
1753.000000	0.439604
1754.000000	0.436395
1755.000000	0.432672
1756.000000	0.429593
1757.000000	0.430353
1758.000000	0.438425
1759.000000	0.437498
1760.000000	0.426899
1761.000000	0.427931
1762.000000	0.443220
1763.000000	0.446652
1764.000000	0.444566
1765.000000	0.442027
1766.000000	0.444370
1767.000000	0.458641
1768.000000	0.462220
1769.000000	0.463047
1770.000000	0.463355
1771.000000	0.478092
1772.000000	0.480429
1773.000000	0.465545
1774.000000	0.478424
1775.000000	0.484958
1776.000000	0.479373
1777.000000	0.488803
1778.000000	0.495414
1779.000000	0.497989
1780.000000	0.504870
1781.000000	0.509166
1782.000000	0.501879
1783.000000	0.511228
1784.000000	0.507914
1785.000000	0.505683
1786.000000	0.514706
1787.000000	0.519642
1788.000000	0.520450
1789.000000	0.524123
1790.000000	0.524814
1791.000000	0.521700
1792.000000	0.535406
1793.000000	0.537748
1794.000000	0.540857
1795.000000	0.555999
1796.000000	0.558902
1797.000000	0.565185
1798.000000	0.575249
1799.000000	0.582269
1800.000000	0.585779
1801.000000	0.589665
1802.000000	0.586067
1803.000000	0.587572
1804.000000	0.599436
1805.000000	0.610624
1806.000000	0.621053
1807.000000	0.619523
1808.000000	0.624331
1809.000000	0.627690
1810.000000	0.639924
1811.000000	0.645862
1812.000000	0.649623
1813.000000	0.642883
1814.000000	0.648343
1815.000000	0.654194
1816.000000	0.652373
1817.000000	0.654036
1818.000000	0.661095
1819.000000	0.668459
1820.000000	0.678365
1821.000000	0.670279
1822.000000	0.660486
1823.000000	0.659051
1824.000000	0.668143
1825.000000	0.684584
1826.000000	0.688224
1827.000000	0.686122
1828.000000	0.685382
1829.000000	0.691331
1830.000000	0.688768
1831.000000	0.686945
1832.000000	0.690192
1833.000000	0.698228
1834.000000	0.707461
1835.000000	0.720278
1836.000000	0.724375
1837.000000	0.714309
1838.000000	0.709112
1839.000000	0.707304
1840.000000	0.711431
1841.000000	0.704412
1842.000000	0.687663
1843.000000	0.681783
1844.000000	0.696184
1845.000000	0.714815
1846.000000	0.735017
1847.000000	0.729353
1848.000000	0.694648
1849.000000	0.686516
1850.000000	0.676124
1851.000000	0.668470
1852.000000	0.670787
1853.000000	0.670749
1854.000000	0.669455
1855.000000	0.655755
1856.000000	0.651867
1857.000000	0.651299
1858.000000	0.643341
1859.000000	0.625997
1860.000000	0.608670
1861.000000	0.593332
1862.000000	0.570131
1863.000000	0.566968
1864.000000	0.565444
1865.000000	0.563970
1866.000000	0.565341
1867.000000	0.566792
1868.000000	0.561033
1869.000000	0.529568
1870.000000	0.517811
1871.000000	0.500328
1872.000000	0.484506
1873.000000	0.445105
1874.000000	0.422129
1875.000000	0.401231
1876.000000	0.370109
1877.000000	0.351288
1878.000000	0.347236
1879.000000	0.345867
1880.000000	0.348110
1881.000000	0.363405
1882.000000	0.395320
1883.000000	0.408165
1884.000000	0.422630
1885.000000	0.460859
1886.000000	0.465691
1887.000000	0.492196
1888.000000	0.526812
1889.000000	0.577615
1890.000000	0.572620
1891.000000	0.601643
1892.000000	0.651107
1893.000000	0.679576
1894.000000	0.682203
1895.000000	0.691879
1896.000000	0.693232
1897.000000	0.725043
1898.000000	0.768432
1899.000000	0.771353
1900.000000	0.777955
1901.000000	0.773047
1902.000000	0.762634
1903.000000	0.764946
1904.000000	0.758577
1905.000000	0.769954
1906.000000	0.778658
1907.000000	0.768576
1908.000000	0.758532
1909.000000	0.726455
1910.000000	0.725807
1911.000000	0.735688
1912.000000	0.737320
1913.000000	0.732382
1914.000000	0.719363
1915.000000	0.715092
1916.000000	0.705786
1917.000000	0.684602
1918.000000	0.684565
1919.000000	0.685366
1920.000000	0.681773
1921.000000	0.677562
1922.000000	0.675384
1923.000000	0.660836
1924.000000	0.642392
1925.000000	0.643497
1926.000000	0.635991
1927.000000	0.638733
1928.000000	0.630168
1929.000000	0.619245
1930.000000	0.642785
1931.000000	0.623791
1932.000000	0.620036
1933.000000	0.623184
1934.000000	0.607497
1935.000000	0.617901
1936.000000	0.605586
1937.000000	0.602104
1938.000000	0.594929
1939.000000	0.600133
1940.000000	0.605523
1941.000000	0.602011
1942.000000	0.602885
1943.000000	0.602232
1944.000000	0.590644
1945.000000	0.587408
1946.000000	0.593192
1947.000000	0.598731
1948.000000	0.585497
1949.000000	0.599064
1950.000000	0.598645
1951.000000	0.593077
1952.000000	0.595193
1953.000000	0.597523
1954.000000	0.602551
1955.000000	0.587405
1956.000000	0.594553
1957.000000	0.597125
1958.000000	0.603095
1959.000000	0.603235
1960.000000	0.593749
1961.000000	0.594838
1962.000000	0.602532
1963.000000	0.590634
1964.000000	0.606745
1965.000000	0.595905
1966.000000	0.598471
1967.000000	0.604143
1968.000000	0.591053
1969.000000	0.600689
1970.000000	0.602951
1971.000000	0.587890
1972.000000	0.595294
1973.000000	0.592750
1974.000000	0.573368
1975.000000	0.567559
1976.000000	0.578996
1977.000000	0.568674
1978.000000	0.575223
1979.000000	0.576962
1980.000000	0.573180
1981.000000	0.580901
1982.000000	0.569884
1983.000000	0.571568
1984.000000	0.570327
1985.000000	0.567609
1986.000000	0.569355
1987.000000	0.571393
1988.000000	0.569629
1989.000000	0.568143
1990.000000	0.571982
1991.000000	0.562742
1992.000000	0.555122
1993.000000	0.559295
1994.000000	0.561445
1995.000000	0.559926
1996.000000	0.560739
1997.000000	0.550349
1998.000000	0.551724
1999.000000	0.559497
2000.000000	0.548090
2001.000000	0.567225
2002.000000	0.561606
2003.000000	0.537518
2004.000000	0.540558
2005.000000	0.544481
2006.000000	0.537239
2007.000000	0.533493
2008.000000	0.531553
2009.000000	0.520297
2010.000000	0.514940
2011.000000	0.522111
2012.000000	0.511674
2013.000000	0.516219
2014.000000	0.509399
2015.000000	0.497441
2016.000000	0.488392
2017.000000	0.474635
2018.000000	0.471820
2019.000000	0.478545
2020.000000	0.471388
2021.000000	0.456662
2022.000000	0.456022
2023.000000	0.442340
2024.000000	0.445053
2025.000000	0.439239
2026.000000	0.436415
2027.000000	0.421011
2028.000000	0.407372
2029.000000	0.410772
2030.000000	0.409756
2031.000000	0.394859
2032.000000	0.391554
2033.000000	0.394432
2034.000000	0.386852
2035.000000	0.376478
2036.000000	0.378820
2037.000000	0.373668
2038.000000	0.364289
2039.000000	0.363170
2040.000000	0.357840
2041.000000	0.347946
2042.000000	0.345137
2043.000000	0.346699
2044.000000	0.349751
2045.000000	0.336593
2046.000000	0.330342
2047.000000	0.326972
2048.000000	0.321760
2049.000000	0.325537
2050.000000	0.313380
2051.000000	0.306014
2052.000000	0.310546
2053.000000	0.309095
2054.000000	0.294343
2055.000000	0.289098
2056.000000	0.299822
2057.000000	0.289591
2058.000000	0.277909
2059.000000	0.287505
2060.000000	0.296211
2061.000000	0.295118
2062.000000	0.299815
2063.000000	0.309921
2064.000000	0.311372
2065.000000	0.305432
2066.000000	0.311490
2067.000000	0.316868
2068.000000	0.330367
2069.000000	0.345823
2070.000000	0.354753
2071.000000	0.365109
2072.000000	0.365291
2073.000000	0.371110
2074.000000	0.377111
2075.000000	0.381955
2076.000000	0.386831
2077.000000	0.398881
2078.000000	0.409350
2079.000000	0.420021
2080.000000	0.425024
2081.000000	0.434219
2082.000000	0.430560
2083.000000	0.435064
2084.000000	0.446200
2085.000000	0.446702
2086.000000	0.457576
2087.000000	0.458961
2088.000000	0.463858
2089.000000	0.472293
2090.000000	0.463680
2091.000000	0.463418
2092.000000	0.473800
2093.000000	0.475404
2094.000000	0.477100
2095.000000	0.483208
2096.000000	0.490555
2097.000000	0.486950
2098.000000	0.489352
2099.000000	0.498518
2100.000000	0.498453
2101.000000	0.510350
2102.000000	0.520559
2103.000000	0.511355
2104.000000	0.518036
2105.000000	0.525474
2106.000000	0.524904
2107.000000	0.530494
2108.000000	0.531171
2109.000000	0.536387
2110.000000	0.545213
2111.000000	0.555770
2112.000000	0.562642
2113.000000	0.564994
2114.000000	0.564396
2115.000000	0.570227
2116.000000	0.576959
2117.000000	0.573623
2118.000000	0.584676
2119.000000	0.595074
2120.000000	0.593746
2121.000000	0.594933
2122.000000	0.592730
2123.000000	0.605986
2124.000000	0.615912
2125.000000	0.607928
2126.000000	0.601757
2127.000000	0.602089
2128.000000	0.614958
2129.000000	0.617106
2130.000000	0.613232
2131.000000	0.604443
2132.000000	0.601346
2133.000000	0.611395
2134.000000	0.620504
2135.000000	0.627608
2136.000000	0.626027
2137.000000	0.615564
2138.000000	0.608454
2139.000000	0.611383
2140.000000	0.617528
2141.000000	0.608737
2142.000000	0.600288
2143.000000	0.601428
2144.000000	0.601661
2145.000000	0.595086
2146.000000	0.589663
2147.000000	0.588580
2148.000000	0.593117
2149.000000	0.583910
2150.000000	0.587008
2151.000000	0.581281
2152.000000	0.564163
2153.000000	0.563026
2154.000000	0.556490
2155.000000	0.551604
2156.000000	0.541345
2157.000000	0.531370
2158.000000	0.525464
2159.000000	0.523090
2160.000000	0.525287
2161.000000	0.507425
2162.000000	0.501554
2163.000000	0.502952
2164.000000	0.510016
2165.000000	0.499573
2166.000000	0.492047
2167.000000	0.480375
2168.000000	0.479137
2169.000000	0.483508
2170.000000	0.474838
2171.000000	0.470877
2172.000000	0.462355
2173.000000	0.467696
2174.000000	0.460546
2175.000000	0.463942
2176.000000	0.462169
2177.000000	0.456443
2178.000000	0.456042
2179.000000	0.454928
2180.000000	0.446885
2181.000000	0.443044
2182.000000	0.450159
2183.000000	0.433873
2184.000000	0.442189
2185.000000	0.448563
2186.000000	0.448655
2187.000000	0.444620
2188.000000	0.448811
2189.000000	0.456709
2190.000000	0.445316
2191.000000	0.444969
2192.000000	0.449243
2193.000000	0.447748
2194.000000	0.451667
2195.000000	0.451146
2196.000000	0.458770
2197.000000	0.461194
2198.000000	0.470183
2199.000000	0.461764
2200.000000	0.448067
2201.000000	0.469567
2202.000000	0.476016
2203.000000	0.478498
2204.000000	0.476696
2205.000000	0.488025
2206.000000	0.487695
2207.000000	0.468765
2208.000000	0.460974
2209.000000	0.489422
2210.000000	0.499839
2211.000000	0.484715
2212.000000	0.483831
2213.000000	0.498706
2214.000000	0.495953
2215.000000	0.499510
2216.000000	0.507364
2217.000000	0.511421
2218.000000	0.515358
2219.000000	0.504479
2220.000000	0.511956
2221.000000	0.522959
2222.000000	0.526576
2223.000000	0.527029
2224.000000	0.521025
2225.000000	0.538181
2226.000000	0.556713
2227.000000	0.555803
2228.000000	0.560797
2229.000000	0.573773
2230.000000	0.555026
2231.000000	0.581968
2232.000000	0.580734
2233.000000	0.601455
2234.000000	0.596107
2235.000000	0.606036
2236.000000	0.600752
2237.000000	0.614760
2238.000000	0.603319
2239.000000	0.622409
2240.000000	0.616081
2241.000000	0.619036
2242.000000	0.638725
2243.000000	0.645897
2244.000000	0.638898
2245.000000	0.640307
2246.000000	0.636265
2247.000000	0.651144
2248.000000	0.646203
2249.000000	0.659707
2250.000000	0.643539
2251.000000	0.631167
2252.000000	0.643297
2253.000000	0.637718
2254.000000	0.643709
2255.000000	0.631066
2256.000000	0.644680
2257.000000	0.628974
2258.000000	0.631868
2259.000000	0.634494
2260.000000	0.625161
2261.000000	0.617094
2262.000000	0.618037
2263.000000	0.609147
2264.000000	0.605999
2265.000000	0.607203
2266.000000	0.609001
2267.000000	0.606886
2268.000000	0.601780
2269.000000	0.611046
2270.000000	0.608640
2271.000000	0.607177
2272.000000	0.615113
2273.000000	0.599329
2274.000000	0.604419
2275.000000	0.612886
2276.000000	0.604685
2277.000000	0.614900
2278.000000	0.626275
2279.000000	0.632685
2280.000000	0.642875
2281.000000	0.642222
2282.000000	0.645619
2283.000000	0.643913
2284.000000	0.625064
2285.000000	0.641467
2286.000000	0.649545
2287.000000	0.640688
2288.000000	0.652189
2289.000000	0.642828
2290.000000	0.648629
2291.000000	0.652486
2292.000000	0.664623
2293.000000	0.665413
2294.000000	0.651892
2295.000000	0.660147
2296.000000	0.653453
2297.000000	0.663231
2298.000000	0.657210
2299.000000	0.657820
2300.000000	0.667010
2301.000000	0.668763
2302.000000	0.669297
2303.000000	0.669498
2304.000000	0.672772
2305.000000	0.666174
2306.000000	0.669655
2307.000000	0.676593
2308.000000	0.673638
2309.000000	0.678796
2310.000000	0.693006
2311.000000	0.693075
2312.000000	0.690453
2313.000000	0.693970
2314.000000	0.699715
2315.000000	0.713154
2316.000000	0.726910
2317.000000	0.737970
2318.000000	0.729069
2319.000000	0.733863
2320.000000	0.737345
2321.000000	0.737817
2322.000000	0.743994
2323.000000	0.753894
2324.000000	0.757761
2325.000000	0.758312
2326.000000	0.769672
2327.000000	0.765305
2328.000000	0.764070
2329.000000	0.765626
2330.000000	0.775037
2331.000000	0.781027
2332.000000	0.779445
2333.000000	0.781588
2334.000000	0.790205
2335.000000	0.799364
2336.000000	0.796356
2337.000000	0.790956
2338.000000	0.799345
2339.000000	0.805447
2340.000000	0.803365
2341.000000	0.811329
2342.000000	0.810388
2343.000000	0.809386
2344.000000	0.804985
2345.000000	0.807963
2346.000000	0.814772
2347.000000	0.815133
2348.000000	0.815621
2349.000000	0.828358
2350.000000	0.840904
2351.000000	0.834928
2352.000000	0.834374
2353.000000	0.839846
2354.000000	0.841728
2355.000000	0.845603
2356.000000	0.849064
2357.000000	0.852754
2358.000000	0.863089
2359.000000	0.866949
2360.000000	0.856530
2361.000000	0.861690
2362.000000	0.876825
2363.000000	0.869352
2364.000000	0.871045
2365.000000	0.885703
2366.000000	0.892677
2367.000000	0.888084
2368.000000	0.887118
2369.000000	0.896617
2370.000000	0.901558
2371.000000	0.898033
2372.000000	0.905673
2373.000000	0.920925
2374.000000	0.923617
2375.000000	0.913792
2376.000000	0.919318
2377.000000	0.930922
2378.000000	0.928101
2379.000000	0.922425
2380.000000	0.932609
2381.000000	0.938191
2382.000000	0.935495
2383.000000	0.942327
2384.000000	0.952491
2385.000000	0.950782
2386.000000	0.957889
2387.000000	0.965265
2388.000000	0.964237
2389.000000	0.963216
2390.000000	0.972950
2391.000000	0.985471
2392.000000	0.994362
2393.000000	0.992822
2394.000000	0.993686
2395.000000	0.992408
2396.000000	0.993436
2397.000000	1.002560
2398.000000	1.011126
2399.000000	1.011384
2400.000000	1.016262
2401.000000	1.015731
2402.000000	1.005555
2403.000000	1.016750
2404.000000	1.028966
2405.000000	1.040164
2406.000000	1.033700
2407.000000	1.030935
2408.000000	1.048610
2409.000000	1.052064
2410.000000	1.039421
2411.000000	1.044485
2412.000000	1.054645
2413.000000	1.051299
2414.000000	1.057530
2415.000000	1.067270
2416.000000	1.076712
2417.000000	1.069010
2418.000000	1.072858
2419.000000	1.058996
2420.000000	1.064841
2421.000000	1.064228
2422.000000	1.069475
2423.000000	1.084620
2424.000000	1.092846
2425.000000	1.096757
2426.000000	1.106190
2427.000000	1.108007
2428.000000	1.100190
2429.000000	1.094648
2430.000000	1.093762
2431.000000	1.081954
2432.000000	1.065691
2433.000000	1.065954
2434.000000	1.068819
2435.000000	1.067105
2436.000000	1.070451
2437.000000	1.052110
2438.000000	1.045650
2439.000000	1.043370
2440.000000	1.037578
2441.000000	1.041211
2442.000000	1.028847
2443.000000	1.017241
2444.000000	1.004903
2445.000000	1.002246
2446.000000	0.988729
2447.000000	0.990237
2448.000000	0.986306
2449.000000	0.970314
2450.000000	0.960454
2451.000000	0.960266
2452.000000	0.948436
2453.000000	0.951963
2454.000000	0.945369
2455.000000	0.949707
2456.000000	0.942032
2457.000000	0.956364
2458.000000	0.937548
2459.000000	0.929185
2460.000000	0.924981
2461.000000	0.925820
2462.000000	0.918941
2463.000000	0.922258
2464.000000	0.919648
2465.000000	0.913346
2466.000000	0.880976
2467.000000	0.920882
2468.000000	0.891924
2469.000000	0.874680
2470.000000	0.910818
2471.000000	0.908293
2472.000000	0.895647
2473.000000	0.879279
2474.000000	0.846706
2475.000000	0.860904
2476.000000	0.880174
2477.000000	0.876799
2478.000000	0.881243
2479.000000	0.873177
2480.000000	0.841041
2481.000000	0.861233
2482.000000	0.834526
2483.000000	0.848993
2484.000000	0.846597
2485.000000	0.856254
2486.000000	0.825387
2487.000000	0.798129
2488.000000	0.824917
2489.000000	0.858502
2490.000000	0.824675
2491.000000	0.857749
2492.000000	0.848651
2493.000000	0.795470
2494.000000	0.868488
2495.000000	0.782947
2496.000000	0.827019
2497.000000	0.848838
2498.000000	0.859642
2499.000000	0.844107
2500.000000	0.894857
