Time1=100ms:Average1=5:Objective=10X:Aperture=1: (11/21/2018 2:03:18 PM)
11/21/2018 2:03:18 PM
Reflectance
10X
Ap#: 1
Avg1: 5.000000
Avg2: 0.000000
Int.Time1:100.000000
Int.Time2:0.000000
420.190645	20.778527
420.624620	20.736244
421.058582	20.713884
421.492531	20.703557
421.926468	20.701740
422.360391	20.706464
422.794301	20.734873
423.228199	20.783031
423.662083	20.827979
424.095955	20.886677
424.529813	20.936637
424.963658	21.000953
425.397491	21.054185
425.831310	21.107982
426.265116	21.153583
426.698909	21.210464
427.132689	21.270309
427.566455	21.361010
428.000209	21.460163
428.433949	21.552456
428.867676	21.632649
429.301389	21.723638
429.735090	21.809816
430.168777	21.863320
430.602451	21.920280
431.036111	21.957754
431.469759	22.000276
431.903392	22.044162
432.337013	22.079072
432.770620	22.122960
433.204213	22.161726
433.637794	22.230573
434.071360	22.285174
434.504914	22.359271
434.938453	22.437246
435.371979	22.510423
435.805492	22.597779
436.238991	22.674726
436.672477	22.728194
437.105949	22.801350
437.539407	22.839063
437.972852	22.878151
438.406283	22.926033
438.839700	22.968091
439.273104	23.013415
439.706494	23.063083
440.139871	23.112843
440.573233	23.156232
441.006582	23.195574
441.439917	23.214881
441.873238	23.234891
442.306546	23.238808
442.739839	23.230023
443.173119	23.209570
443.606385	23.199294
444.039636	23.180509
444.472874	23.162877
444.906099	23.150087
445.339309	23.151044
445.772505	23.148641
446.205687	23.171482
446.638855	23.178650
447.072009	23.190845
447.505149	23.205710
447.938275	23.204100
448.371387	23.200719
448.804485	23.181908
449.237569	23.152618
449.670638	23.117408
450.103694	23.069854
450.536735	23.019201
450.969762	22.963130
451.402774	22.907673
451.835773	22.844038
452.268757	22.792849
452.701727	22.737767
453.134683	22.691829
453.567624	22.639392
454.000551	22.590462
454.433464	22.529831
454.866362	22.464834
455.299246	22.399910
455.732116	22.333543
456.164971	22.266376
456.597811	22.202484
457.030638	22.134320
457.463449	22.083879
457.896246	22.024964
458.329029	21.966730
458.761797	21.905393
459.194551	21.858716
459.627290	21.790635
460.060014	21.751061
460.492724	21.701526
460.925419	21.658148
461.358099	21.632414
461.790765	21.593546
462.223416	21.558866
462.656052	21.524095
463.088674	21.489332
463.521281	21.468384
463.953873	21.453987
464.386450	21.438933
464.819012	21.435003
465.251560	21.440794
465.684093	21.456939
466.116611	21.486729
466.549114	21.530729
466.981602	21.585286
467.414075	21.638075
467.846533	21.698408
468.278977	21.767735
468.711405	21.847144
469.143818	21.934343
469.576216	22.022906
470.008600	22.114763
470.440968	22.202005
470.873321	22.292245
471.305659	22.385719
471.737982	22.490251
472.170289	22.603570
472.602582	22.711929
473.034859	22.833505
473.467122	22.957293
473.899369	23.092572
474.331600	23.235805
474.763817	23.387031
475.196018	23.553861
475.628204	23.729298
476.060375	23.914282
476.492530	24.103937
476.924670	24.296793
477.356795	24.482688
477.788904	24.683636
478.220998	24.869381
478.653076	25.052236
479.085139	25.232221
479.517186	25.413811
479.949219	25.584427
480.381235	25.762786
480.813236	25.960537
481.245221	26.167791
481.677191	26.376597
482.109146	26.572371
482.541084	26.772682
482.973008	26.965800
483.404915	27.154800
483.836807	27.331064
484.268683	27.497828
484.700544	27.646239
485.132388	27.779640
485.564217	27.896004
485.996031	27.999631
486.427828	28.088144
486.859610	28.166195
487.291376	28.237451
487.723126	28.308525
488.154860	28.374613
488.586579	28.435101
489.018281	28.508080
489.449968	28.591812
489.881639	28.682851
490.313293	28.782804
490.744932	28.882958
491.176555	28.979648
491.608162	29.083578
492.039753	29.183521
492.471328	29.253482
492.902886	29.304778
493.334429	29.335586
493.765956	29.346619
494.197466	29.339761
494.628960	29.320553
495.060439	29.307051
495.491901	29.309696
495.923347	29.316820
496.354776	29.339541
496.786190	29.378053
497.217587	29.433948
497.648968	29.488690
498.080332	29.561236
498.511681	29.629189
498.943013	29.693794
499.374328	29.757417
499.805628	29.813993
500.236911	29.859462
500.668177	29.889423
501.099427	29.906177
501.530661	29.910389
501.961878	29.920881
502.393079	29.920550
502.824264	29.919315
503.255431	29.925189
503.686583	29.927668
504.117717	29.957582
504.548835	30.003810
504.979937	30.068389
505.411022	30.152942
505.842090	30.275547
506.273142	30.421955
506.704177	30.591186
507.135195	30.779939
507.566197	30.975244
507.997182	31.168962
508.428150	31.361084
508.859102	31.537817
509.290036	31.705598
509.720954	31.860309
510.151855	32.017101
510.582739	32.168858
511.013607	32.334038
511.444457	32.511377
511.875291	32.717194
512.306107	32.951098
512.736907	33.214176
513.167690	33.512827
513.598456	33.837580
514.029205	34.189553
514.459936	34.564045
514.890651	34.954855
515.321349	35.338190
515.752030	35.723664
516.182693	36.093616
516.613340	36.444662
517.043969	36.792796
517.474582	37.121119
517.905177	37.436782
518.335755	37.731725
518.766315	38.008871
519.196859	38.274357
519.627385	38.525430
520.057894	38.774725
520.488386	39.021077
520.918860	39.280235
521.349318	39.566087
521.779757	39.866087
522.210180	40.194753
522.640585	40.553554
523.070973	40.935373
523.501343	41.329672
523.931696	41.751590
524.362031	42.176574
524.792349	42.602071
525.222650	43.011239
525.652933	43.405663
526.083198	43.774624
526.513446	44.112269
526.943677	44.425809
527.373890	44.712334
527.804085	44.995913
528.234262	45.255456
528.664422	45.530148
529.094565	45.811535
529.524689	46.119387
529.954796	46.461882
530.384885	46.822334
530.814957	47.208161
531.245011	47.613513
531.675047	48.046197
532.105065	48.503311
532.535065	48.961869
532.965048	49.427735
533.395013	49.887996
533.824959	50.332212
534.254888	50.746585
534.684799	51.139835
535.114693	51.514546
535.544568	51.866113
535.974425	52.180888
536.404264	52.473987
536.834086	52.740690
537.263889	52.980162
537.693674	53.204657
538.123441	53.424559
538.553190	53.646134
538.982921	53.871499
539.412634	54.109054
539.842329	54.364081
540.272006	54.640597
540.701664	54.944521
541.131304	55.253592
541.560926	55.590556
541.990530	55.939332
542.420116	56.297316
542.849683	56.652084
543.279232	56.992554
543.708763	57.330842
544.138275	57.651033
544.567769	57.957200
544.997245	58.223990
545.426702	58.475735
545.856141	58.710466
546.285562	58.933871
546.714964	59.136448
547.144347	59.349617
547.573713	59.569513
548.003059	59.807053
548.432387	60.061306
548.861697	60.334175
549.290988	60.625760
549.720260	60.951097
550.149514	61.290836
550.578750	61.657417
551.007966	62.052630
551.437164	62.458992
551.866344	62.880653
552.295504	63.307463
552.724646	63.726825
553.153769	64.137412
553.582874	64.536608
554.011960	64.901580
554.441027	65.239344
554.870075	65.551173
555.299104	65.827240
555.728115	66.077497
556.157106	66.304989
556.586079	66.507482
557.015033	66.685723
557.443968	66.852848
557.872884	67.012462
558.301781	67.194619
558.730659	67.352094
559.159518	67.532788
559.588358	67.727897
560.017180	67.938900
560.445982	68.155248
560.874765	68.393188
561.303528	68.632758
561.732273	68.876271
562.160999	69.129808
562.589705	69.387281
563.018393	69.645662
563.447061	69.906150
563.875710	70.172688
564.304340	70.425740
564.732950	70.679874
565.161542	70.914048
565.590114	71.149407
566.018666	71.380007
566.447200	71.606343
566.875714	71.826190
567.304208	72.048009
567.732684	72.269235
568.161140	72.491390
568.589576	72.709730
569.017993	72.928698
569.446391	73.154906
569.874769	73.389413
570.303128	73.642082
570.731467	73.907443
571.159787	74.175593
571.588087	74.441814
572.016368	74.750408
572.444629	75.049429
572.872870	75.347066
573.301092	75.654495
573.729294	75.945138
574.157476	76.214274
574.585639	76.465869
575.013782	76.688016
575.441906	76.872349
575.870009	77.028820
576.298093	77.152224
576.726157	77.246029
577.154202	77.291043
577.582226	77.320350
578.010231	77.327187
578.438216	77.328168
578.866181	77.315112
579.294126	77.303452
579.722051	77.291665
580.149957	77.286681
580.577842	77.301740
581.005707	77.318297
581.433553	77.357421
581.861378	77.405582
582.289184	77.470559
582.716969	77.538652
583.144734	77.616463
583.572479	77.702800
584.000205	77.777496
584.427910	77.865933
584.855594	77.966604
585.283259	78.042629
585.710904	78.134438
586.138528	78.226357
586.566132	78.301915
586.993716	78.391168
587.421280	78.476603
587.848823	78.564609
588.276346	78.646654
588.703849	78.722968
589.131332	78.778214
589.558794	78.825415
589.986236	78.853044
590.413657	78.885611
590.841058	78.891962
591.268438	78.889196
591.695799	78.874542
592.123138	78.866514
592.550458	78.856324
592.977756	78.849716
593.405034	78.848986
593.832292	78.845188
594.259529	78.853944
594.686746	78.866188
595.113942	78.893941
595.541117	78.910815
595.968272	78.933543
596.395406	78.946840
596.822519	78.939168
597.249612	78.927584
597.676684	78.890716
598.103735	78.820173
598.530766	78.730730
598.957775	78.596578
599.384764	78.432089
599.811733	78.257935
600.238680	78.046418
600.665606	77.819377
601.092512	77.575228
601.519397	77.329865
601.946261	77.082905
602.373104	76.851431
602.799926	76.624771
603.226727	76.416078
603.653507	76.210256
604.080266	76.021291
604.507004	75.841079
604.933721	75.673953
605.360417	75.503099
605.787092	75.329115
606.213746	75.157952
606.640379	74.974737
607.066991	74.789452
607.493581	74.604445
607.920150	74.411223
608.346699	74.212023
608.773226	74.024014
609.199731	73.818287
609.626216	73.620153
610.052679	73.428755
610.479121	73.236297
610.905542	73.044362
611.331941	72.863211
611.758319	72.684750
612.184676	72.522590
612.611011	72.359758
613.037325	72.185666
613.463617	72.016430
613.889888	71.831402
614.316138	71.640968
614.742366	71.440596
615.168573	71.224113
615.594758	70.985229
616.020921	70.737877
616.447063	70.476123
616.873184	70.208390
617.299283	69.935785
617.725360	69.664291
618.151416	69.392867
618.577450	69.113452
619.003462	68.856940
619.429453	68.600111
619.855422	68.362693
620.281369	68.141948
620.707295	67.914749
621.133199	67.685697
621.559081	67.457023
621.984941	67.221519
622.410779	66.984112
622.836596	66.729757
623.262391	66.451066
623.688163	66.152863
624.113914	65.840001
624.539644	65.505539
624.965351	65.154573
625.391036	64.782722
625.816699	64.397719
626.242340	64.002803
626.667960	63.597118
627.093557	63.198333
627.519132	62.801468
627.944685	62.400730
628.370216	62.005100
628.795725	61.633274
629.221212	61.250829
629.646677	60.885664
630.072119	60.532414
630.497540	60.177295
630.922938	59.829736
631.348314	59.480009
631.773668	59.145446
632.198999	58.808157
632.624308	58.472821
633.049595	58.143602
633.474860	57.813638
633.900102	57.505688
634.325322	57.216815
634.750520	56.943768
635.175695	56.695920
635.600848	56.486650
636.025978	56.310975
636.451086	56.185044
636.876171	56.097837
637.301234	56.047805
637.726275	56.038144
638.151293	56.073656
638.576288	56.137811
639.001261	56.240260
639.426211	56.372217
639.851139	56.533119
640.276044	56.716488
640.700927	56.907452
641.125787	57.113191
641.550624	57.331891
641.975438	57.553749
642.400230	57.784216
642.824999	58.015553
643.249745	58.239731
643.674469	58.479199
644.099169	58.715803
644.523847	58.971983
644.948502	59.229349
645.373135	59.493007
645.797744	59.770000
646.222330	60.054918
646.646894	60.348776
647.071435	60.648430
647.495953	60.952770
647.920447	61.268111
648.344919	61.576489
648.769368	61.874122
649.193794	62.170867
649.618197	62.442004
650.042576	62.703891
650.466933	62.959335
650.891267	63.195854
651.315577	63.409948
651.739864	63.612770
652.164129	63.795205
652.588370	63.957714
653.012587	64.104714
653.436782	64.237247
653.860953	64.363172
654.285102	64.478463
654.709226	64.589805
655.133328	64.681855
655.557406	64.774717
655.981461	64.860514
656.405493	64.945257
656.829501	65.013957
657.253486	65.077663
657.677448	65.113883
658.101386	65.147435
658.525301	65.168030
658.949192	65.174448
659.373060	65.159298
659.796904	65.126074
660.220725	65.077488
660.644522	65.009131
661.068296	64.924991
661.492046	64.832149
661.915772	64.744278
662.339475	64.649071
662.763154	64.565941
663.186810	64.497131
663.610442	64.434196
664.034050	64.392408
664.457635	64.377727
664.881196	64.397595
665.304733	64.453359
665.728247	64.550526
666.151736	64.685005
666.575202	64.854229
666.998644	65.064351
667.422062	65.309822
667.845457	65.581255
668.268827	65.891592
668.692174	66.220070
669.115496	66.569188
669.538795	66.932251
669.962070	67.309823
670.385321	67.688850
670.808547	68.075428
671.231750	68.446018
671.654929	68.803503
672.078084	69.157832
672.501214	69.488747
672.924321	69.820206
673.347404	70.137599
673.770462	70.448275
674.193496	70.743965
674.616506	71.035802
675.039492	71.313469
675.462454	71.590091
675.885391	71.856821
676.308305	72.110551
676.731194	72.367871
677.154058	72.619533
677.576899	72.874854
677.999715	73.121774
678.422507	73.354767
678.845274	73.585288
679.268017	73.811973
679.690736	74.029313
680.113430	74.231722
680.536100	74.429083
680.958746	74.615367
681.381367	74.792987
681.803963	74.957265
682.226535	75.115499
682.649083	75.263195
683.071605	75.405863
683.494104	75.539167
683.916578	75.665747
684.339027	75.797944
684.761451	75.925278
685.183851	76.039585
685.606227	76.159645
686.028577	76.260470
686.450903	76.357186
686.873204	76.437419
687.295481	76.507566
687.717733	76.556656
688.139959	76.583480
688.562162	76.590602
688.984339	76.581808
689.406492	76.550337
689.828619	76.481961
690.250722	76.393495
690.672800	76.266287
691.094853	76.118931
691.516881	75.954432
691.938884	75.765823
692.360863	75.552057
692.782816	75.330662
693.204744	75.103518
693.626647	74.871409
694.048526	74.653229
694.470379	74.437633
694.892207	74.241172
695.314010	74.058427
695.735788	73.909646
696.157540	73.780092
696.579268	73.688647
697.000970	73.631482
697.422648	73.602657
697.844300	73.605593
698.265926	73.645502
698.687528	73.725105
699.109104	73.829940
699.530655	73.963356
699.952181	74.131460
