Time1=100ms:Average1=5:Objective=10X:Aperture=1: (11/28/2018 10:31:59 AM)
11/28/2018 10:31:59 AM
Reflectance
10X
Ap#: 1
Avg1: 5.000000
Avg2: 0.000000
Int.Time1:100.000000
Int.Time2:0.000000
420.190645	13.375790
420.624620	13.290522
421.058582	13.241813
421.492531	13.189220
421.926468	13.152043
422.360391	13.120365
422.794301	13.113235
423.228199	13.131092
423.662083	13.167638
424.095955	13.213522
424.529813	13.258540
424.963658	13.324489
425.397491	13.372386
425.831310	13.420574
426.265116	13.468582
426.698909	13.519515
427.132689	13.562779
427.566455	13.630682
428.000209	13.691057
428.433949	13.747749
428.867676	13.824451
429.301389	13.903639
429.735090	14.003151
430.168777	14.079303
430.602451	14.132172
431.036111	14.156142
431.469759	14.193875
431.903392	14.225907
432.337013	14.248041
432.770620	14.282407
433.204213	14.328742
433.637794	14.392959
434.071360	14.477186
434.504914	14.561972
434.938453	14.669380
435.371979	14.774596
435.805492	14.897955
436.238991	15.008630
436.672477	15.124628
437.105949	15.226154
437.539407	15.311387
437.972852	15.389870
438.406283	15.453326
438.839700	15.528491
439.273104	15.607482
439.706494	15.693054
440.139871	15.790305
440.573233	15.889996
441.006582	15.979504
441.439917	16.073672
441.873238	16.152085
442.306546	16.204809
442.739839	16.261497
443.173119	16.291358
443.606385	16.327106
444.039636	16.360288
444.472874	16.406775
444.906099	16.458676
445.339309	16.529550
445.772505	16.614751
446.205687	16.709464
446.638855	16.808132
447.072009	16.917774
447.505149	17.031213
447.938275	17.144211
448.371387	17.250921
448.804485	17.352049
449.237569	17.435818
449.670638	17.513110
450.103694	17.572961
450.536735	17.618087
450.969762	17.675307
451.402774	17.733840
451.835773	17.803664
452.268757	17.881632
452.701727	17.963524
453.134683	18.047850
453.567624	18.131787
454.000551	18.211804
454.433464	18.284927
454.866362	18.338013
455.299246	18.388917
455.732116	18.438796
456.164971	18.475824
456.597811	18.512615
457.030638	18.555107
457.463449	18.594500
457.896246	18.646441
458.329029	18.690144
458.761797	18.731955
459.194551	18.768893
459.627290	18.808750
460.060014	18.846168
460.492724	18.887708
460.925419	18.925804
461.358099	18.964931
461.790765	18.997938
462.223416	19.022765
462.656052	19.040455
463.088674	19.051864
463.521281	19.062468
463.953873	19.070695
464.386450	19.075670
464.819012	19.087876
465.251560	19.096687
465.684093	19.108915
466.116611	19.123619
466.549114	19.137470
466.981602	19.146126
467.414075	19.157190
467.846533	19.165150
468.278977	19.174760
468.711405	19.177517
469.143818	19.175084
469.576216	19.170569
470.008600	19.167880
470.440968	19.150777
470.873321	19.135416
471.305659	19.114736
471.737982	19.094871
472.170289	19.071002
472.602582	19.050014
473.034859	19.030263
473.467122	19.021376
473.899369	19.006411
474.331600	19.000436
474.763817	19.004005
475.196018	19.023222
475.628204	19.059381
476.060375	19.110755
476.492530	19.179012
476.924670	19.245733
477.356795	19.317007
477.788904	19.383113
478.220998	19.451002
478.653076	19.524514
479.085139	19.591496
479.517186	19.667458
479.949219	19.754393
480.381235	19.858083
480.813236	19.970610
481.245221	20.108559
481.677191	20.265134
482.109146	20.436539
482.541084	20.618125
482.973008	20.805391
483.404915	20.989049
483.836807	21.177185
484.268683	21.363605
484.700544	21.544273
485.132388	21.717751
485.564217	21.889073
485.996031	22.062212
486.427828	22.229630
486.859610	22.392772
487.291376	22.560443
487.723126	22.739134
488.154860	22.914351
488.586579	23.106176
489.018281	23.305591
489.449968	23.519302
489.881639	23.751981
490.313293	24.009380
490.744932	24.289209
491.176555	24.581900
491.608162	24.873731
492.039753	25.162356
492.471328	25.443867
492.902886	25.700940
493.334429	25.939884
493.765956	26.153336
494.197466	26.358385
494.628960	26.556344
495.060439	26.759347
495.491901	26.974628
495.923347	27.210407
496.354776	27.465570
496.786190	27.754675
497.217587	28.066753
497.648968	28.384839
498.080332	28.715411
498.511681	29.045945
498.943013	29.377204
499.374328	29.696413
499.805628	30.003811
500.236911	30.302125
500.668177	30.590349
501.099427	30.854794
501.530661	31.116192
501.961878	31.360087
502.393079	31.595200
502.824264	31.832712
503.255431	32.056997
503.686583	32.288608
504.117717	32.526410
504.548835	32.778430
504.979937	33.058270
505.411022	33.366939
505.842090	33.712249
506.273142	34.090525
506.704177	34.501216
507.135195	34.937111
507.566197	35.387775
507.997182	35.836668
508.428150	36.272594
508.859102	36.699732
509.290036	37.103394
509.720954	37.488226
510.151855	37.852532
510.582739	38.202901
511.013607	38.561184
511.444457	38.926301
511.875291	39.322492
512.306107	39.747946
512.736907	40.208910
513.167690	40.702545
513.598456	41.222662
514.029205	41.772228
514.459936	42.332920
514.890651	42.897714
515.321349	43.452632
515.752030	44.009949
516.182693	44.543578
516.613340	45.060153
517.043969	45.545094
517.474582	46.012215
517.905177	46.449464
518.335755	46.861316
518.766315	47.253868
519.196859	47.610512
519.627385	47.949664
520.057894	48.267316
520.488386	48.580324
520.918860	48.892953
521.349318	49.208583
521.779757	49.539453
522.210180	49.895946
522.640585	50.276174
523.070973	50.688080
523.501343	51.119528
523.931696	51.571276
524.362031	52.024903
524.792349	52.484777
525.222650	52.922726
525.652933	53.327181
526.083198	53.707787
526.513446	54.053508
526.943677	54.364055
527.373890	54.635191
527.804085	54.891760
528.234262	55.137039
528.664422	55.385929
529.094565	55.628896
529.524689	55.883038
529.954796	56.158099
530.384885	56.451824
530.814957	56.767826
531.245011	57.103114
531.675047	57.447019
532.105065	57.793470
532.535065	58.153848
532.965048	58.510737
533.395013	58.856046
533.824959	59.177551
534.254888	59.485374
534.684799	59.774848
535.114693	60.047727
535.544568	60.283396
535.974425	60.488986
536.404264	60.670120
536.834086	60.830412
537.263889	60.961725
537.693674	61.077935
538.123441	61.183579
538.553190	61.293868
538.982921	61.411376
539.412634	61.526574
539.842329	61.665592
540.272006	61.826329
540.701664	62.002894
541.131304	62.207458
541.560926	62.429075
541.990530	62.665559
542.420116	62.920219
542.849683	63.172231
543.279232	63.415301
543.708763	63.652742
544.138275	63.871647
544.567769	64.073395
544.997245	64.247499
545.426702	64.398753
545.856141	64.524241
546.285562	64.634189
546.714964	64.718028
547.144347	64.805509
547.573713	64.882095
548.003059	64.963859
548.432387	65.055109
548.861697	65.142246
549.290988	65.247709
549.720260	65.360131
550.149514	65.485064
550.578750	65.626324
551.007966	65.780437
551.437164	65.932454
551.866344	66.082856
552.295504	66.223369
552.724646	66.352444
553.153769	66.459854
553.582874	66.538646
554.011960	66.590331
554.441027	66.593132
554.870075	66.565969
555.299104	66.506162
555.728115	66.403086
556.157106	66.278308
556.586079	66.132217
557.015033	65.964482
557.443968	65.783293
557.872884	65.611277
558.301781	65.448528
558.730659	65.284554
559.159518	65.136430
559.588358	65.003593
560.017180	64.901921
560.445982	64.822583
560.874765	64.763492
561.303528	64.719561
561.732273	64.685826
562.160999	64.668922
562.589705	64.666836
563.018393	64.666087
563.447061	64.671639
563.875710	64.667894
564.304340	64.666455
564.732950	64.665069
565.161542	64.643384
565.590114	64.625619
566.018666	64.595570
566.447200	64.553173
566.875714	64.505274
567.304208	64.453553
567.732684	64.394642
568.161140	64.328589
568.589576	64.256400
569.017993	64.192447
569.446391	64.117505
569.874769	64.056973
570.303128	63.996370
570.731467	63.943535
571.159787	63.878850
571.588087	63.823978
572.016368	63.780959
572.444629	63.738875
572.872870	63.697122
573.301092	63.649441
573.729294	63.580749
574.157476	63.504488
574.585639	63.397998
575.013782	63.273406
575.441906	63.127727
575.870009	62.938587
576.298093	62.735657
576.726157	62.502435
577.154202	62.258910
577.582226	61.997979
578.010231	61.729773
578.438216	61.465347
578.866181	61.198243
579.294126	60.947002
579.722051	60.714346
580.149957	60.497835
580.577842	60.294181
581.005707	60.116885
581.433553	59.958779
581.861378	59.812647
582.289184	59.676995
582.716969	59.563100
583.144734	59.455874
583.572479	59.364936
584.000205	59.275025
584.427910	59.198032
584.855594	59.110269
585.283259	59.033324
585.710904	58.954813
586.138528	58.874350
586.566132	58.793128
586.993716	58.715408
587.421280	58.629821
587.848823	58.547506
588.276346	58.456037
588.703849	58.352629
589.131332	58.253192
589.558794	58.139032
589.986236	58.023084
590.413657	57.890057
590.841058	57.746630
591.268438	57.597255
591.695799	57.448011
592.123138	57.295431
592.550458	57.133759
592.977756	56.974549
593.405034	56.818272
593.832292	56.674813
594.259529	56.533549
594.686746	56.399498
595.113942	56.277335
595.541117	56.161482
595.968272	56.044339
596.395406	55.919436
596.822519	55.789302
597.249612	55.649554
597.676684	55.500402
598.103735	55.336257
598.530766	55.147569
598.957775	54.943284
599.384764	54.713366
599.811733	54.472935
600.238680	54.217180
600.665606	53.946370
601.092512	53.673683
601.519397	53.387820
601.946261	53.108533
602.373104	52.833291
602.799926	52.557378
603.226727	52.277008
603.653507	52.008917
604.080266	51.746510
604.507004	51.477160
604.933721	51.203162
605.360417	50.926613
605.787092	50.645323
606.213746	50.353111
606.640379	50.046941
607.066991	49.725604
607.493581	49.399503
607.920150	49.051532
608.346699	48.689919
608.773226	48.319918
609.199731	47.948063
609.626216	47.578137
610.052679	47.199013
610.479121	46.836417
610.905542	46.470467
611.331941	46.121360
611.758319	45.779165
612.184676	45.450869
612.611011	45.136388
613.037325	44.829345
613.463617	44.535919
613.889888	44.246251
614.316138	43.962295
614.742366	43.695240
615.168573	43.434151
615.594758	43.178070
616.020921	42.939822
616.447063	42.720744
616.873184	42.520871
617.299283	42.334057
617.725360	42.176902
618.151416	42.042360
618.577450	41.935762
619.003462	41.864538
619.429453	41.817427
619.855422	41.804607
620.281369	41.820489
620.707295	41.860750
621.133199	41.935906
621.559081	42.034739
621.984941	42.148906
622.410779	42.278089
622.836596	42.408373
623.262391	42.554825
623.688163	42.692115
624.113914	42.831884
624.539644	42.974519
624.965351	43.114564
625.391036	43.241866
625.816699	43.364396
626.242340	43.483156
626.667960	43.594791
627.093557	43.709258
627.519132	43.819819
627.944685	43.926726
628.370216	44.036903
628.795725	44.141864
629.221212	44.235527
629.646677	44.321283
630.072119	44.393141
630.497540	44.456783
630.922938	44.505208
631.348314	44.541263
631.773668	44.555620
632.198999	44.548503
632.624308	44.534582
633.049595	44.509487
633.474860	44.471551
633.900102	44.431720
634.325322	44.383428
634.750520	44.337858
635.175695	44.299590
635.600848	44.269642
636.025978	44.259561
636.451086	44.263975
636.876171	44.287282
637.301234	44.333192
637.726275	44.390722
638.151293	44.468760
638.576288	44.568490
639.001261	44.688162
639.426211	44.824397
639.851139	44.970059
640.276044	45.131436
640.700927	45.300663
641.125787	45.475759
641.550624	45.646932
641.975438	45.823204
642.400230	46.001375
642.824999	46.175378
643.249745	46.349516
643.674469	46.527861
644.099169	46.703455
644.523847	46.882405
644.948502	47.069602
645.373135	47.266364
645.797744	47.461462
646.222330	47.655878
646.646894	47.852052
647.071435	48.047002
647.495953	48.237427
647.920447	48.424091
648.344919	48.601545
648.769368	48.769824
649.193794	48.919832
649.618197	49.054908
650.042576	49.168350
650.466933	49.270585
650.891267	49.349242
651.315577	49.404039
651.739864	49.444583
652.164129	49.463012
652.588370	49.460557
653.012587	49.440490
653.436782	49.398914
653.860953	49.353800
654.285102	49.298238
654.709226	49.231584
655.133328	49.157955
655.557406	49.085809
655.981461	49.015511
656.405493	48.949894
656.829501	48.873214
657.253486	48.792515
657.677448	48.709569
658.101386	48.626316
658.525301	48.531645
658.949192	48.433250
659.373060	48.331412
659.796904	48.224438
660.220725	48.107178
660.644522	47.989487
661.068296	47.865829
661.492046	47.743982
661.915772	47.620858
662.339475	47.507347
662.763154	47.400469
663.186810	47.309969
663.610442	47.228651
664.034050	47.169014
664.457635	47.131509
664.881196	47.114366
665.304733	47.119243
665.728247	47.154762
666.151736	47.214004
666.575202	47.301377
666.998644	47.409263
667.422062	47.537976
667.845457	47.692936
668.268827	47.863908
668.692174	48.044924
669.115496	48.234420
669.538795	48.421383
669.962070	48.617008
670.385321	48.812845
670.808547	48.999358
671.231750	49.169949
671.654929	49.330059
672.078084	49.475715
672.501214	49.600603
672.924321	49.709779
673.347404	49.803898
673.770462	49.884289
674.193496	49.951126
674.616506	50.002603
675.039492	50.043008
675.462454	50.066418
675.885391	50.076930
676.308305	50.086147
676.731194	50.089253
677.154058	50.085927
677.576899	50.075323
677.999715	50.060015
678.422507	50.039914
678.845274	50.015450
679.268017	49.997444
679.690736	49.963737
680.113430	49.924175
680.536100	49.878880
680.958746	49.830722
681.381367	49.772662
681.803963	49.714193
682.226535	49.650976
682.649083	49.589421
683.071605	49.527923
683.494104	49.464395
683.916578	49.405820
684.339027	49.353473
684.761451	49.309544
685.183851	49.272167
685.606227	49.236262
686.028577	49.206073
686.450903	49.184431
686.873204	49.160734
687.295481	49.133588
687.717733	49.109994
688.139959	49.086642
688.562162	49.062816
688.984339	49.033589
689.406492	48.993237
689.828619	48.944336
690.250722	48.880885
690.672800	48.811026
691.094853	48.727812
691.516881	48.644844
691.938884	48.543540
692.360863	48.430021
692.782816	48.320903
693.204744	48.206014
693.626647	48.092993
694.048526	47.976102
694.470379	47.871820
694.892207	47.774483
695.314010	47.693184
695.735788	47.627477
696.157540	47.575795
696.579268	47.543434
697.000970	47.530608
697.422648	47.537152
697.844300	47.557117
698.265926	47.598590
698.687528	47.665449
699.109104	47.752990
699.530655	47.847037
699.952181	47.965119
