Time1=100ms:Average1=5:Objective=10X:Aperture=1: (11/28/2018 9:27:23 AM)
11/28/2018 9:27:23 AM
Reflectance
10X
Ap#: 1
Avg1: 5.000000
Avg2: 0.000000
Int.Time1:100.000000
Int.Time2:0.000000
420.190645	14.411150
420.624620	14.241759
421.058582	14.071126
421.492531	13.903933
421.926468	13.749237
422.360391	13.622979
422.794301	13.513549
423.228199	13.409425
423.662083	13.317266
424.095955	13.247912
424.529813	13.176226
424.963658	13.106992
425.397491	13.039357
425.831310	12.956514
426.265116	12.876379
426.698909	12.776474
427.132689	12.687618
427.566455	12.597536
428.000209	12.523586
428.433949	12.464274
428.867676	12.423626
429.301389	12.381632
429.735090	12.336454
430.168777	12.262347
430.602451	12.196103
431.036111	12.121592
431.469759	12.043181
431.903392	11.961316
432.337013	11.889556
432.770620	11.822342
433.204213	11.789700
433.637794	11.771742
434.071360	11.770940
434.504914	11.796613
434.938453	11.844539
435.371979	11.897904
435.805492	11.959961
436.238991	12.028324
436.672477	12.101946
437.105949	12.171518
437.539407	12.224486
437.972852	12.286734
438.406283	12.344974
438.839700	12.416300
439.273104	12.503053
439.706494	12.602417
440.139871	12.727959
440.573233	12.857555
441.006582	13.000618
441.439917	13.143191
441.873238	13.268941
442.306546	13.394411
442.739839	13.508929
443.173119	13.626942
443.606385	13.747597
444.039636	13.880420
444.472874	14.018765
444.906099	14.170115
445.339309	14.342561
445.772505	14.524444
446.205687	14.712522
446.638855	14.912109
447.072009	15.115709
447.505149	15.330389
447.938275	15.533946
448.371387	15.741420
448.804485	15.940106
449.237569	16.109229
449.670638	16.266400
450.103694	16.411934
450.536735	16.536072
450.969762	16.664940
451.402774	16.798803
451.835773	16.944897
452.268757	17.087137
452.701727	17.239262
453.134683	17.388971
453.567624	17.533156
454.000551	17.675566
454.433464	17.795807
454.866362	17.905555
455.299246	18.009645
455.732116	18.093308
456.164971	18.180888
456.597811	18.261522
457.030638	18.328352
457.463449	18.393975
457.896246	18.456599
458.329029	18.516064
458.761797	18.564533
459.194551	18.607810
459.627290	18.653069
460.060014	18.692146
460.492724	18.729453
460.925419	18.758723
461.358099	18.787544
461.790765	18.810746
462.223416	18.824605
462.656052	18.841673
463.088674	18.847814
463.521281	18.852663
463.953873	18.865300
464.386450	18.880890
464.819012	18.896257
465.251560	18.911370
465.684093	18.933716
466.116611	18.956555
466.549114	18.992376
466.981602	19.022248
467.414075	19.060283
467.846533	19.095404
468.278977	19.121768
468.711405	19.155903
469.143818	19.189126
469.576216	19.209565
470.008600	19.215025
470.440968	19.227385
470.873321	19.236317
471.305659	19.239919
471.737982	19.247561
472.170289	19.265364
472.602582	19.286605
473.034859	19.321681
473.467122	19.360574
473.899369	19.412322
474.331600	19.482094
474.763817	19.566127
475.196018	19.674963
475.628204	19.807113
476.060375	19.958862
476.492530	20.132792
476.924670	20.309481
477.356795	20.496235
477.788904	20.681816
478.220998	20.862646
478.653076	21.036003
479.085139	21.224456
479.517186	21.413414
479.949219	21.608902
480.381235	21.823461
480.813236	22.049155
481.245221	22.301301
481.677191	22.567058
482.109146	22.843068
482.541084	23.123843
482.973008	23.406340
483.404915	23.693644
483.836807	23.970936
484.268683	24.237581
484.700544	24.494980
485.132388	24.740437
485.564217	24.960833
485.996031	25.181278
486.427828	25.389475
486.859610	25.595850
487.291376	25.805719
487.723126	26.000522
488.154860	26.213878
488.586579	26.416935
489.018281	26.631355
489.449968	26.862626
489.881639	27.105407
490.313293	27.369949
490.744932	27.642821
491.176555	27.925705
491.608162	28.206214
492.039753	28.484678
492.471328	28.722737
492.902886	28.930835
493.334429	29.104550
493.765956	29.250551
494.197466	29.369381
494.628960	29.468835
495.060439	29.569388
495.491901	29.680081
495.923347	29.807132
496.354776	29.958405
496.786190	30.137582
497.217587	30.337820
497.648968	30.555840
498.080332	30.780135
498.511681	31.001030
498.943013	31.226960
499.374328	31.432033
499.805628	31.616713
500.236911	31.775523
500.668177	31.913377
501.099427	32.034207
501.530661	32.115474
501.961878	32.189139
502.393079	32.239066
502.824264	32.266142
503.255431	32.287595
503.686583	32.304454
504.117717	32.322318
504.548835	32.350295
504.979937	32.409494
505.411022	32.490064
505.842090	32.606684
506.273142	32.755903
506.704177	32.937089
507.135195	33.129351
507.566197	33.330000
507.997182	33.524253
508.428150	33.702504
508.859102	33.852209
509.290036	33.967849
509.720954	34.055962
510.151855	34.111109
510.582739	34.148943
511.013607	34.183465
511.444457	34.217659
511.875291	34.279225
512.306107	34.369693
512.736907	34.498351
513.167690	34.662050
513.598456	34.861268
514.029205	35.080323
514.459936	35.323969
514.890651	35.581482
515.321349	35.834262
515.752030	36.089593
516.182693	36.340272
516.613340	36.567230
517.043969	36.775499
517.474582	36.966821
517.905177	37.136046
518.335755	37.275569
518.766315	37.398583
519.196859	37.513187
519.627385	37.620642
520.057894	37.718529
520.488386	37.831244
520.918860	37.952035
521.349318	38.102342
521.779757	38.290103
522.210180	38.519203
522.640585	38.802565
523.070973	39.128706
523.501343	39.506200
523.931696	39.928113
524.362031	40.381847
524.792349	40.866001
525.222650	41.347858
525.652933	41.834120
526.083198	42.307423
526.513446	42.768048
526.943677	43.217090
527.373890	43.656246
527.804085	44.092022
528.234262	44.527127
528.664422	44.976916
529.094565	45.442147
529.524689	45.932081
529.954796	46.461568
530.384885	47.029636
530.814957	47.628066
531.245011	48.258274
531.675047	48.918940
532.105065	49.597537
532.535065	50.288535
532.965048	50.977530
533.395013	51.661293
533.824959	52.327016
534.254888	52.976315
534.684799	53.599043
535.114693	54.191560
535.544568	54.749240
535.974425	55.245603
536.404264	55.708413
536.834086	56.120034
537.263889	56.486638
537.693674	56.806690
538.123441	57.103803
538.553190	57.383075
538.982921	57.635859
539.412634	57.880467
539.842329	58.132065
540.272006	58.388816
540.701664	58.643484
541.131304	58.915257
541.560926	59.214122
541.990530	59.515386
542.420116	59.819729
542.849683	60.125926
543.279232	60.431601
543.708763	60.725341
544.138275	61.012396
544.567769	61.274599
544.997245	61.529119
545.426702	61.756502
545.856141	61.976233
546.285562	62.183180
546.714964	62.385533
547.144347	62.581872
547.573713	62.783483
548.003059	62.987300
548.432387	63.200563
548.861697	63.415285
549.290988	63.661898
549.720260	63.920128
550.149514	64.202780
550.578750	64.497361
551.007966	64.800343
551.437164	65.099347
551.866344	65.405280
552.295504	65.692630
552.724646	65.975587
553.153769	66.225932
553.582874	66.447887
554.011960	66.642831
554.441027	66.785554
554.870075	66.867697
555.299104	66.904770
555.728115	66.897907
556.157106	66.849061
556.586079	66.742900
557.015033	66.614889
557.443968	66.458950
557.872884	66.290176
558.301781	66.097996
558.730659	65.922536
559.159518	65.739961
559.588358	65.575921
560.017180	65.415349
560.445982	65.274805
560.874765	65.163396
561.303528	65.078230
561.732273	65.007258
562.160999	64.965217
562.589705	64.934019
563.018393	64.923739
563.447061	64.930648
563.875710	64.948851
564.304340	64.987474
564.732950	65.036841
565.161542	65.101062
565.590114	65.191709
566.018666	65.280961
566.447200	65.378549
566.875714	65.489475
567.304208	65.605081
567.732684	65.724395
568.161140	65.858966
568.589576	65.993253
569.017993	66.141624
569.446391	66.290363
569.874769	66.456822
570.303128	66.613708
570.731467	66.780982
571.159787	66.960989
571.588087	67.145287
572.016368	67.323053
572.444629	67.491602
572.872870	67.660013
573.301092	67.815079
573.729294	67.952152
574.157476	68.050954
574.585639	68.115384
575.013782	68.145175
575.441906	68.133538
575.870009	68.086219
576.298093	67.983438
576.726157	67.850328
577.154202	67.675636
577.582226	67.470018
578.010231	67.239533
578.438216	66.990129
578.866181	66.719471
579.294126	66.451757
579.722051	66.180263
580.149957	65.917618
580.577842	65.656938
581.005707	65.408162
581.433553	65.158266
581.861378	64.937354
582.289184	64.716347
582.716969	64.502679
583.144734	64.299061
583.572479	64.111576
584.000205	63.924666
584.427910	63.750792
584.855594	63.578195
585.283259	63.416384
585.710904	63.264585
586.138528	63.119069
586.566132	62.984421
586.993716	62.859425
587.421280	62.745266
587.848823	62.643057
588.276346	62.548217
588.703849	62.461687
589.131332	62.379441
589.558794	62.313194
589.986236	62.240256
590.413657	62.180765
590.841058	62.124647
591.268438	62.068388
591.695799	62.014859
592.123138	61.973199
592.550458	61.937332
592.977756	61.920107
593.405034	61.904354
593.832292	61.905163
594.259529	61.916556
594.686746	61.942828
595.113942	61.972800
595.541117	62.015604
595.968272	62.074455
596.395406	62.130970
596.822519	62.181995
597.249612	62.228266
597.676684	62.247047
598.103735	62.250895
598.530766	62.230830
598.957775	62.197380
599.384764	62.129125
599.811733	62.042843
600.238680	61.932662
600.665606	61.801637
601.092512	61.648013
601.519397	61.475716
601.946261	61.298419
602.373104	61.111380
602.799926	60.914063
603.226727	60.704997
603.653507	60.489904
604.080266	60.267710
604.507004	60.038828
604.933721	59.804875
605.360417	59.554948
605.787092	59.285862
606.213746	58.997836
606.640379	58.694285
607.066991	58.372550
607.493581	58.037286
607.920150	57.685397
608.346699	57.314168
608.773226	56.937403
609.199731	56.543990
609.626216	56.149009
610.052679	55.748264
610.479121	55.350557
610.905542	54.955492
611.331941	54.569522
611.758319	54.196193
612.184676	53.823189
612.611011	53.450413
613.037325	53.080854
613.463617	52.714612
613.889888	52.342075
614.316138	51.967900
614.742366	51.591047
615.168573	51.208331
615.594758	50.825155
616.020921	50.442674
616.447063	50.062847
616.873184	49.684232
617.299283	49.314709
617.725360	48.945910
618.151416	48.585541
618.577450	48.238425
619.003462	47.903439
619.429453	47.581499
619.855422	47.274187
620.281369	46.979261
620.707295	46.699391
621.133199	46.425340
621.559081	46.162132
621.984941	45.892055
622.410779	45.625095
622.836596	45.345920
623.262391	45.065420
623.688163	44.776053
624.113914	44.479588
624.539644	44.166998
624.965351	43.841641
625.391036	43.506105
625.816699	43.173448
626.242340	42.833262
626.667960	42.493250
627.093557	42.161304
627.519132	41.834411
627.944685	41.523486
628.370216	41.223440
628.795725	40.938118
629.221212	40.662396
629.646677	40.411198
630.072119	40.169905
630.497540	39.939692
630.922938	39.735915
631.348314	39.541381
631.773668	39.361966
632.198999	39.201580
632.624308	39.055930
633.049595	38.929092
633.474860	38.824424
633.900102	38.736884
634.325322	38.677905
634.750520	38.648353
635.175695	38.647744
635.600848	38.678543
636.025978	38.745084
636.451086	38.847708
636.876171	38.984078
637.301234	39.157506
637.726275	39.369399
638.151293	39.613719
638.576288	39.890172
639.001261	40.194250
639.426211	40.522970
639.851139	40.873567
640.276044	41.243945
640.700927	41.630201
641.125787	42.024258
641.550624	42.427999
641.975438	42.829304
642.400230	43.235774
642.824999	43.630801
643.249745	44.024565
643.674469	44.411398
644.099169	44.792712
644.523847	45.163809
644.948502	45.529485
645.373135	45.887477
645.797744	46.230947
646.222330	46.558979
646.646894	46.874127
647.071435	47.173052
647.495953	47.451375
647.920447	47.709381
648.344919	47.944633
648.769368	48.158435
649.193794	48.350966
649.618197	48.511607
650.042576	48.651489
650.466933	48.765268
650.891267	48.849558
651.315577	48.911640
651.739864	48.952726
652.164129	48.970369
652.588370	48.967000
653.012587	48.943228
653.436782	48.895669
653.860953	48.838507
654.285102	48.769770
654.709226	48.685756
655.133328	48.597750
655.557406	48.499850
655.981461	48.399474
656.405493	48.298024
656.829501	48.194887
657.253486	48.081781
657.677448	47.961279
658.101386	47.838792
658.525301	47.700715
658.949192	47.563853
659.373060	47.418121
659.796904	47.267177
660.220725	47.113455
660.644522	46.962321
661.068296	46.799012
661.492046	46.636527
661.915772	46.478639
662.339475	46.318054
662.763154	46.161771
663.186810	46.008400
663.610442	45.862149
664.034050	45.727879
664.457635	45.603948
664.881196	45.493518
665.304733	45.395705
665.728247	45.315990
666.151736	45.254774
666.575202	45.219028
666.998644	45.197168
667.422062	45.188525
667.845457	45.192985
668.268827	45.209870
668.692174	45.234617
669.115496	45.265636
669.538795	45.299953
669.962070	45.332089
670.385321	45.358862
670.808547	45.385362
671.231750	45.402924
671.654929	45.413583
672.078084	45.411685
672.501214	45.401341
672.924321	45.380126
673.347404	45.348584
673.770462	45.298855
674.193496	45.251726
674.616506	45.198637
675.039492	45.131386
675.462454	45.069168
675.885391	45.007506
676.308305	44.951276
676.731194	44.897817
677.154058	44.845616
677.576899	44.799227
677.999715	44.756886
678.422507	44.720887
678.845274	44.690177
679.268017	44.661567
679.690736	44.632928
680.113430	44.610343
680.536100	44.589464
680.958746	44.575295
681.381367	44.561812
681.803963	44.553685
682.226535	44.554558
682.649083	44.555786
683.071605	44.562489
683.494104	44.583601
683.916578	44.616361
684.339027	44.656678
684.761451	44.707233
685.183851	44.767471
685.606227	44.837256
686.028577	44.917115
686.450903	45.003797
686.873204	45.100893
687.295481	45.196882
687.717733	45.299455
688.139959	45.401963
688.562162	45.503328
688.984339	45.601495
689.406492	45.691039
689.828619	45.775086
690.250722	45.851942
690.672800	45.916988
691.094853	45.970171
691.516881	46.009470
691.938884	46.041334
692.360863	46.058989
692.782816	46.068973
693.204744	46.074630
693.626647	46.077700
694.048526	46.072227
694.470379	46.076507
694.892207	46.081179
695.314010	46.084576
695.735788	46.096949
696.157540	46.120179
696.579268	46.152358
697.000970	46.191454
697.422648	46.241375
697.844300	46.306577
698.265926	46.391747
698.687528	46.485248
699.109104	46.589726
699.530655	46.699694
699.952181	46.824611
