Time1=100ms:Average1=5:Objective=10X:Aperture=1: (11/21/2018 2:54:50 PM)
11/21/2018 2:54:50 PM
Reflectance
10X
Ap#: 1
Avg1: 5.000000
Avg2: 0.000000
Int.Time1:100.000000
Int.Time2:0.000000
420.190645	18.963606
420.624620	18.955783
421.058582	18.934504
421.492531	18.945196
421.926468	18.944946
422.360391	18.972829
422.794301	19.036590
423.228199	19.100177
423.662083	19.188998
424.095955	19.306172
424.529813	19.404572
424.963658	19.517980
425.397491	19.607303
425.831310	19.705124
426.265116	19.795155
426.698909	19.889554
427.132689	19.988002
427.566455	20.107561
428.000209	20.253364
428.433949	20.385803
428.867676	20.521180
429.301389	20.653311
429.735090	20.780401
430.168777	20.894853
430.602451	20.996330
431.036111	21.083926
431.469759	21.170064
431.903392	21.268449
432.337013	21.347870
432.770620	21.431605
433.204213	21.513214
433.637794	21.629140
434.071360	21.732709
434.504914	21.857779
434.938453	21.981894
435.371979	22.119702
435.805492	22.268838
436.238991	22.396337
436.672477	22.511579
437.105949	22.629718
437.539407	22.715077
437.972852	22.800122
438.406283	22.906578
438.839700	23.009264
439.273104	23.106682
439.706494	23.204361
440.139871	23.308487
440.573233	23.416383
441.006582	23.507746
441.439917	23.582427
441.873238	23.656451
442.306546	23.726872
442.739839	23.776073
443.173119	23.814710
443.606385	23.848075
444.039636	23.892379
444.472874	23.949159
444.906099	23.999876
445.339309	24.067973
445.772505	24.149330
446.205687	24.242857
446.638855	24.334643
447.072009	24.419656
447.505149	24.515093
447.938275	24.606000
448.371387	24.692097
448.804485	24.768842
449.237569	24.822103
449.670638	24.884995
450.103694	24.928432
450.536735	24.972740
450.969762	25.005218
451.402774	25.047028
451.835773	25.067688
452.268757	25.111562
452.701727	25.166243
453.134683	25.221799
453.567624	25.270039
454.000551	25.321332
454.433464	25.363616
454.866362	25.393335
455.299246	25.428856
455.732116	25.459256
456.164971	25.492461
456.597811	25.514570
457.030638	25.543402
457.463449	25.578951
457.896246	25.592517
458.329029	25.617447
458.761797	25.638342
459.194551	25.655020
459.627290	25.658643
460.060014	25.664662
460.492724	25.669432
460.925419	25.669391
461.358099	25.680180
461.790765	25.665208
462.223416	25.642214
462.656052	25.611070
463.088674	25.567161
463.521281	25.528186
463.953873	25.482432
464.386450	25.425590
464.819012	25.374610
465.251560	25.329209
465.684093	25.268978
466.116611	25.208212
466.549114	25.149494
466.981602	25.093788
467.414075	25.021049
467.846533	24.946363
468.278977	24.868128
468.711405	24.775560
469.143818	24.677467
469.576216	24.572556
470.008600	24.465817
470.440968	24.339068
470.873321	24.205311
471.305659	24.062997
471.737982	23.917171
472.170289	23.764528
472.602582	23.605678
473.034859	23.452576
473.467122	23.296441
473.899369	23.152213
474.331600	23.015834
474.763817	22.874960
475.196018	22.753848
475.628204	22.639835
476.060375	22.533512
476.492530	22.425014
476.924670	22.328628
477.356795	22.227740
477.788904	22.140445
478.220998	22.044548
478.653076	21.952135
479.085139	21.868033
479.517186	21.796091
479.949219	21.737649
480.381235	21.694915
480.813236	21.681160
481.245221	21.685358
481.677191	21.707435
482.109146	21.740354
482.541084	21.783740
482.973008	21.836669
483.404915	21.901238
483.836807	21.976218
484.268683	22.064097
484.700544	22.157065
485.132388	22.256011
485.564217	22.360745
485.996031	22.476138
486.427828	22.595395
486.859610	22.728395
487.291376	22.862972
487.723126	23.015544
488.154860	23.180298
488.586579	23.360012
489.018281	23.553809
489.449968	23.777818
489.881639	24.028401
490.313293	24.293119
490.744932	24.575255
491.176555	24.866928
491.608162	25.172342
492.039753	25.479720
492.471328	25.773022
492.902886	26.053269
493.334429	26.320483
493.765956	26.567926
494.197466	26.805651
494.628960	27.035397
495.060439	27.275025
495.491901	27.524965
495.923347	27.788483
496.354776	28.062642
496.786190	28.349714
497.217587	28.654618
497.648968	28.956331
498.080332	29.269680
498.511681	29.569452
498.943013	29.863706
499.374328	30.144880
499.805628	30.410608
500.236911	30.657060
500.668177	30.884790
501.099427	31.082710
501.530661	31.266882
501.961878	31.433798
502.393079	31.587491
502.824264	31.725722
503.255431	31.856786
503.686583	31.972713
504.117717	32.105512
504.548835	32.244418
504.979937	32.388057
505.411022	32.544345
505.842090	32.727629
506.273142	32.930586
506.704177	33.139684
507.135195	33.362278
507.566197	33.576578
507.997182	33.785202
508.428150	33.972391
508.859102	34.133312
509.290036	34.266162
509.720954	34.376709
510.151855	34.484021
510.582739	34.566745
511.013607	34.658425
511.444457	34.750188
511.875291	34.867197
512.306107	35.003595
512.736907	35.169877
513.167690	35.367158
513.598456	35.590806
514.029205	35.838330
514.459936	36.111423
514.890651	36.396533
515.321349	36.677904
515.752030	36.960635
516.182693	37.229622
516.613340	37.481527
517.043969	37.733150
517.474582	37.966957
517.905177	38.193467
518.335755	38.407389
518.766315	38.609556
519.196859	38.807238
519.627385	38.999772
520.057894	39.192732
520.488386	39.398518
520.918860	39.629153
521.349318	39.888658
521.779757	40.178591
522.210180	40.511488
522.640585	40.884521
523.070973	41.295402
523.501343	41.721043
523.931696	42.182443
524.362031	42.649389
524.792349	43.130818
525.222650	43.609818
525.652933	44.071512
526.083198	44.510957
526.513446	44.929312
526.943677	45.324279
527.373890	45.695596
527.804085	46.064297
528.234262	46.405920
528.664422	46.759966
529.094565	47.114897
529.524689	47.498029
529.954796	47.910247
530.384885	48.337978
530.814957	48.786536
531.245011	49.257362
531.675047	49.746473
532.105065	50.259303
532.535065	50.780556
532.965048	51.297401
533.395013	51.817711
533.824959	52.313913
534.254888	52.783929
534.684799	53.231390
535.114693	53.654165
535.544568	54.046729
535.974425	54.404786
536.404264	54.730931
536.834086	55.032343
537.263889	55.301147
537.693674	55.553784
538.123441	55.800222
538.553190	56.037764
538.982921	56.288584
539.412634	56.547786
539.842329	56.819729
540.272006	57.111964
540.701664	57.430843
541.131304	57.754832
541.560926	58.113710
541.990530	58.493120
542.420116	58.891410
542.849683	59.283285
543.279232	59.665168
543.708763	60.047731
544.138275	60.412191
544.567769	60.755479
544.997245	61.070823
545.426702	61.361127
545.856141	61.624098
546.285562	61.871771
546.714964	62.096689
547.144347	62.319173
547.573713	62.531884
548.003059	62.758285
548.432387	62.989844
548.861697	63.233812
549.290988	63.489604
549.720260	63.773840
550.149514	64.070740
550.578750	64.390622
551.007966	64.734464
551.437164	65.085822
551.866344	65.450182
552.295504	65.817175
552.724646	66.171528
553.153769	66.515489
553.582874	66.837296
554.011960	67.121800
554.441027	67.377856
554.870075	67.596702
555.299104	67.767469
555.728115	67.894074
556.157106	67.995511
556.586079	68.067861
557.015033	68.107243
557.443968	68.129353
557.872884	68.147801
558.301781	68.177319
558.730659	68.183026
559.159518	68.217633
559.588358	68.273206
560.017180	68.335536
560.445982	68.421471
560.874765	68.533239
561.303528	68.652246
561.732273	68.790787
562.160999	68.946387
562.589705	69.115212
563.018393	69.288592
563.447061	69.467735
563.875710	69.656968
564.304340	69.837939
564.732950	70.014069
565.161542	70.182279
565.590114	70.348846
566.018666	70.517746
566.447200	70.672584
566.875714	70.828742
567.304208	70.984033
567.732684	71.132707
568.161140	71.280780
568.589576	71.435697
569.017993	71.600248
569.446391	71.769227
569.874769	71.946134
570.303128	72.147629
570.731467	72.362855
571.159787	72.578316
571.588087	72.794265
572.016368	73.049091
572.444629	73.292979
572.872870	73.529584
573.301092	73.776629
573.729294	73.993677
574.157476	74.187946
574.585639	74.351213
575.013782	74.470816
575.441906	74.547237
575.870009	74.581918
576.298093	74.577045
576.726157	74.525603
577.154202	74.425234
577.582226	74.304611
578.010231	74.160240
578.438216	73.999086
578.866181	73.822439
579.294126	73.637248
579.722051	73.460296
580.149957	73.291007
580.577842	73.137319
581.005707	72.996074
581.433553	72.880662
581.861378	72.770410
582.289184	72.678006
582.716969	72.593750
583.144734	72.520882
583.572479	72.465434
584.000205	72.408325
584.427910	72.365439
584.855594	72.339310
585.283259	72.306627
585.710904	72.286730
586.138528	72.276221
586.566132	72.258349
586.993716	72.264919
587.421280	72.271489
587.848823	72.293939
588.276346	72.323393
588.703849	72.358646
589.131332	72.386547
589.558794	72.416419
589.986236	72.443994
590.413657	72.482658
590.841058	72.505902
591.268438	72.532136
591.695799	72.554454
592.123138	72.590023
592.550458	72.632015
592.977756	72.687420
593.405034	72.754529
593.832292	72.826549
594.259529	72.911855
594.686746	72.996313
595.113942	73.094317
595.541117	73.186597
595.968272	73.286553
596.395406	73.376597
596.822519	73.437283
597.249612	73.487792
597.676684	73.507607
598.103735	73.489455
598.530766	73.443698
598.957775	73.347228
599.384764	73.214140
599.811733	73.059461
600.238680	72.852808
600.665606	72.628045
601.092512	72.374973
601.519397	72.112501
601.946261	71.835705
602.373104	71.556803
602.799926	71.282505
603.226727	71.014752
603.653507	70.745257
604.080266	70.484848
604.507004	70.230778
604.933721	69.981509
605.360417	69.725195
605.787092	69.466221
606.213746	69.205116
606.640379	68.925180
607.066991	68.644781
607.493581	68.359878
607.920150	68.079663
608.346699	67.798197
608.773226	67.528703
609.199731	67.242932
609.626216	66.970383
610.052679	66.713860
610.479121	66.465806
610.905542	66.229516
611.331941	66.012269
611.758319	65.799308
612.184676	65.610463
612.611011	65.427777
613.037325	65.239591
613.463617	65.063023
613.889888	64.871295
614.316138	64.678375
614.742366	64.471658
615.168573	64.253441
615.594758	64.019538
616.020921	63.771618
616.447063	63.513852
616.873184	63.249692
617.299283	62.978035
617.725360	62.698030
618.151416	62.422426
618.577450	62.138770
619.003462	61.871459
619.429453	61.602093
619.855422	61.349588
620.281369	61.108978
620.707295	60.856842
621.133199	60.599326
621.559081	60.335140
621.984941	60.062708
622.410779	59.788158
622.836596	59.498761
623.262391	59.177041
623.688163	58.841455
624.113914	58.493456
624.539644	58.122439
624.965351	57.742357
625.391036	57.350967
625.816699	56.952470
626.242340	56.555522
626.667960	56.159078
627.093557	55.781410
627.519132	55.418029
627.944685	55.072448
628.370216	54.750060
628.795725	54.466597
629.221212	54.191184
629.646677	53.946723
630.072119	53.732188
630.497540	53.531483
630.922938	53.357748
631.348314	53.194135
631.773668	53.050974
632.198999	52.922463
632.624308	52.799285
633.049595	52.688324
633.474860	52.586003
633.900102	52.508371
634.325322	52.446079
634.750520	52.401174
635.175695	52.378930
635.600848	52.387225
636.025978	52.418180
636.451086	52.493052
636.876171	52.590738
637.301234	52.710805
637.726275	52.860676
638.151293	53.040017
638.576288	53.230979
639.001261	53.435983
639.426211	53.653931
639.851139	53.879852
640.276044	54.107635
640.700927	54.327020
641.125787	54.536886
641.550624	54.735229
641.975438	54.912456
642.400230	55.078177
642.824999	55.222553
643.249745	55.335246
643.674469	55.443776
644.099169	55.525903
644.523847	55.604062
644.948502	55.669139
645.373135	55.716747
645.797744	55.766626
646.222330	55.810020
646.646894	55.845262
647.071435	55.877684
647.495953	55.902196
647.920447	55.932217
648.344919	55.948616
648.769368	55.955193
649.193794	55.960874
649.618197	55.946121
650.042576	55.931294
650.466933	55.913943
650.891267	55.892620
651.315577	55.858951
651.739864	55.827642
652.164129	55.793505
652.588370	55.753335
653.012587	55.713105
653.436782	55.673733
653.860953	55.638650
654.285102	55.607987
654.709226	55.580965
655.133328	55.557104
655.557406	55.541764
655.981461	55.529867
656.405493	55.525189
656.829501	55.518991
657.253486	55.521894
657.677448	55.511859
658.101386	55.506245
658.525301	55.499521
658.949192	55.479337
659.373060	55.448634
659.796904	55.406658
660.220725	55.356384
660.644522	55.295983
661.068296	55.223570
661.492046	55.141677
661.915772	55.059728
662.339475	54.969283
662.763154	54.885597
663.186810	54.807487
663.610442	54.731741
664.034050	54.666450
664.457635	54.618197
664.881196	54.592427
665.304733	54.593647
665.728247	54.620249
666.151736	54.680471
666.575202	54.766018
666.998644	54.883289
667.422062	55.029708
667.845457	55.202250
668.268827	55.399345
668.692174	55.614797
669.115496	55.851105
669.538795	56.103635
669.962070	56.369359
670.385321	56.636783
670.808547	56.920817
671.231750	57.197854
671.654929	57.466910
672.078084	57.744539
672.501214	58.009961
672.924321	58.282771
673.347404	58.552572
673.770462	58.825558
674.193496	59.091712
674.616506	59.369359
675.039492	59.643997
675.462454	59.930355
675.885391	60.218399
676.308305	60.501683
676.731194	60.799326
677.154058	61.100045
677.576899	61.413644
677.999715	61.731544
678.422507	62.045148
678.845274	62.363608
679.268017	62.684227
679.690736	63.005109
680.113430	63.316179
680.536100	63.625301
680.958746	63.929805
681.381367	64.228349
681.803963	64.513102
682.226535	64.790456
682.649083	65.050433
683.071605	65.302636
683.494104	65.540802
683.916578	65.761207
684.339027	65.976793
684.761451	66.180171
685.183851	66.361197
685.606227	66.538262
686.028577	66.689433
686.450903	66.822912
686.873204	66.935588
687.295481	67.026146
687.717733	67.082751
688.139959	67.111023
688.562162	67.111996
688.984339	67.088264
689.406492	67.039466
689.828619	66.951744
690.250722	66.838968
690.672800	66.683994
691.094853	66.499036
691.516881	66.298320
691.938884	66.079034
692.360863	65.826830
692.782816	65.562016
693.204744	65.293110
693.626647	65.013954
694.048526	64.740246
694.470379	64.470227
694.892207	64.218602
695.314010	63.980572
695.735788	63.778909
696.157540	63.596029
696.579268	63.448999
697.000970	63.335810
697.422648	63.259890
697.844300	63.219543
698.265926	63.222528
698.687528	63.269147
699.109104	63.347170
699.530655	63.463263
699.952181	63.617751
