Time1=100ms:Average1=5:Objective=10X:Aperture=1: (11/28/2018 9:53:54 AM)
11/28/2018 9:53:54 AM
Reflectance
10X
Ap#: 1
Avg1: 5.000000
Avg2: 0.000000
Int.Time1:100.000000

420.190645	12.258833
420.624620	12.099952
421.058582	11.911987
421.492531	11.735361
421.926468	11.587089
422.360391	11.451934
422.794301	11.352870
423.228199	11.260639
423.662083	11.179133
424.095955	11.129186
424.529813	11.051110
424.963658	10.997572
425.397491	10.972051
425.831310	10.928975
426.265116	10.886766
426.698909	10.828268
427.132689	10.789083
427.566455	10.732065
428.000209	10.710854
428.433949	10.688223
428.867676	10.694473
429.301389	10.694629
429.735090	10.699020
430.168777	10.681634
430.602451	10.665060
431.036111	10.651049
431.469759	10.642680
431.903392	10.628333
432.337013	10.610753
432.770620	10.591986
433.204213	10.598084
433.637794	10.603504
434.071360	10.611955
434.504914	10.638190
434.938453	10.676119
435.371979	10.704618
435.805492	10.739119
436.238991	10.778249
436.672477	10.817998
437.105949	10.860466
437.539407	10.881676
437.972852	10.918913
438.406283	10.951612
438.839700	10.973782
439.273104	11.009790
439.706494	11.052352
440.139871	11.107660
440.573233	11.158629
441.006582	11.220858
441.439917	11.267612
441.873238	11.309436
442.306546	11.349834
442.739839	11.375157
443.173119	11.405604
443.606385	11.436921
444.039636	11.471441
444.472874	11.501130
444.906099	11.549719
445.339309	11.608201
445.772505	11.654272
446.205687	11.712116
446.638855	11.771244
447.072009	11.828148
447.505149	11.897009
447.938275	11.962860
448.371387	12.031605
448.804485	12.107217
449.237569	12.178946
449.670638	12.224505
450.103694	12.281222
450.536735	12.321820
450.969762	12.370783
451.402774	12.430295
451.835773	12.496156
452.268757	12.554632
452.701727	12.618044
453.134683	12.684749
453.567624	12.748171
454.000551	12.817767
454.433464	12.870569
454.866362	12.930566
455.299246	12.992098
455.732116	13.044104
456.164971	13.102450
456.597811	13.157670
457.030638	13.209264
457.463449	13.270504
457.896246	13.333687
458.329029	13.393141
458.761797	13.451344
459.194551	13.519171
459.627290	13.589441
460.060014	13.652785
460.492724	13.726814
460.925419	13.797986
461.358099	13.870271
461.790765	13.947176
462.223416	14.013175
462.656052	14.078948
463.088674	14.150549
463.521281	14.215406
463.953873	14.288592
464.386450	14.361895
464.819012	14.431783
465.251560	14.498534
465.684093	14.574708
466.116611	14.649183
466.549114	14.727552
466.981602	14.805367
467.414075	14.881803
467.846533	14.960560
468.278977	15.033638
468.711405	15.106889
469.143818	15.185685
469.576216	15.258142
470.008600	15.316574
470.440968	15.384951
470.873321	15.440735
471.305659	15.486415
471.737982	15.537211
472.170289	15.589561
472.602582	15.639542
473.034859	15.686104
473.467122	15.732543
473.899369	15.783544
474.331600	15.831238
474.763817	15.883327
475.196018	15.937959
475.628204	16.005610
476.060375	16.076159
476.492530	16.148418
476.924670	16.218790
477.356795	16.286701
477.788904	16.349206
478.220998	16.406162
478.653076	16.453562
479.085139	16.509132
479.517186	16.556987
479.949219	16.607134
480.381235	16.652708
480.813236	16.697198
481.245221	16.753051
481.677191	16.812448
482.109146	16.876759
482.541084	16.936678
482.973008	16.994659
483.404915	17.064060
483.836807	17.120302
484.268683	17.177590
484.700544	17.235792
485.132388	17.282060
485.564217	17.313356
485.996031	17.342966
486.427828	17.372569
486.859610	17.397687
487.291376	17.417578
487.723126	17.428196
488.154860	17.443211
488.586579	17.454047
489.018281	17.459442
489.449968	17.477891
489.881639	17.501703
490.313293	17.531376
490.744932	17.568402
491.176555	17.614347
491.608162	17.655892
492.039753	17.704387
492.471328	17.742765
492.902886	17.772453
493.334429	17.795481
493.765956	17.814057
494.197466	17.829417
494.628960	17.836453
495.060439	17.846598
495.491901	17.858733
495.923347	17.874607
496.354776	17.905565
496.786190	17.943758
497.217587	17.992595
497.648968	18.049466
498.080332	18.118527
498.511681	18.186694
498.943013	18.269341
499.374328	18.350856
499.805628	18.430841
500.236911	18.516232
500.668177	18.608074
501.099427	18.704994
501.530661	18.802342
501.961878	18.906651
502.393079	19.019399
502.824264	19.123438
503.255431	19.237020
503.686583	19.357130
504.117717	19.478950
504.548835	19.615067
504.979937	19.770372
505.411022	19.936180
505.842090	20.119303
506.273142	20.324664
506.704177	20.545807
507.135195	20.777677
507.566197	21.026106
507.997182	21.283874
508.428150	21.543245
508.859102	21.808342
509.290036	22.064737
509.720954	22.326846
510.151855	22.590333
510.582739	22.854070
511.013607	23.125232
511.444457	23.392821
511.875291	23.675405
512.306107	23.969269
512.736907	24.277111
513.167690	24.599907
513.598456	24.929862
514.029205	25.261018
514.459936	25.603056
514.890651	25.944867
515.321349	26.282942
515.752030	26.619973
516.182693	26.963053
516.613340	27.293217
517.043969	27.617029
517.474582	27.942479
517.905177	28.251216
518.335755	28.558578
518.766315	28.862223
519.196859	29.165380
519.627385	29.467802
520.057894	29.773637
520.488386	30.086997
520.918860	30.399195
521.349318	30.728141
521.779757	31.074639
522.210180	31.435331
522.640585	31.828150
523.070973	32.233691
523.501343	32.658254
523.931696	33.103137
524.362031	33.558667
524.792349	34.028796
525.222650	34.497265
525.652933	34.976186
526.083198	35.451867
526.513446	35.927316
526.943677	36.399638
527.373890	36.876521
527.804085	37.353438
528.234262	37.830017
528.664422	38.322977
529.094565	38.824200
529.524689	39.331396
529.954796	39.865639
530.384885	40.410683
530.814957	40.968686
531.245011	41.541141
531.675047	42.131042
532.105065	42.729795
532.535065	43.334732
532.965048	43.946670
533.395013	44.559840
533.824959	45.176678
534.254888	45.797870
534.684799	46.431325
535.114693	47.058704
535.544568	47.676765
535.974425	48.279865
536.404264	48.885854
536.834086	49.479231
537.263889	50.066299
537.693674	50.648848
538.123441	51.242800
538.553190	51.846282
538.982921	52.441213
539.412634	53.044474
539.842329	53.664304
540.272006	54.291844
540.701664	54.923275
541.131304	55.573024
541.560926	56.253003
541.990530	56.931420
542.420116	57.610682
542.849683	58.301948
543.279232	58.992619
543.708763	59.683157
544.138275	60.377272
544.567769	61.059813
544.997245	61.740068
545.426702	62.412665
545.856141	63.079361
546.285562	63.749027
546.714964	64.411989
547.144347	65.073732
547.573713	65.734350
548.003059	66.382824
548.432387	67.036014
548.861697	67.685329
549.290988	68.344388
549.720260	68.996080
550.149514	69.666498
550.578750	70.334950
551.007966	70.998069
551.437164	71.644460
551.866344	72.301950
552.295504	72.945881
552.724646	73.596722
553.153769	74.223350
553.582874	74.848707
554.011960	75.454659
554.441027	76.042939
554.870075	76.588380
555.299104	77.109799
555.728115	77.611273
556.157106	78.090495
556.586079	78.521071
557.015033	78.946189
557.443968	79.345516
557.872884	79.728480
558.301781	80.074293
558.730659	80.417246
559.159518	80.753300
559.588358	81.067972
560.017180	81.374088
560.445982	81.674509
560.874765	81.973820
561.303528	82.272784
561.732273	82.554009
562.160999	82.833485
562.589705	83.103256
563.018393	83.369731
563.447061	83.616178
563.875710	83.849442
564.304340	84.088236
564.732950	84.312058
565.161542	84.533810
565.590114	84.760864
566.018666	84.972720
566.447200	85.169052
566.875714	85.357041
567.304208	85.542413
567.732684	85.712622
568.161140	85.888434
568.589576	86.049450
569.017993	86.212265
569.446391	86.359628
569.874769	86.518937
570.303128	86.652329
570.731467	86.784376
571.159787	86.925163
571.588087	87.068107
572.016368	87.197356
572.444629	87.317403
572.872870	87.456353
573.301092	87.582298
573.729294	87.697799
574.157476	87.804836
574.585639	87.898343
575.013782	87.991740
575.441906	88.083142
575.870009	88.160099
576.298093	88.216836
576.726157	88.266863
577.154202	88.302540
577.582226	88.317627
578.010231	88.342391
578.438216	88.349385
578.866181	88.343202
579.294126	88.336622
579.722051	88.340781
580.149957	88.353425
580.577842	88.361990
581.005707	88.377036
581.433553	88.369598
581.861378	88.397535
582.289184	88.414631
582.716969	88.434144
583.144734	88.458519
583.572479	88.504229
584.000205	88.542068
584.427910	88.590722
584.855594	88.629756
585.283259	88.679433
585.710904	88.729790
586.138528	88.776642
586.566132	88.820313
586.993716	88.864974
587.421280	88.914364
587.848823	88.966320
588.276346	89.009869
588.703849	89.048200
589.131332	89.076490
589.558794	89.108952
589.986236	89.123787
590.413657	89.145469
590.841058	89.158669
591.268438	89.140616
591.695799	89.121862
592.123138	89.105934
592.550458	89.081569
592.977756	89.056862
593.405034	89.012495
593.832292	88.969999
594.259529	88.912795
594.686746	88.870128
595.113942	88.810073
595.541117	88.747323
595.968272	88.686165
596.395406	88.622848
596.822519	88.534696
597.249612	88.440910
597.676684	88.321694
598.103735	88.198022
598.530766	88.048153
598.957775	87.895846
599.384764	87.709491
599.811733	87.520682
600.238680	87.316728
600.665606	87.081003
601.092512	86.827233
601.519397	86.549554
601.946261	86.265697
602.373104	85.982258
602.799926	85.672402
603.226727	85.352714
603.653507	85.022035
604.080266	84.690931
604.507004	84.361490
604.933721	84.021530
605.360417	83.670683
605.787092	83.306016
606.213746	82.924239
606.640379	82.540976
607.066991	82.151250
607.493581	81.767546
607.920150	81.373820
608.346699	80.970931
608.773226	80.575521
609.199731	80.170995
609.626216	79.761097
610.052679	79.350793
610.479121	78.953902
610.905542	78.553381
611.331941	78.154338
611.758319	77.778190
612.184676	77.391205
612.611011	76.999196
613.037325	76.603012
613.463617	76.209103
613.889888	75.807652
614.316138	75.397576
614.742366	74.989974
615.168573	74.576135
615.594758	74.155054
616.020921	73.739104
616.447063	73.323660
616.873184	72.897955
617.299283	72.465074
617.725360	72.023631
618.151416	71.576613
618.577450	71.123810
619.003462	70.665012
619.429453	70.200343
619.855422	69.724274
620.281369	69.241033
620.707295	68.744429
621.133199	68.236691
621.559081	67.715590
621.984941	67.167671
622.410779	66.604538
622.836596	66.007008
623.262391	65.387529
623.688163	64.729750
624.113914	64.047683
624.539644	63.326158
624.965351	62.565102
625.391036	61.766152
625.816699	60.942365
626.242340	60.083023
626.667960	59.190759
627.093557	58.275169
627.519132	57.331994
627.944685	56.374923
628.370216	55.400913
628.795725	54.410671
629.221212	53.408525
629.646677	52.406566
630.072119	51.402668
630.497540	50.406558
630.922938	49.427388
631.348314	48.466045
631.773668	47.523758
632.198999	46.615429
632.624308	45.745969
633.049595	44.926825
633.474860	44.154286
633.900102	43.432647
634.325322	42.766232
634.750520	42.158209
635.175695	41.608595
635.600848	41.119273
636.025978	40.697865
636.451086	40.346284
636.876171	40.060252
637.301234	39.838398
637.726275	39.684655
638.151293	39.593126
638.576288	39.569701
639.001261	39.609821
639.426211	39.707008
639.851139	39.864755
640.276044	40.084393
640.700927	40.356817
641.125787	40.673885
641.550624	41.035891
641.975438	41.437153
642.400230	41.873195
642.824999	42.338330
643.249745	42.824014
643.674469	43.322776
644.099169	43.834962
644.523847	44.344891
644.948502	44.858780
645.373135	45.366491
645.797744	45.854746
646.222330	46.320191
646.646894	46.764548
647.071435	47.183106
647.495953	47.576497
647.920447	47.930428
648.344919	48.245117
648.769368	48.526389
649.193794	48.767422
649.618197	48.957756
650.042576	49.113242
650.466933	49.225871
650.891267	49.299366
651.315577	49.334802
651.739864	49.327313
652.164129	49.291452
652.588370	49.220674
653.012587	49.116443
653.436782	48.978403
653.860953	48.822915
654.285102	48.649587
654.709226	48.455850
655.133328	48.246463
655.557406	48.026275
655.981461	47.798175
656.405493	47.570434
656.829501	47.346263
657.253486	47.120854
657.677448	46.898488
658.101386	46.684723
658.525301	46.476672
658.949192	46.287759
659.373060	46.111043
659.796904	45.949254
660.220725	45.803883
660.644522	45.683364
661.068296	45.579190
661.492046	45.495933
661.915772	45.441059
662.339475	45.409091
662.763154	45.398604
663.186810	45.408697
663.610442	45.442204
664.034050	45.502652
664.457635	45.587281
664.881196	45.700814
665.304733	45.826670
665.728247	45.985324
666.151736	46.164451
666.575202	46.373946
666.998644	46.599942
667.422062	46.845272
667.845457	47.107483
668.268827	47.392760
668.692174	47.694264
669.115496	48.011224
669.538795	48.342459
669.962070	48.683801
670.385321	49.033174
670.808547	49.390710
671.231750	49.748363
671.654929	50.103942
672.078084	50.453899
672.501214	50.798008
672.924321	51.130628
673.347404	51.447910
673.770462	51.729797
674.193496	52.007735
674.616506	52.273175
675.039492	52.495735
675.462454	52.698955
675.885391	52.888380
676.308305	53.053850
676.731194	53.193041
677.154058	53.305226
677.576899	53.391095
677.999715	53.449230
678.422507	53.484549
678.845274	53.489885
679.268017	53.472439
679.690736	53.424075
680.113430	53.355406
680.536100	53.256841
680.958746	53.134737
681.381367	52.986064
681.803963	52.813408
682.226535	52.623177
682.649083	52.407549
683.071605	52.170795
683.494104	51.917550
683.916578	51.651604
684.339027	51.371104
684.761451	51.081619
685.183851	50.778583
685.606227	50.471864
686.028577	50.161514
686.450903	49.848700
686.873204	49.543162
687.295481	49.232742
687.717733	48.925461
688.139959	48.634238
688.562162	48.349552
688.984339	48.067870
689.406492	47.795656
689.828619	47.541779
690.250722	47.302229
690.672800	47.078896
691.094853	46.874946
691.516881	46.689174
691.938884	46.523848
692.360863	46.375772
692.782816	46.249235
693.204744	46.148873
693.626647	46.071968
694.048526	46.018440
694.470379	45.995022
694.892207	45.996953
695.314010	46.020146
695.735788	46.071732
696.157540	46.149777
696.579268	46.256214
697.000970	46.384434
697.422648	46.544298
697.844300	46.729010
698.265926	46.944414
698.687528	47.179237
699.109104	47.434045
699.530655	47.704365
699.952181	47.998523
