Time1=100ms:Average1=5:Objective=10X:Aperture=1: (11/21/2018 2:03:18 PM)
11/21/2018 2:03:18 PM
Reflectance
10X
Ap#: 1
Avg1: 5.000000
Avg2: 0.000000
Int.Time1:100.000000

420.190645	32.102146
420.624620	32.146453
421.058582	32.226198
421.492531	32.322346
421.926468	32.397664
422.360391	32.485198
422.794301	32.600535
423.228199	32.734305
423.662083	32.860081
424.095955	32.994288
424.529813	33.119626
424.963658	33.250300
425.397491	33.383246
425.831310	33.524208
426.265116	33.649661
426.698909	33.786900
427.132689	33.927116
427.566455	34.103956
428.000209	34.276835
428.433949	34.441577
428.867676	34.589498
429.301389	34.750712
429.735090	34.909098
430.168777	35.020450
430.602451	35.137255
431.036111	35.242417
431.469759	35.357871
431.903392	35.460163
432.337013	35.553830
432.770620	35.657188
433.204213	35.742769
433.637794	35.866275
434.071360	35.950046
434.504914	36.052191
434.938453	36.153580
435.371979	36.257257
435.805492	36.372347
436.238991	36.474637
436.672477	36.542990
437.105949	36.649476
437.539407	36.708068
437.972852	36.766995
438.406283	36.846549
438.839700	36.896812
439.273104	36.956007
439.706494	37.007658
440.139871	37.055174
440.573233	37.093205
441.006582	37.120783
441.439917	37.123568
441.873238	37.125709
442.306546	37.110799
442.739839	37.084893
443.173119	37.043155
443.606385	37.012806
444.039636	36.970865
444.472874	36.918051
444.906099	36.865766
445.339309	36.837636
445.772505	36.786570
446.205687	36.766851
446.638855	36.721761
447.072009	36.681391
447.505149	36.648167
447.938275	36.587583
448.371387	36.528454
448.804485	36.448428
449.237569	36.359677
449.670638	36.260572
450.103694	36.141380
450.536735	36.013747
450.969762	35.881630
451.402774	35.746255
451.835773	35.587647
452.268757	35.449649
452.701727	35.297157
453.134683	35.160936
453.567624	35.014033
454.000551	34.869084
454.433464	34.715406
454.866362	34.559638
455.299246	34.413188
455.732116	34.263811
456.164971	34.108830
456.597811	33.956946
457.030638	33.805646
457.463449	33.671947
457.896246	33.520911
458.329029	33.370993
458.761797	33.213908
459.194551	33.079863
459.627290	32.913036
460.060014	32.789161
460.492724	32.648470
460.925419	32.516246
461.358099	32.413294
461.790765	32.287547
462.223416	32.169402
462.656052	32.052667
463.088674	31.941595
463.521281	31.852585
463.953873	31.772556
464.386450	31.692034
464.819012	31.630187
465.251560	31.582324
465.684093	31.544979
466.116611	31.528237
466.549114	31.529692
466.981602	31.545337
467.414075	31.559835
467.846533	31.583000
468.278977	31.618788
468.711405	31.667976
469.143818	31.731319
469.576216	31.805484
470.008600	31.884663
470.440968	31.960435
470.873321	32.048833
471.305659	32.143207
471.737982	32.253415
472.170289	32.374146
472.602582	32.493655
473.034859	32.627090
473.467122	32.756467
473.899369	32.902735
474.331600	33.057284
474.763817	33.214879
475.196018	33.390681
475.628204	33.574640
476.060375	33.764953
476.492530	33.961262
476.924670	34.162869
477.356795	34.361755
477.788904	34.582039
478.220998	34.787096
478.653076	34.990821
479.085139	35.196096
479.517186	35.404286
479.949219	35.589924
480.381235	35.782930
480.813236	35.990613
481.245221	36.205453
481.677191	36.411313
482.109146	36.596573
482.541084	36.786807
482.973008	36.959898
483.404915	37.134920
483.836807	37.296641
484.268683	37.449211
484.700544	37.587340
485.132388	37.708563
485.564217	37.810245
485.996031	37.897397
486.427828	37.967587
486.859610	38.026234
487.291376	38.070706
487.723126	38.112724
488.154860	38.144994
488.586579	38.165343
489.018281	38.193624
489.449968	38.225413
489.881639	38.256017
490.313293	38.289079
490.744932	38.310357
491.176555	38.322808
491.608162	38.342335
492.039753	38.362471
492.471328	38.347265
492.902886	38.313912
493.334429	38.273083
493.765956	38.211698
494.197466	38.134771
494.628960	38.042402
495.060439	37.955618
495.491901	37.876973
495.923347	37.795050
496.354776	37.721810
496.786190	37.650689
497.217587	37.593647
497.648968	37.524645
498.080332	37.474030
498.511681	37.414514
498.943013	37.363148
499.374328	37.315468
499.805628	37.270849
500.236911	37.224630
500.668177	37.170403
501.099427	37.110832
501.530661	37.045524
501.961878	36.999916
502.393079	36.948253
502.824264	36.904765
503.255431	36.871002
503.686583	36.833717
504.117717	36.826950
504.548835	36.836033
504.979937	36.856147
505.411022	36.888061
505.842090	36.953969
506.273142	37.039437
506.704177	37.139578
507.135195	37.263119
507.566197	37.396980
507.997182	37.535043
508.428150	37.686486
508.859102	37.837714
509.290036	37.996557
509.720954	38.157440
510.151855	38.338870
510.582739	38.521265
511.013607	38.728428
511.444457	38.947603
511.875291	39.196091
512.306107	39.463246
512.736907	39.751398
513.167690	40.066603
513.598456	40.399164
514.029205	40.759264
514.459936	41.141528
514.890651	41.545690
515.321349	41.946733
515.752030	42.364632
516.182693	42.780708
516.613340	43.197141
517.043969	43.627089
517.474582	44.060388
517.905177	44.501493
518.335755	44.940350
518.766315	45.370510
519.196859	45.805328
519.627385	46.230553
520.057894	46.655121
520.488386	47.072858
520.918860	47.500217
521.349318	47.949412
521.779757	48.401025
522.210180	48.873097
522.640585	49.359449
523.070973	49.859444
523.501343	50.362160
523.931696	50.889810
524.362031	51.421650
524.792349	51.961794
525.222650	52.497321
525.652933	53.033765
526.083198	53.564437
526.513446	54.079392
526.943677	54.589994
527.373890	55.084113
527.804085	55.589580
528.234262	56.071969
528.664422	56.566519
529.094565	57.059489
529.524689	57.570480
529.954796	58.103779
530.384885	58.646979
530.814957	59.195360
531.245011	59.754811
531.675047	60.335539
532.105065	60.947734
532.535065	61.563590
532.965048	62.199767
533.395013	62.848483
533.824959	63.498485
534.254888	64.134638
534.684799	64.780639
535.114693	65.425372
535.544568	66.061158
535.974425	66.673838
536.404264	67.274477
536.834086	67.853110
537.263889	68.408359
537.693674	68.939580
538.123441	69.457920
538.553190	69.964439
538.982921	70.463537
539.412634	70.961398
539.842329	71.463717
540.272006	71.974392
540.701664	72.505523
541.131304	73.023435
541.560926	73.564446
541.990530	74.117219
542.420116	74.674595
542.849683	75.222408
543.279232	75.757047
543.708763	76.290184
544.138275	76.810776
544.567769	77.312422
544.997245	77.771393
545.426702	78.210352
545.856141	78.631245
546.285562	79.036030
546.714964	79.410114
547.144347	79.791540
547.573713	80.172184
548.003059	80.559382
548.432387	80.960999
548.861697	81.373870
549.290988	81.793122
549.720260	82.248976
550.149514	82.713973
550.578750	83.201938
551.007966	83.723115
551.437164	84.257691
551.866344	84.815711
552.295504	85.381562
552.724646	85.943074
553.153769	86.505454
553.582874	87.065617
554.011960	87.593055
554.441027	88.104766
554.870075	88.596066
555.299104	89.051705
555.728115	89.489753
556.157106	89.914117
556.586079	90.310573
557.015033	90.678371
557.443968	91.031390
557.872884	91.378745
558.301781	91.749211
558.730659	92.080336
559.159518	92.429710
559.588358	92.785262
560.017180	93.150348
560.445982	93.509020
560.874765	93.882589
561.303528	94.245364
561.732273	94.598392
562.160999	94.955774
562.589705	95.312046
563.018393	95.656030
563.447061	95.996388
563.875710	96.339516
564.304340	96.658735
564.732950	96.975369
565.161542	97.259317
565.590114	97.547039
566.018666	97.829515
566.447200	98.106818
566.875714	98.377162
567.304208	98.651280
567.732684	98.922650
568.161140	99.197842
568.589576	99.464465
569.017993	99.727895
569.446391	99.993550
569.874769	100.261297
570.303128	100.545759
570.731467	100.834317
571.159787	101.113672
571.588087	101.377842
572.016368	101.690740
572.444629	101.976193
572.872870	102.256126
573.301092	102.542876
573.729294	102.806190
574.157476	103.049709
574.585639	103.280761
575.013782	103.491187
575.441906	103.671837
575.870009	103.836210
576.298093	103.980824
576.726157	104.109899
577.154202	104.194875
577.582226	104.279620
578.010231	104.347316
578.438216	104.420179
578.866181	104.478037
579.294126	104.536706
579.722051	104.588919
580.149957	104.644079
580.577842	104.717938
581.005707	104.782944
581.433553	104.869580
581.861378	104.959405
582.289184	105.062131
582.716969	105.162204
583.144734	105.271862
583.572479	105.389967
584.000205	105.490391
584.427910	105.602870
584.855594	105.727160
585.283259	105.811528
585.710904	105.918585
586.138528	106.019377
586.566132	106.094162
586.993716	106.182142
587.421280	106.257870
587.848823	106.329482
588.276346	106.385450
588.703849	106.426751
589.131332	106.439264
589.558794	106.436733
589.986236	106.406048
590.413657	106.378110
590.841058	106.314487
591.268438	106.234621
591.695799	106.135986
592.123138	106.038223
592.550458	105.928942
592.977756	105.814337
593.405034	105.693573
593.832292	105.553750
594.259529	105.420211
594.686746	105.277115
595.113942	105.146550
595.541117	104.994192
595.968272	104.848574
596.395406	104.690087
596.822519	104.512116
597.249612	104.338054
597.676684	104.151140
598.103735	103.943736
598.530766	103.732060
598.957775	103.485558
599.384764	103.221305
599.811733	102.969574
600.238680	102.690315
600.665606	102.408772
601.092512	102.117444
601.519397	101.834436
601.946261	101.552067
602.373104	101.288439
602.799926	101.029125
603.226727	100.784028
603.653507	100.535452
604.080266	100.298294
604.507004	100.066696
604.933721	99.842900
605.360417	99.609133
605.787092	99.372048
606.213746	99.143072
606.640379	98.898110
607.066991	98.652288
607.493581	98.406566
607.920150	98.149692
608.346699	97.878831
608.773226	97.619609
609.199731	97.327308
609.626216	97.034946
610.052679	96.735135
610.479121	96.419528
610.905542	96.086621
611.331941	95.749215
611.758319	95.399421
612.184676	95.050607
612.611011	94.688867
613.037325	94.292735
613.463617	93.892897
613.889888	93.458537
614.316138	93.009555
614.742366	92.538365
615.168573	92.039689
615.594758	91.504194
616.020921	90.950937
616.447063	90.369273
616.873184	89.772916
617.299283	89.157472
617.725360	88.529493
618.151416	87.888794
618.577450	87.222112
619.003462	86.561735
619.429453	85.879745
619.855422	85.204576
620.281369	84.534923
620.707295	83.845061
621.133199	83.144777
621.559081	82.441489
621.984941	81.728004
622.410779	81.013882
622.836596	80.284059
623.262391	79.533797
623.688163	78.775601
624.113914	78.009468
624.539644	77.229673
624.965351	76.444833
625.391036	75.646123
625.816699	74.840480
626.242340	74.031793
626.667960	73.212111
627.093557	72.404497
627.519132	71.599386
627.944685	70.790648
628.370216	69.988673
628.795725	69.215941
629.221212	68.431750
629.646677	67.674819
630.072119	66.936472
630.497540	66.209139
630.922938	65.502829
631.348314	64.811087
631.773668	64.152674
632.198999	63.515448
632.624308	62.903516
633.049595	62.319995
633.474860	61.756158
633.900102	61.235476
634.325322	60.750756
634.750520	60.298157
635.175695	59.882151
635.600848	59.517852
636.025978	59.196250
636.451086	58.931684
636.876171	58.709093
637.301234	58.529205
637.726275	58.392063
638.151293	58.305307
638.576288	58.256245
639.001261	58.253811
639.426211	58.292346
639.851139	58.373186
640.276044	58.496400
640.700927	58.645983
641.125787	58.832733
641.550624	59.057823
641.975438	59.310873
642.400230	59.600239
642.824999	59.915858
643.249745	60.251816
643.674469	60.621368
644.099169	61.006441
644.523847	61.430814
644.948502	61.872657
645.373135	62.331320
645.797744	62.811612
646.222330	63.308576
646.646894	63.819527
647.071435	64.338230
647.495953	64.864905
647.920447	65.402523
648.344919	65.932526
648.769368	66.451450
649.193794	66.971536
649.618197	67.469534
650.042576	67.959428
650.466933	68.442294
650.891267	68.909836
651.315577	69.353800
651.739864	69.786445
652.164129	70.199464
652.588370	70.590963
653.012587	70.967159
653.436782	71.320018
653.860953	71.660146
654.285102	71.984217
654.709226	72.296102
655.133328	72.575341
655.557406	72.846486
655.981461	73.098991
656.405493	73.338222
656.829501	73.552760
657.253486	73.756071
657.677448	73.920496
658.101386	74.079205
658.525301	74.218455
658.949192	74.342238
659.373060	74.442129
659.796904	74.524562
660.220725	74.591199
660.644522	74.640676
661.068296	74.675660
661.492046	74.703217
661.915772	74.736362
662.339475	74.758670
662.763154	74.787634
663.186810	74.823491
663.610442	74.855937
664.034050	74.898046
664.457635	74.956432
664.881196	75.032589
665.304733	75.130445
665.728247	75.252803
666.151736	75.397322
666.575202	75.561754
666.998644	75.757451
667.422062	75.973298
667.845457	76.204340
668.268827	76.468162
668.692174	76.744334
669.115496	77.038900
669.538795	77.348232
669.962070	77.675358
670.385321	78.010817
670.808547	78.364194
671.231750	78.707948
671.654929	79.051407
672.078084	79.406234
672.501214	79.747424
672.924321	80.104256
673.347404	80.456872
673.770462	80.809305
674.193496	81.154252
674.616506	81.503621
675.039492	81.844855
675.462454	82.190059
675.885391	82.528651
676.308305	82.858072
676.731194	83.195388
677.154058	83.525354
677.576899	83.857675
677.999715	84.182869
678.422507	84.490213
678.845274	84.797346
679.268017	85.096195
679.690736	85.384599
680.113430	85.654763
680.536100	85.919962
680.958746	86.172471
681.381367	86.418033
681.803963	86.645158
682.226535	86.865304
682.649083	87.075418
683.071605	87.277347
683.494104	87.465036
683.916578	87.638902
684.339027	87.816149
684.761451	87.981414
685.183851	88.129498
685.606227	88.281268
686.028577	88.408701
686.450903	88.533117
686.873204	88.640778
687.295481	88.742786
687.717733	88.824236
688.139959	88.884554
688.562162	88.928936
688.984339	88.964806
689.406492	88.985375
689.828619	88.973253
690.250722	88.953684
690.672800	88.903259
691.094853	88.842681
691.516881	88.775322
691.938884	88.690160
692.360863	88.585093
692.782816	88.478455
693.204744	88.367008
693.626647	88.245792
694.048526	88.138612
694.470379	88.024673
694.892207	87.924683
695.314010	87.822750
695.735788	87.741441
696.157540	87.664942
696.579268	87.614126
697.000970	87.583119
697.422648	87.562572
697.844300	87.557591
698.265926	87.571118
698.687528	87.610337
699.109104	87.659048
699.530655	87.723277
699.952181	87.811941
