Time1=100ms:Average1=5:Objective=10X:Aperture=1: (11/21/2018 2:12:12 PM)
11/21/2018 2:12:12 PM
Reflectance
10X
Ap#: 1
Avg1: 5.000000
Avg2: 0.000000
Int.Time1:100.000000

420.190645	21.611163
420.624620	21.704822
421.058582	21.813087
421.492531	21.902044
421.926468	22.023490
422.360391	22.155654
422.794301	22.296185
423.228199	22.475068
423.662083	22.668000
424.095955	22.867437
424.529813	23.084617
424.963658	23.301574
425.397491	23.498444
425.831310	23.695217
426.265116	23.877650
426.698909	24.083188
427.132689	24.283744
427.566455	24.498400
428.000209	24.751435
428.433949	24.972625
428.867676	25.197203
429.301389	25.429283
429.735090	25.658115
430.168777	25.862110
430.602451	26.074063
431.036111	26.272982
431.469759	26.452912
431.903392	26.649418
432.337013	26.838185
432.770620	27.014443
433.204213	27.189193
433.637794	27.375384
434.071360	27.565001
434.504914	27.749553
434.938453	27.940643
435.371979	28.133781
435.805492	28.337810
436.238991	28.544126
436.672477	28.717135
437.105949	28.901734
437.539407	29.049630
437.972852	29.201322
438.406283	29.365192
438.839700	29.524972
439.273104	29.679426
439.706494	29.820443
440.139871	29.966622
440.573233	30.111539
441.006582	30.243632
441.439917	30.353103
441.873238	30.464581
442.306546	30.581588
442.739839	30.677287
443.173119	30.748462
443.606385	30.856470
444.039636	30.948463
444.472874	31.044311
444.906099	31.141039
445.339309	31.259330
445.772505	31.364493
446.205687	31.485706
446.638855	31.601974
447.072009	31.712904
447.505149	31.809767
447.938275	31.915351
448.371387	32.012557
448.804485	32.090159
449.237569	32.152412
449.670638	32.214571
450.103694	32.264121
450.536735	32.312946
450.969762	32.362234
451.402774	32.399288
451.835773	32.429266
452.268757	32.471968
452.701727	32.508650
453.134683	32.558846
453.567624	32.603012
454.000551	32.649019
454.433464	32.683244
454.866362	32.722168
455.299246	32.766373
455.732116	32.807128
456.164971	32.846678
456.597811	32.894317
457.030638	32.904718
457.463449	32.943943
457.896246	32.950770
458.329029	32.974266
458.761797	32.967890
459.194551	32.979310
459.627290	32.965162
460.060014	32.940852
460.492724	32.922404
460.925419	32.896350
461.358099	32.874556
461.790765	32.825346
462.223416	32.770984
462.656052	32.721537
463.088674	32.649405
463.521281	32.582472
463.953873	32.523885
464.386450	32.435452
464.819012	32.364095
465.251560	32.274316
465.684093	32.182101
466.116611	32.095685
466.549114	32.011154
466.981602	31.922202
467.414075	31.810480
467.846533	31.699257
468.278977	31.577973
468.711405	31.452507
469.143818	31.318895
469.576216	31.178455
470.008600	31.020416
470.440968	30.858906
470.873321	30.681400
471.305659	30.500218
471.737982	30.315088
472.170289	30.130690
472.602582	29.909210
473.034859	29.709510
473.467122	29.527389
473.899369	29.336643
474.331600	29.159067
474.763817	28.980464
475.196018	28.817893
475.628204	28.661083
476.060375	28.495331
476.492530	28.339782
476.924670	28.192879
477.356795	28.037422
477.788904	27.917678
478.220998	27.783882
478.653076	27.668567
479.085139	27.561297
479.517186	27.459830
479.949219	27.357172
480.381235	27.266311
480.813236	27.205649
481.245221	27.156669
481.677191	27.121292
482.109146	27.082790
482.541084	27.059055
482.973008	27.036498
483.404915	27.050756
483.836807	27.068053
484.268683	27.098603
484.700544	27.144447
485.132388	27.193158
485.564217	27.252954
485.996031	27.334261
486.427828	27.420284
486.859610	27.505326
487.291376	27.603744
487.723126	27.718969
488.154860	27.836734
488.586579	27.969710
489.018281	28.122161
489.449968	28.289611
489.881639	28.472431
490.313293	28.657346
490.744932	28.846363
491.176555	29.027457
491.608162	29.223374
492.039753	29.413707
492.471328	29.582862
492.902886	29.751742
493.334429	29.921743
493.765956	30.085331
494.197466	30.234067
494.628960	30.373086
495.060439	30.513089
495.491901	30.652327
495.923347	30.786064
496.354776	30.929412
496.786190	31.050714
497.217587	31.181745
497.648968	31.303601
498.080332	31.430378
498.511681	31.548499
498.943013	31.659805
499.374328	31.768434
499.805628	31.865070
500.236911	31.951418
500.668177	32.019438
501.099427	32.063178
501.530661	32.098220
501.961878	32.114052
502.393079	32.112409
502.824264	32.108590
503.255431	32.099428
503.686583	32.088619
504.117717	32.092672
504.548835	32.098333
504.979937	32.110112
505.411022	32.132732
505.842090	32.179827
506.273142	32.231101
506.704177	32.279042
507.135195	32.324877
507.566197	32.367284
507.997182	32.410842
508.428150	32.444870
508.859102	32.481440
509.290036	32.515772
509.720954	32.550684
510.151855	32.609461
510.582739	32.676513
511.013607	32.761800
511.444457	32.855117
511.875291	32.972297
512.306107	33.112238
512.736907	33.268916
513.167690	33.447375
513.598456	33.650259
514.029205	33.877501
514.459936	34.129153
514.890651	34.403136
515.321349	34.694703
515.752030	35.013169
516.182693	35.342038
516.613340	35.683098
517.043969	36.050000
517.474582	36.426612
517.905177	36.823894
518.335755	37.227155
518.766315	37.632991
519.196859	38.044772
519.627385	38.459831
520.057894	38.874869
520.488386	39.293584
520.918860	39.731108
521.349318	40.180617
521.779757	40.647025
522.210180	41.127011
522.640585	41.629465
523.070973	42.149832
523.501343	42.679694
523.931696	43.230423
524.362031	43.783348
524.792349	44.353832
525.222650	44.923304
525.652933	45.495961
526.083198	46.067853
526.513446	46.627068
526.943677	47.175085
527.373890	47.714623
527.804085	48.264297
528.234262	48.792329
528.664422	49.318444
529.094565	49.841820
529.524689	50.375894
529.954796	50.922448
530.384885	51.465060
530.814957	52.013802
531.245011	52.572938
531.675047	53.143141
532.105065	53.742109
532.535065	54.352110
532.965048	54.972648
533.395013	55.609446
533.824959	56.250922
534.254888	56.887349
534.684799	57.536236
535.114693	58.180207
535.544568	58.818895
535.974425	59.438239
536.404264	60.028974
536.834086	60.596178
537.263889	61.132269
537.693674	61.653293
538.123441	62.147919
538.553190	62.625906
538.982921	63.097781
539.412634	63.563959
539.842329	64.035488
540.272006	64.510448
540.701664	64.990363
541.131304	65.458657
541.560926	65.948523
541.990530	66.447066
542.420116	66.946613
542.849683	67.436554
543.279232	67.914927
543.708763	68.381507
544.138275	68.827856
544.567769	69.254563
544.997245	69.629910
545.426702	69.974848
545.856141	70.292916
546.285562	70.592001
546.714964	70.864775
547.144347	71.126024
547.573713	71.380925
548.003059	71.638465
548.432387	71.902310
548.861697	72.170559
549.290988	72.453864
549.720260	72.769783
550.149514	73.093037
550.578750	73.435464
551.007966	73.797668
551.437164	74.181562
551.866344	74.583555
552.295504	74.987755
552.724646	75.379143
553.153769	75.768513
553.582874	76.142851
554.011960	76.497075
554.441027	76.830224
554.870075	77.136698
555.299104	77.412449
555.728115	77.665244
556.157106	77.907195
556.586079	78.121030
557.015033	78.317701
557.443968	78.502763
557.872884	78.684984
558.301781	78.894644
558.730659	79.076959
559.159518	79.282199
559.588358	79.501793
560.017180	79.721988
560.445982	79.955438
560.874765	80.193776
561.303528	80.430016
561.732273	80.659236
562.160999	80.895972
562.589705	81.119901
563.018393	81.328605
563.447061	81.527428
563.875710	81.722756
564.304340	81.897776
564.732950	82.057646
565.161542	82.193961
565.590114	82.331578
566.018666	82.467033
566.447200	82.587074
566.875714	82.712964
567.304208	82.835568
567.732684	82.956122
568.161140	83.080135
568.589576	83.208756
569.017993	83.337105
569.446391	83.459954
569.874769	83.591042
570.303128	83.731389
570.731467	83.884797
571.159787	84.026629
571.588087	84.163683
572.016368	84.332654
572.444629	84.487085
572.872870	84.633559
573.301092	84.790275
573.729294	84.928908
574.157476	85.068637
574.585639	85.187403
575.013782	85.300844
575.441906	85.399669
575.870009	85.489952
576.298093	85.581998
576.726157	85.660824
577.154202	85.727385
577.582226	85.784249
578.010231	85.843896
578.438216	85.909013
578.866181	85.971035
579.294126	86.031884
579.722051	86.109068
580.149957	86.177044
580.577842	86.263671
581.005707	86.355669
581.433553	86.462073
581.861378	86.561988
582.289184	86.669505
582.716969	86.775136
583.144734	86.876012
583.572479	86.993704
584.000205	87.084590
584.427910	87.175855
584.855594	87.275772
585.283259	87.349569
585.710904	87.424376
586.138528	87.493163
586.566132	87.535825
586.993716	87.581814
587.421280	87.602785
587.848823	87.623718
588.276346	87.630584
588.703849	87.614801
589.131332	87.568843
589.558794	87.494950
589.986236	87.403013
590.413657	87.297933
590.841058	87.176090
591.268438	87.025543
591.695799	86.858898
592.123138	86.679227
592.550458	86.498793
592.977756	86.304555
593.405034	86.122231
593.832292	85.928867
594.259529	85.738571
594.686746	85.542015
595.113942	85.369577
595.541117	85.191210
595.968272	85.028245
596.395406	84.868513
596.822519	84.697367
597.249612	84.535947
597.676684	84.380942
598.103735	84.210712
598.530766	84.043966
598.957775	83.856546
599.384764	83.659696
599.811733	83.474314
600.238680	83.271680
600.665606	83.072324
601.092512	82.860898
601.519397	82.649719
601.946261	82.438250
602.373104	82.238031
602.799926	82.048243
603.226727	81.859391
603.653507	81.664614
604.080266	81.474225
604.507004	81.295245
604.933721	81.114074
605.360417	80.918076
605.787092	80.720024
606.213746	80.515004
606.640379	80.290159
607.066991	80.056684
607.493581	79.806341
607.920150	79.552288
608.346699	79.269559
608.773226	78.982523
609.199731	78.658494
609.626216	78.326065
610.052679	77.975435
610.479121	77.610104
610.905542	77.217030
611.331941	76.810113
611.758319	76.383954
612.184676	75.954066
612.611011	75.500368
613.037325	75.014030
613.463617	74.510291
613.889888	73.973366
614.316138	73.421175
614.742366	72.843646
615.168573	72.240945
615.594758	71.606424
616.020921	70.951843
616.447063	70.274984
616.873184	69.580518
617.299283	68.870501
617.725360	68.143248
618.151416	67.409648
618.577450	66.664248
619.003462	65.920561
619.429453	65.172371
619.855422	64.433965
620.281369	63.705707
620.707295	62.971467
621.133199	62.232266
621.559081	61.501348
621.984941	60.776895
622.410779	60.059284
622.836596	59.346950
623.262391	58.627478
623.688163	57.915697
624.113914	57.213623
624.539644	56.517918
624.965351	55.831235
625.391036	55.154175
625.816699	54.490938
626.242340	53.842884
626.667960	53.207945
627.093557	52.602643
627.519132	52.019378
627.944685	51.459623
628.370216	50.925570
628.795725	50.435762
629.221212	49.956710
629.646677	49.523975
630.072119	49.127869
630.497540	48.758424
630.922938	48.426358
631.348314	48.119827
631.773668	47.853280
632.198999	47.617953
632.624308	47.410492
633.049595	47.226860
633.474860	47.068383
633.900102	46.941170
634.325322	46.840778
634.750520	46.764093
635.175695	46.709614
635.600848	46.688938
636.025978	46.689719
636.451086	46.724756
636.876171	46.777672
637.301234	46.851878
637.726275	46.945970
638.151293	47.066481
638.576288	47.194410
639.001261	47.340362
639.426211	47.499083
639.851139	47.676851
640.276044	47.858424
640.700927	48.044417
641.125787	48.230103
641.550624	48.423351
641.975438	48.612293
642.400230	48.805586
642.824999	48.990065
643.249745	49.161488
643.674469	49.338436
644.099169	49.499225
644.523847	49.664403
644.948502	49.817193
645.373135	49.954564
645.797744	50.088464
646.222330	50.218668
646.646894	50.335775
647.071435	50.449231
647.495953	50.550219
647.920447	50.648178
648.344919	50.732113
648.769368	50.796528
649.193794	50.856750
649.618197	50.892606
650.042576	50.923432
650.466933	50.942627
650.891267	50.952592
651.315577	50.945035
651.739864	50.927013
652.164129	50.894560
652.588370	50.853539
653.012587	50.803089
653.436782	50.745469
653.860953	50.684187
654.285102	50.620379
654.709226	50.553903
655.133328	50.478792
655.557406	50.410150
655.981461	50.342359
656.405493	50.287305
656.829501	50.225640
657.253486	50.185793
657.677448	50.143649
658.101386	50.120254
658.525301	50.110692
658.949192	50.115228
659.373060	50.124788
659.796904	50.149795
660.220725	50.189398
660.644522	50.245053
661.068296	50.317764
661.492046	50.405850
661.915772	50.525586
662.339475	50.654285
662.763154	50.816234
663.186810	51.002655
663.610442	51.208749
664.034050	51.438617
664.457635	51.695518
664.881196	51.991003
665.304733	52.322428
665.728247	52.676961
666.151736	53.066285
666.575202	53.479629
666.998644	53.923249
667.422062	54.386357
667.845457	54.870110
668.268827	55.375654
668.692174	55.896586
669.115496	56.430272
669.538795	56.970192
669.962070	57.522334
670.385321	58.066318
670.808547	58.609477
671.231750	59.133396
671.654929	59.633250
672.078084	60.119394
672.501214	60.575880
672.924321	61.017325
673.347404	61.430489
673.770462	61.814879
674.193496	62.158384
674.616506	62.476776
675.039492	62.757002
675.462454	63.012539
675.885391	63.230941
676.308305	63.412203
676.731194	63.571076
677.154058	63.697750
677.576899	63.804346
677.999715	63.880394
678.422507	63.923003
678.845274	63.951794
679.268017	63.957029
679.690736	63.948106
680.113430	63.915037
680.536100	63.879860
680.958746	63.834631
681.381367	63.787309
681.803963	63.733423
682.226535	63.681931
682.649083	63.636948
683.071605	63.601282
683.494104	63.575672
683.916578	63.565771
684.339027	63.582710
684.761451	63.630488
685.183851	63.697211
685.606227	63.807756
686.028577	63.934619
686.450903	64.105304
686.873204	64.314483
687.295481	64.566765
687.717733	64.854590
688.139959	65.176444
688.562162	65.546468
688.984339	65.957759
689.406492	66.413156
689.828619	66.898947
690.250722	67.430483
690.672800	67.988605
691.094853	68.587782
691.516881	69.224021
691.938884	69.893157
692.360863	70.583541
692.782816	71.302462
693.204744	72.054478
693.626647	72.819994
694.048526	73.618437
694.470379	74.430860
694.892207	75.265251
695.314010	76.117571
695.735788	76.992678
696.157540	77.875270
696.579268	78.775698
697.000970	79.691017
697.422648	80.615873
697.844300	81.539832
698.265926	82.479919
698.687528	83.425643
699.109104	84.369847
699.530655	85.300491
699.952181	86.237952
