Time1=100ms:Average1=5:Objective=10X:Aperture=1: (11/21/2018 2:54:50 PM)
11/21/2018 2:54:50 PM
Reflectance
10X
Ap#: 1
Avg1: 5.000000
Avg2: 0.000000
Int.Time1:100.000000

420.190645	27.674310
420.624620	27.766627
421.058582	27.834876
421.492531	27.938321
421.926468	28.016498
422.360391	28.135641
422.794301	28.286972
423.228199	28.430606
423.662083	28.610711
424.095955	28.827451
424.529813	29.019652
424.963658	29.233024
425.397491	29.408467
425.831310	29.609510
426.265116	29.805207
426.698909	29.997324
427.132689	30.201065
427.566455	30.423281
428.000209	30.669313
428.433949	30.893910
428.867676	31.122850
429.301389	31.346345
429.735090	31.569893
430.168777	31.778571
430.602451	31.969569
431.036111	32.152472
431.469759	32.324804
431.903392	32.518370
432.337013	32.688377
432.770620	32.861555
433.204213	33.013045
433.637794	33.209999
434.071360	33.378301
434.504914	33.568443
434.938453	33.752222
435.371979	33.954396
435.805492	34.159315
436.238991	34.344481
436.672477	34.513732
437.105949	34.691784
437.539407	34.831661
437.972852	34.971937
438.406283	35.138963
438.839700	35.297586
439.273104	35.440028
439.706494	35.564912
440.139871	35.702448
440.573233	35.835116
441.006582	35.941766
441.439917	36.034191
441.873238	36.133416
442.306546	36.226656
442.739839	36.298843
443.173119	36.360215
443.606385	36.409779
444.039636	36.475004
444.472874	36.547514
444.906099	36.610484
445.339309	36.690239
445.772505	36.781055
446.205687	36.877640
446.638855	36.969730
447.072009	37.047912
447.505149	37.136179
447.938275	37.220366
448.371387	37.296030
448.804485	37.366456
449.237569	37.411503
449.670638	37.470158
450.103694	37.504566
450.536735	37.539368
450.969762	37.553595
451.402774	37.575018
451.835773	37.559172
452.268757	37.571724
452.701727	37.594988
453.134683	37.617375
453.567624	37.629113
454.000551	37.650281
454.433464	37.661010
454.866362	37.660435
455.299246	37.666222
455.732116	37.668860
456.164971	37.674516
456.597811	37.664182
457.030638	37.667654
457.463449	37.675050
457.896246	37.651408
458.329029	37.639535
458.761797	37.619219
459.194551	37.581858
459.627290	37.529193
460.060014	37.478789
460.492724	37.422236
460.925419	37.356724
461.358099	37.306197
461.790765	37.222699
462.223416	37.122836
462.656052	37.016382
463.088674	36.892243
463.521281	36.776903
463.953873	36.652485
464.386450	36.505036
464.819012	36.363765
465.251560	36.232717
465.684093	36.080120
466.116611	35.922071
466.549114	35.768549
466.981602	35.613774
467.414075	35.435930
467.846533	35.254818
468.278977	35.071838
468.711405	34.869585
469.143818	34.663445
469.576216	34.450780
470.008600	34.233850
470.440968	33.988827
470.873321	33.740007
471.305659	33.482434
471.737982	33.223752
472.170289	32.951365
472.602582	32.679211
473.034859	32.412555
473.467122	32.143526
473.899369	31.889365
474.331600	31.642428
474.763817	31.385376
475.196018	31.149192
475.628204	30.920855
476.060375	30.698695
476.492530	30.472365
476.924670	30.263519
477.356795	30.053577
477.788904	29.871908
478.220998	29.687418
478.653076	29.508544
479.085139	29.347571
479.517186	29.201749
479.949219	29.075431
480.381235	28.962664
480.813236	28.883373
481.245221	28.823019
481.677191	28.775718
482.109146	28.742500
482.541084	28.716492
482.973008	28.701225
483.404915	28.705731
483.836807	28.727606
484.268683	28.770270
484.700544	28.826940
485.132388	28.896408
485.564217	28.978884
485.996031	29.078252
486.427828	29.185515
486.859610	29.313597
487.291376	29.446682
487.723126	29.598420
488.154860	29.763215
488.586579	29.940937
489.018281	30.127978
489.449968	30.344318
489.881639	30.584983
490.313293	30.835195
490.744932	31.095192
491.176555	31.367894
491.608162	31.653557
492.039753	31.945009
492.471328	32.226205
492.902886	32.504654
493.334429	32.773337
493.765956	33.030974
494.197466	33.277139
494.628960	33.511712
495.060439	33.757347
495.491901	34.007129
495.923347	34.260877
496.354776	34.515725
496.786190	34.770789
497.217587	35.037535
497.648968	35.293380
498.080332	35.560548
498.511681	35.812049
498.943013	36.064565
499.374328	36.313434
499.805628	36.557876
500.236911	36.786396
500.668177	37.005848
501.099427	37.204131
501.530661	37.392484
501.961878	37.572029
502.393079	37.741716
502.824264	37.897605
503.255431	38.044808
503.686583	38.170535
504.117717	38.314144
504.548835	38.452788
504.979937	38.589957
505.411022	38.728420
505.842090	38.885675
506.273142	39.057103
506.704177	39.226273
507.135195	39.410164
507.566197	39.592191
507.997182	39.777003
508.428150	39.950671
508.859102	40.108470
509.290036	40.252795
509.720954	40.388598
510.151855	40.537823
510.582739	40.664867
511.013607	40.801733
511.444457	40.937251
511.875291	41.094657
512.306107	41.265661
512.736907	41.456859
513.167690	41.671590
513.598456	41.910184
514.029205	42.174276
514.459936	42.468870
514.890651	42.788483
515.321349	43.115927
515.752030	43.459541
516.182693	43.806188
516.613340	44.155285
517.043969	44.525540
517.474582	44.897224
517.905177	45.280172
518.335755	45.665081
518.766315	46.056952
519.196859	46.457070
519.627385	46.860274
520.057894	47.272467
520.488386	47.703255
520.918860	48.163360
521.349318	48.656444
521.779757	49.179877
522.210180	49.746100
522.640585	50.355596
523.070973	50.991933
523.501343	51.635885
523.931696	52.318639
524.362031	53.008255
524.792349	53.716434
525.222650	54.427800
525.652933	55.126175
526.083198	55.810415
526.513446	56.480814
526.943677	57.137703
527.373890	57.772166
527.804085	58.412992
528.234262	59.018975
528.664422	59.636469
529.094565	60.250039
529.524689	60.886181
529.954796	61.545801
530.384885	62.204838
530.814957	62.874461
531.245011	63.556807
531.675047	64.249045
532.105065	64.962078
532.535065	65.681853
532.965048	66.396758
533.395013	67.115310
533.824959	67.809853
534.254888	68.482140
534.684799	69.147656
535.114693	69.792196
535.544568	70.410556
535.974425	71.001313
536.404264	71.574642
536.834086	72.128840
537.263889	72.660112
537.693674	73.177840
538.123441	73.698335
538.553190	74.210005
538.982921	74.738956
539.412634	75.273492
539.842329	75.816713
540.272006	76.372184
540.701664	76.947854
541.131304	77.508871
541.560926	78.098222
541.990530	78.697334
542.420116	79.305208
542.849683	79.892832
543.279232	80.459810
543.708763	81.028176
544.138275	81.570064
544.567769	82.092436
544.997245	82.588619
545.426702	83.059594
545.856141	83.504969
546.285562	83.937332
546.714964	84.351407
547.144347	84.764329
547.573713	85.163118
548.003059	85.566008
548.432387	85.968641
548.861697	86.377817
549.290988	86.783249
549.720260	87.206745
550.149514	87.627603
550.578750	88.054418
551.007966	88.496569
551.437164	88.930827
551.866344	89.369034
552.295504	89.801336
552.724646	90.213196
553.153769	90.613910
553.582874	90.987734
554.011960	91.325287
554.441027	91.642544
554.870075	91.929091
555.299104	92.170373
555.728115	92.375007
556.157106	92.562999
556.586079	92.723355
557.015033	92.852978
557.443968	92.967719
557.872884	93.077197
558.301781	93.197394
558.730659	93.279962
559.159518	93.388588
559.588358	93.508881
560.017180	93.622504
560.445982	93.750677
560.874765	93.896451
561.303528	94.038405
561.732273	94.192076
562.160999	94.355002
562.589705	94.526181
563.018393	94.699665
563.447061	94.872404
563.875710	95.057108
564.304340	95.232842
564.732950	95.402786
565.161542	95.567026
565.590114	95.734160
566.018666	95.911060
566.447200	96.075915
566.875714	96.251512
567.304208	96.428315
567.732684	96.600767
568.161140	96.772177
568.589576	96.953172
569.017993	97.141837
569.446391	97.329307
569.874769	97.518810
570.303128	97.729981
570.731467	97.947615
571.159787	98.151150
571.588087	98.344886
572.016368	98.576302
572.444629	98.783670
572.872870	98.977991
573.301092	99.181452
573.729294	99.349209
574.157476	99.497774
574.585639	99.621667
575.013782	99.709322
575.441906	99.765000
575.870009	99.787012
576.298093	99.783685
576.726157	99.748180
577.154202	99.670027
577.582226	99.581917
578.010231	99.472399
578.438216	99.349963
578.866181	99.209677
579.294126	99.052057
579.722051	98.894088
580.149957	98.732695
580.577842	98.577362
581.005707	98.423182
581.433553	98.292030
581.861378	98.151151
582.289184	98.020128
582.716969	97.891335
583.144734	97.770053
583.572479	97.662177
584.000205	97.548061
584.427910	97.448610
584.855594	97.362534
585.283259	97.264164
585.710904	97.178039
586.138528	97.101195
586.566132	97.007650
586.993716	96.940907
587.421280	96.865872
587.848823	96.801710
588.276346	96.744058
588.703849	96.684080
589.131332	96.612247
589.558794	96.532985
589.986236	96.449794
590.413657	96.379341
590.841058	96.284759
591.268438	96.189168
591.695799	96.082077
592.123138	95.983340
592.550458	95.884718
592.977756	95.795566
593.405034	95.710972
593.832292	95.624420
594.259529	95.542321
594.686746	95.444292
595.113942	95.361202
595.541117	95.267936
595.968272	95.183497
596.395406	95.093509
596.822519	94.976571
597.249612	94.862777
597.676684	94.731432
598.103735	94.576811
598.530766	94.416616
598.957775	94.220500
599.384764	94.003545
599.811733	93.789741
600.238680	93.530575
600.665606	93.269034
601.092512	92.986510
601.519397	92.698043
601.946261	92.397581
602.373104	92.094809
602.799926	91.795389
603.226727	91.492433
603.653507	91.174807
604.080266	90.860374
604.507004	90.544280
604.933721	90.224713
605.360417	89.887115
605.787092	89.538509
606.213746	89.182044
606.640379	88.795105
607.066991	88.401205
607.493581	87.993528
607.920150	87.585039
608.346699	87.161733
608.773226	86.738918
609.199731	86.280169
609.626216	85.818493
610.052679	85.353574
610.479121	84.873106
610.905542	84.383232
611.331941	83.893708
611.758319	83.383613
612.184676	82.882760
612.611011	82.368865
613.037325	81.828260
613.463617	81.292369
613.889888	80.721223
614.316138	80.143847
614.742366	79.541632
615.168573	78.920942
615.594758	78.281082
616.020921	77.623723
616.447063	76.956527
616.873184	76.283283
617.299283	75.598235
617.725360	74.906626
618.151416	74.217811
618.577450	73.521940
619.003462	72.848349
619.429453	72.171828
619.855422	71.518861
620.281369	70.882118
620.707295	70.242141
621.133199	69.607125
621.559081	68.978191
621.984941	68.356750
622.410779	67.753909
622.836596	67.154418
623.262391	66.543197
623.688163	65.942088
624.113914	65.347613
624.539644	64.749895
624.965351	64.166026
625.391036	63.582632
625.816699	63.011026
626.242340	62.451831
626.667960	61.898211
627.093557	61.376511
627.519132	60.874576
627.944685	60.394218
628.370216	59.946959
628.795725	59.540281
629.221212	59.146714
629.646677	58.792200
630.072119	58.477870
630.497540	58.188240
630.922938	57.935495
631.348314	57.706463
631.773668	57.510806
632.198999	57.340622
632.624308	57.188456
633.049595	57.059390
633.474860	56.949765
633.900102	56.873346
634.325322	56.817283
634.750520	56.777852
635.175695	56.761865
635.600848	56.774037
636.025978	56.800965
636.451086	56.868966
636.876171	56.950747
637.301234	57.048505
637.726275	57.168184
638.151293	57.309923
638.576288	57.459779
639.001261	57.618065
639.426211	57.788376
639.851139	57.969785
640.276044	58.155626
640.700927	58.337364
641.125787	58.517218
641.550624	58.691749
641.975438	58.859577
642.400230	59.025273
642.824999	59.178412
643.249745	59.308309
643.674469	59.439892
644.099169	59.551056
644.523847	59.662758
644.948502	59.765866
645.373135	59.854317
645.797744	59.944856
646.222330	60.031417
646.646894	60.110949
647.071435	60.184287
647.495953	60.249610
647.920447	60.321729
648.344919	60.379719
648.769368	60.427670
649.193794	60.477168
649.618197	60.505897
650.042576	60.536881
650.466933	60.568282
650.891267	60.595041
651.315577	60.609544
651.739864	60.626055
652.164129	60.636025
652.588370	60.640314
653.012587	60.639281
653.436782	60.633172
653.860953	60.626529
654.285102	60.616008
654.709226	60.601116
655.133328	60.580634
655.557406	60.559708
655.981461	60.533151
656.405493	60.507208
656.829501	60.477349
657.253486	60.453973
657.677448	60.415366
658.101386	60.381661
658.525301	60.349050
658.949192	60.307465
659.373060	60.259767
659.796904	60.206153
660.220725	60.153151
660.644522	60.101433
661.068296	60.048011
661.492046	59.997197
661.915772	59.954159
662.339475	59.910918
662.763154	59.883263
663.186810	59.864943
663.610442	59.853777
664.034050	59.859510
664.457635	59.882058
664.881196	59.926558
665.304733	59.999938
665.728247	60.094239
666.151736	60.223216
666.575202	60.375919
666.998644	60.555835
667.422062	60.768023
667.845457	61.006328
668.268827	61.268763
668.692174	61.554358
669.115496	61.868855
669.538795	62.207693
669.962070	62.566621
670.385321	62.938888
670.808547	63.343921
671.231750	63.749668
671.654929	64.161169
672.078084	64.597903
672.501214	65.029919
672.924321	65.483666
673.347404	65.945078
673.770462	66.412427
674.193496	66.876365
674.616506	67.352130
675.039492	67.825200
675.462454	68.312958
675.885391	68.794923
676.308305	69.267235
676.731194	69.743606
677.154058	70.211460
677.576899	70.680154
677.999715	71.144763
678.422507	71.590108
678.845274	72.029162
679.268017	72.454903
679.690736	72.870482
680.113430	73.269467
680.536100	73.655714
680.958746	74.030136
681.381367	74.391201
681.803963	74.732144
682.226535	75.060454
682.649083	75.365352
683.071605	75.665317
683.494104	75.946810
683.916578	76.204164
684.339027	76.455851
684.761451	76.691593
685.183851	76.902721
685.606227	77.114694
686.028577	77.299391
686.450903	77.466191
686.873204	77.617855
687.295481	77.750061
687.717733	77.853932
688.139959	77.935176
688.562162	77.993755
688.984339	78.038919
689.406492	78.067221
689.828619	78.067408
690.250722	78.053322
690.672800	78.008763
691.094853	77.945204
691.516881	77.879921
691.938884	77.804456
692.360863	77.705001
692.782816	77.596708
693.204744	77.484512
693.626647	77.362014
694.048526	77.240823
694.470379	77.117897
694.892207	77.005758
695.314010	76.894242
695.735788	76.806825
696.157540	76.717580
696.579268	76.647238
697.000970	76.592336
697.422648	76.555870
697.844300	76.529510
698.265926	76.524284
698.687528	76.541021
699.109104	76.564887
699.530655	76.606649
699.952181	76.668237
