CICIMAUCR0179_T
Integration time [ms]:   8,000
Averaging Nr. [scans]: 10
Smoothing Nr. [pixels]: 0
Data measured with spectrometer [name]: 7314920SP
Wave   ;Sample   ;Dark     ;Reference;Reflectance
[nm]   ;[counts] ;[counts] ;[counts] ;[%]

 199,42;   70,183;   69,124;  212,912; 0,73630
 200,02;   90,132;   97,516;  201,017;-7,13463
 200,62;   66,730;   69,328;  116,337;-5,52677
 201,22;   87,154;   89,808;  191,196;-2,61776
 201,82;   65,949;   78,699;  227,849;-8,54876
 202,42;   96,025;  107,919;  211,990;-11,42915
 203,03;   48,988;   49,933;  144,859;-0,99541
 203,63;   63,058;   68,244;  153,253;-6,09962
 204,23;   76,965;   79,167;  197,491;-1,86162
 204,83;   78,344;   74,949;  153,601; 4,31594
 205,43;   60,383;   62,524;  192,612;-1,64603
 206,03;   57,536;   65,952;  137,574;-11,74985
 206,63;   72,518;   73,695;  129,953;-2,09213
 207,24;   72,808;   74,278;  246,960;-0,85113
 207,84;   50,029;   58,255;  132,648;-11,05693
 208,44;   42,854;   55,408;  142,596;-14,39896
 209,04;   49,726;   54,593;  111,779;-8,51054
 209,64;   71,638;   74,340;  200,454;-2,14237
 210,24;   50,744;   59,249;  129,701;-12,07276
 210,84;   47,562;   60,406;  155,122;-13,56046
 211,44;   80,291;   82,595;  190,227;-2,14027
 212,05;   62,926;   77,893;  120,879;-34,81759
 212,65;   70,888;   82,933;  164,459;-14,77431
 213,25;   90,325;   88,219;  192,990; 2,00967
 213,85;   91,555;   87,282;  147,585; 7,08668
 214,45;   62,644;   57,349;  133,901; 6,91633
 215,05;   35,662;   41,406;  140,122;-5,81868
 215,65;   53,169;   58,803;  153,048;-5,97790
 216,25;   40,144;   55,649;  132,501;-20,17584
 216,85;   39,847;   29,911;  142,569; 8,81942
 217,45;   50,688;   57,033;  133,359;-8,31290
 218,05;   65,213;   64,486;  160,906; 0,75361
 218,66;   26,939;   32,114;  123,343;-5,67172
 219,26;   37,258;   32,444;  110,553; 6,16407
 219,86;   30,350;   33,573;  147,938;-2,81809
 220,46;   68,106;   55,689;  156,280;12,34361
 221,06;   62,165;   59,567;  179,691; 2,16217
 221,66;   51,587;   48,459;  173,070; 2,50985
 222,26;   35,838;   37,740;  169,554;-1,44281
 222,86;   69,010;   70,125;  156,338;-1,29288
 223,46;   41,244;   49,349;  140,501;-8,89227
 224,06;   56,257;   53,770;  170,464; 2,13136
 224,66;   63,628;   63,681;  184,759;-0,04393
 225,26;   50,484;   54,297;  152,501;-3,88349
 225,86;   37,560;   50,732;  174,133;-10,67377
 226,46;   49,617;   56,922;  154,264;-7,50399
 227,06;   35,228;   31,681;  136,259; 3,39155
 227,66;   43,148;   46,384;  122,058;-4,27707
 228,27;   36,306;   40,089;  152,380;-3,36933
 228,87;   90,220;   86,284;  181,333; 4,14178
 229,47;   36,246;   42,137;  179,680;-4,28356
 230,07;    2,784;   10,997;  120,401;-7,50772
 230,67;   39,547;   52,311;  147,769;-13,37146
 231,27;   32,306;   37,789;  150,380;-4,87025
 231,87;   45,047;   45,111;  153,169;-0,05939
 232,47;   55,693;   61,983;  211,507;-4,20663
 233,07;   41,611;   50,698;  111,627;-14,91434
 233,67;   58,588;   47,333;  137,259;12,51596
 234,27;   14,536;   19,552;  106,574;-5,76349
 234,87;   32,450;   38,773;  173,938;-4,67792
 235,47;   19,184;   25,997;  134,501;-6,27972
 236,07;   33,785;   33,871;  104,390;-0,12219
 236,67;   48,314;   45,360;  136,795; 3,23091
 237,27;   34,897;   40,218;  177,065;-3,88838
 237,87;   38,128;   42,281;  161,659;-3,47902
 238,47;   14,632;   26,116;  114,617;-12,97663
 239,07;   30,731;   25,643;  171,528; 3,48773
 239,67;   46,089;   51,548;  217,050;-3,29830
 240,27;   45,260;   52,032;  182,133;-5,20484
 240,87;   40,205;   48,316;  206,091;-5,14086
 241,47;   45,859;   50,817;  107,142;-8,80196
 242,07;   38,903;   45,327;  127,711;-7,79851
 242,67;   -1,710;    0,121;  128,039;-1,43155
 243,27;   17,144;   18,649;   93,101;-2,02205
 243,87;   47,657;   63,270;  167,664;-14,95563
 244,47;   39,065;   44,467;  161,591;-4,61285
 245,07;    8,662;   18,606;  116,922;-10,11427
 245,67;   37,088;   44,533;  125,259;-9,22244
 246,27;   34,918;   39,595;   96,053;-8,28407
 246,87;   27,910;   22,125;  117,738; 6,05081
 247,46;   14,730;   18,828;   63,537;-9,16613
 248,06;   22,113;   27,886;  124,906;-5,95070
 248,66;   27,638;   38,540;  161,754;-8,84788
 249,26;   38,085;   36,471;  101,190; 2,49360
 249,86;   53,060;   51,532;  172,833; 1,26004
 250,46;    5,800;   23,280;  176,234;-11,42822
 251,06;   35,188;   29,033;  111,359; 7,47650
 251,66;   19,643;   19,476;  139,512; 0,13912
 252,26;   36,699;   36,365;  104,343; 0,49136
 252,86;   29,362;   32,306;  140,922;-2,71045
 253,46;    2,844;    1,549;   78,501; 1,68230
 254,06;   47,377;   44,874;  100,464; 4,50394
 254,66;   20,883;   24,424;  155,112;-2,70972
 255,26;   50,268;   41,629;  185,460; 6,00606
 255,86;   41,559;   46,817;   99,342;-10,00990
 256,46;   24,291;   21,995;  127,027; 2,18633
 257,05;   24,035;   25,678;  125,685;-1,64298
 257,65;   47,550;   42,773;  167,138; 3,84117
 258,25;   34,346;   39,437;  160,880;-4,19270
 258,85;   12,562;   26,106;  127,022;-13,42099
 259,45;    1,947;    9,311;  107,069;-7,53304
 260,05;   43,944;   40,249;  112,801; 5,09232
 260,65;   39,899;   40,365;  108,043;-0,68855
 261,25;   34,957;   41,070;  143,564;-5,96406
 261,85;    3,179;   -5,838;  119,043; 7,22080
 262,45;   51,962;   48,806;  144,522; 3,29724
 263,04;   44,575;   45,927;  178,986;-1,01562
 263,64;   45,466;   38,741;  115,980; 8,70655
 264,24;   39,072;   43,265;  155,817;-3,72506
 264,84;   61,534;   66,305;  203,697;-3,47230
 265,44;   28,080;   28,435;  102,832;-0,47716
 266,04;   49,063;   54,079;  117,411;-7,92087
 266,64;   45,614;   54,560;  123,795;-12,92087
 267,24;   40,714;   44,260;  105,895;-5,75288
 267,84;   30,225;   32,519;  118,090;-2,68134
 268,43;   51,595;   59,330;  133,785;-10,38858
 269,03;   48,039;   45,214;  136,843; 3,08387
 269,63;   70,592;   62,268;  128,816;12,50812
 270,23;   18,448;   17,984;   65,758; 0,96995
 270,83;   57,199;   56,265;  128,243; 1,29765
 271,43;   30,773;   29,638;  107,206; 1,46313
 272,03;   62,880;   50,535;  136,332;14,38865
 272,62;   25,669;   19,803;  122,348; 5,72047
 273,22;    7,520;   16,184;  111,433;-9,09540
 273,82;   35,383;   30,483;   40,710;47,91111
 274,42;   21,967;   25,614;   68,869;-8,43300
 275,02;   38,504;   33,801;   87,500; 8,75771
 275,62;   49,646;   51,537;  170,781;-1,58646
 276,21;   30,498;   39,192;  122,554;-10,42869
 276,81;   48,929;   50,655;  118,848;-2,53048
 277,41;   39,694;   22,156;  132,796;15,85112
 278,01;   19,204;   19,001;   72,600; 0,37843
 278,61;   57,754;   59,408;  151,996;-1,78651
 279,20;   66,660;   63,732;  183,233; 2,45056
 279,80;    7,849;    2,358;   11,347;61,08422
 280,40;   51,085;   34,171;   90,290;30,13919
 281,00;   -0,246;    9,408;   86,096;-12,58887
 281,60;   23,927;   32,007;  150,670;-6,80984
 282,20;   35,391;   38,695;  129,627;-3,63306
 282,79;   28,995;   35,030;   99,785;-9,31945
 283,39;   14,992;   29,168;   73,516;-31,96544
 283,99;   20,211;   27,598;   55,627;-26,35562
 284,59;   11,076;    9,100;  105,375; 2,05265
 285,19;   30,136;   33,752;   96,274;-5,78278
 285,78;   34,691;   26,295;  122,227; 8,75234
 286,38;   43,518;   46,795;   84,853;-8,61060
 286,98;   39,395;   42,730;  109,785;-4,97325
 287,58;   10,265;    4,767;  110,991; 5,17519
 288,17;   29,468;   23,729;  140,560; 4,91185
 288,77;   30,537;   30,667;  176,065;-0,08899
 289,37;   20,162;   13,206;   99,322; 8,07743
 289,97;   48,811;   50,698;  100,827;-3,76448
 290,57;   46,409;   37,851;  142,149; 8,20517
 291,16;   78,680;   72,635;  130,432;10,45905
 291,76;    9,920;   13,884;  103,733;-4,41104
 292,36;   35,758;   36,344;  103,253;-0,87470
 292,96;   -1,447;    1,335;  116,607;-2,41312
 293,55;   31,529;   35,255;  100,448;-5,71473
 294,15;   25,898;   28,492;  119,754;-2,84187
 294,75;   43,918;   42,295;   85,853; 3,72615
 295,35;   24,380;   22,535;   96,932; 2,47995
 295,94;   39,922;   40,557;   96,022;-1,14617
 296,54;   28,817;   31,722;  108,464;-3,78481
 297,14;   49,187;   33,859;  144,270;13,88231
 297,73;   12,941;    9,887;   70,132; 5,06815
 298,33;   32,277;   40,174;   99,364;-13,34052
 298,93;   40,510;   30,325;  113,638;12,22541
 299,53;   29,224;   21,246;  138,401; 6,80972
 300,12;    1,687;    7,459;  114,770;-5,37921
 300,72;   46,966;   68,241;  124,580;-37,76296
 301,32;   35,350;   40,773;  145,238;-5,19112
 301,92;   17,174;   24,312;   62,295;-18,79129
 302,51;   14,851;   14,346;   96,927; 0,61109
 303,11;   23,236;   20,952;   93,674; 3,14134
 303,71;   23,832;   30,616;  121,617;-7,45532
 304,30;   15,170;   18,176;   83,737;-4,58558
 304,90;   15,177;   22,074;   85,164;-10,93082
 305,50;   31,148;   35,584;   89,058;-8,29681
 306,09;   23,185;   23,571;   88,790;-0,59211
 306,69;   36,672;   37,765;  140,017;-1,06857
 307,29;   27,075;   24,885;   43,884;11,52740
 307,88;   40,576;   48,300;  142,675;-8,18421
 308,48;    5,406;   11,989;  111,680;-6,60387
 309,08;    3,815;    8,834;   44,084;-14,23589
 309,68;   19,441;   26,887;   87,532;-12,27924
 310,27;   17,369;   17,703;  113,848;-0,34729
 310,87;   21,617;   29,822;  103,864;-11,08090
 311,47;   50,444;   52,349;  116,401;-2,97486
 312,06;   51,433;   46,190;   96,406;10,44137
 312,66;   61,180;   52,235;  146,232; 9,51628
 313,26;   50,543;   45,676;  157,012; 4,37144
 313,85;   34,136;   33,452;  110,474; 0,88865
 314,45;   42,954;   49,208;  130,496;-7,69379
 315,04;   54,033;   63,290;  105,606;-21,87561
 315,64;   24,966;   27,641;  103,480;-3,52745
 316,24;   41,306;   38,789;  125,980; 2,88625
 316,83;   44,785;   43,171;  121,990; 2,04751
 317,43;   26,673;   29,738;  114,606;-3,61160
 318,03;   46,245;   52,323;  100,590;-12,59224
 318,62;   74,834;   86,763;  121,994;-33,86010
 319,22;   19,325;   21,719;  124,690;-2,32536
 319,82;   52,480;   44,535;  123,932;10,00670
 320,41;   57,332;   57,916;  170,917;-0,51713
 321,01;   70,148;   84,785;  169,258;-17,32682
 321,60;   66,667;   79,214;  137,469;-21,53946
 322,20;   61,583;   55,024;  210,912; 4,20731
 322,80;   56,966;   61,241;  161,180;-4,27779
 323,39;   62,896;   51,304;  108,574;20,24215
 323,99;   65,299;   75,665;  148,943;-14,14627
 324,59;   60,545;   75,523;  121,990;-32,23345
 325,18;   54,951;   54,546;  141,027; 0,46790
 325,78;   71,941;   75,387;  154,332;-4,36598
 326,37;   53,988;   71,333;  171,659;-17,28855
 326,97;   74,866;   66,641;  181,780; 7,14340
 327,57;   46,730;   41,428;  117,237; 6,99382
 328,16;   66,459;   59,717;  137,042; 8,71942
 328,76;   62,022;   66,157;  165,422;-4,16637
 329,35;   55,150;   71,673;  215,438;-11,49298
 329,95;   31,691;   47,995;  188,127;-11,63442
 330,54;   51,944;   53,049;  176,901;-0,89256
 331,14;   40,529;   43,955;  145,248;-3,38189
 331,74;   53,848;   49,084;  157,158; 4,40753
 332,33;   35,606;   37,489;  190,880;-1,22788
 332,93;   49,274;   51,512;  148,895;-2,29765
 333,52;   50,092;   52,668;  187,116;-1,91604
 334,12;   72,739;   68,714;  222,743; 2,61361
 334,71;   39,585;   43,171;  179,090;-2,63846
 335,31;   64,836;   68,952;  192,674;-3,32642
 335,90;   30,486;   29,144;  139,379; 1,21685
 336,50;   43,318;   31,295;  156,953; 9,56808
 337,10;   54,469;   56,203;  213,048;-1,10549
 337,69;   58,518;   58,595;  181,353;-0,06271
 338,29;   32,958;   41,044;  190,353;-5,41510
 338,88;   37,810;   26,425;  201,238; 6,51288
 339,48;   69,978;   72,747;  186,852;-2,42644
 340,07;   47,907;   52,063;  212,169;-2,59571
 340,67;   49,750;   40,273;  267,038; 4,17925
 341,26;   54,085;   58,271;  227,390;-2,47528
 341,86;   68,584;   67,997;  282,701; 0,27306
 342,45;   52,176;   54,300;  294,375;-0,88465
 343,05;   50,076;   48,700;  266,775; 0,63106
 343,64;   67,914;   55,660;  261,695; 5,94762
 344,24;   29,918;   43,595;  237,153;-7,06611
 344,83;   72,911;   63,198;  283,827; 4,40239
 345,43;   45,922;   33,657;  279,522; 4,98823
 346,02;   37,247;   42,211;  304,369;-1,89358
 346,62;   49,843;   53,076;  330,912;-1,16364
 347,21;   55,741;   54,787;  311,732; 0,37101
 347,81;   37,709;   43,951;  355,349;-2,00457
 348,40;   37,759;   37,717;  297,542; 0,01628
 349,00;   52,345;   52,723;  328,190;-0,13718
 349,59;   72,020;   76,784;  420,333;-1,38649
 350,19;   44,343;   48,176;  412,212;-1,05292
 350,78;   37,736;   52,652;  383,074;-4,51408
 351,38;   31,847;   22,311;  389,069; 2,60003
 351,97;   39,822;   34,957;  401,122; 1,32844
 352,57;   45,206;   31,789;  439,980; 3,28683
 353,16;   36,496;   36,404;  411,674; 0,02471
 353,76;   43,020;   42,384;  494,333; 0,14088
 354,35;   27,884;   30,497;  490,701;-0,56795
 354,95;   56,698;   50,292;  532,454; 1,32869
 355,54;   42,825;   43,119;  531,090;-0,06034
 356,14;   46,184;   44,397;  535,601; 0,36365
 356,73;   50,478;   46,047;  497,052; 0,98254
 357,32;   25,732;   25,916;  543,817;-0,03560
 357,92;   32,616;   29,248;  620,175; 0,56993
 358,51;   49,124;   53,846;  654,401;-0,78627
 359,11;   39,009;   45,951;  660,349;-1,12992
 359,70;   34,835;   30,078;  655,785; 0,76024
 360,30;   58,849;   56,558;  633,847; 0,39684
 360,89;   27,610;   20,725;  679,238; 1,04559
 361,48;   52,098;   53,792;  746,354;-0,24453
 362,08;   17,973;   26,038;  709,306;-1,18037
 362,67;   38,030;   34,028;  722,537; 0,58125
 363,27;   66,251;   50,946;  777,927; 2,10523
 363,86;   40,748;   24,184;  785,858; 2,17460
 364,46;   55,359;   53,717;  816,942; 0,21518
 365,05;   72,694;   63,815;  839,894; 1,14409
 365,64;   55,946;   52,496;  883,078; 0,41533
 366,24;   42,050;   33,732;  926,136; 0,93214
 366,83;   62,395;   52,089; 1030,183; 1,05374
 367,43;   64,721;   72,101; 1067,428;-0,74151
 368,02;   58,809;   47,769; 1189,245; 0,96722
 368,61;   78,197;   71,021; 1314,370; 0,57712
 369,21;   40,928;   37,616; 1309,751; 0,26039
 369,80;   60,129;   55,375; 1431,649; 0,34542
 370,39;   64,570;   60,796; 1667,838; 0,23479
 370,99;   54,834;   51,442; 1696,093; 0,20623
 371,58;   35,209;   31,647; 1771,243; 0,20474
 372,18;   47,182;   37,705; 1907,216; 0,50689
 372,77;   43,076;   52,340; 1905,576;-0,49993
 373,36;   43,921;   48,898; 1956,423;-0,26090
 373,96;   51,409;   51,724; 1859,937;-0,01738
 374,55;   39,781;   43,949; 1820,723;-0,23461
 375,14;   40,968;   46,343; 1722,950;-0,32058
 375,74;   78,695;   74,185; 1591,878; 0,29719
 376,33;   47,693;   44,338; 1488,500; 0,23233
 376,92;   44,237;   39,463; 1433,460; 0,34249
 377,52;  103,644;   93,543; 1607,390; 0,66728
 378,11;   70,600;   60,159; 1524,532; 0,71301
 378,71;   74,279;   72,082; 1607,944; 0,14304
 379,30;   66,296;   63,665; 1696,477; 0,16112
 379,89;   69,182;   65,044; 1708,013; 0,25187
 380,49;   33,140;   28,849; 1764,635; 0,24723
 381,08;   75,684;   84,991; 1727,991;-0,56644
 381,67;   60,495;   63,350; 1745,186;-0,16977
 382,26;   54,484;   46,191; 1718,491; 0,49592
 382,86;   53,830;   47,448; 1715,838; 0,38249
 383,45;   53,245;   48,558; 1836,281; 0,26222
 384,04;   52,031;   49,263; 1871,629; 0,15187
 384,64;   47,826;   51,628; 1928,071;-0,20258
 385,23;   76,499;   68,886; 1889,243; 0,41824
 385,82;   71,415;   57,095; 1958,887; 0,75297
 386,42;   75,679;   64,923; 2066,646; 0,53731
 387,01;   72,412;   60,033; 2023,818; 0,63034
 387,60;   78,639;   79,634; 2039,544;-0,05076
 388,20;   51,145;   48,158; 2070,681; 0,14773
 388,79;   93,262;   79,840; 2211,914; 0,62951
 389,38;   54,284;   45,191; 2114,591; 0,43942
 389,97;   67,300;   60,100; 2256,534; 0,32779
 390,57;   83,348;   70,519; 2282,250; 0,58005
 391,16;   81,148;   67,819; 2344,350; 0,58550
 391,75;   64,090;   62,141; 2361,739; 0,08472
 392,34;   70,402;   62,689; 2534,314; 0,31208
 392,94;   62,177;   57,435; 2531,866; 0,19163
 393,53;   53,744;   40,684; 2583,592; 0,51359
 394,12;   60,827;   55,742; 2671,462; 0,19440
 394,72;   72,297;   63,238; 2681,066; 0,34603
 395,31;   63,415;   37,495; 2721,087; 0,96586
 395,90;   56,386;   48,221; 2829,972; 0,29354
 396,49;   80,985;   54,447; 2959,684; 0,91346
 397,09;   64,303;   47,362; 2931,503; 0,58738
 397,68;   70,516;   54,610; 3083,778; 0,52509
 398,27;   64,419;   57,372; 3138,847; 0,22870
 398,86;   53,345;   36,699; 3190,583; 0,52780
 399,45;   70,940;   53,590; 3290,237; 0,53605
 400,05;   49,343;   43,410; 3227,204; 0,18634
 400,64;   69,592;   66,930; 3333,119; 0,08150
 401,23;   76,773;   58,900; 3394,109; 0,53589
 401,82;   83,273;   81,200; 3450,009; 0,06154
 402,42;   79,109;   63,386; 3526,141; 0,45407
 403,01;   98,316;   82,610; 3624,378; 0,44345
 403,60;   86,399;   63,468; 3703,948; 0,62988
 404,19;   98,501;   73,615; 3713,925; 0,68362
 404,78;   83,868;   73,264; 3693,351; 0,29293
 405,38;   95,836;   70,354; 3880,579; 0,66876
 405,97;   71,604;   60,077; 3843,494; 0,30467
 406,56;   93,807;   87,139; 3973,463; 0,17158
 407,15;   80,066;   70,417; 3987,473; 0,24633
 407,74;   93,018;   87,198; 4097,358; 0,14512
 408,34;   65,650;   55,849; 4144,632; 0,23971
 408,93;   72,577;   66,976; 4153,269; 0,13705
 409,52;   70,590;   60,697; 4245,132; 0,23642
 410,11;  105,891;   86,171; 4321,721; 0,46560
 410,70;   83,741;   66,763; 4271,226; 0,40380
 411,29;   92,593;   68,244; 4342,310; 0,56967
 411,89;   89,312;   69,889; 4445,711; 0,44388
 412,48;   70,000;   59,242; 4494,437; 0,24257
 413,07;   76,502;   72,530; 4563,316; 0,08845
 413,66;   85,098;   69,295; 4633,159; 0,34627
 414,25;   86,408;   62,054; 4719,854; 0,52288
 414,84;   89,577;   73,276; 4642,269; 0,35676
 415,44;  117,603;   92,604; 4746,905; 0,53713
 416,03;   91,479;   71,765; 4819,648; 0,41522
 416,62;   91,967;   72,432; 4873,064; 0,40693
 417,21;  102,039;   77,516; 4873,048; 0,51136
 417,80;   89,716;   75,351; 4894,480; 0,29807
 418,39;  107,356;   83,199; 4954,581; 0,49588
 418,98;   87,609;   60,327; 4924,443; 0,56088
 419,58;   95,980;   74,038; 4935,637; 0,45133
 420,17;   84,476;   66,603; 4989,979; 0,36302
 420,76;  103,779;   84,165; 5072,948; 0,39316
 421,35;   79,320;   61,586; 5004,337; 0,35878
 421,94;  120,156;   94,499; 5096,880; 0,51288
 422,53;   94,270;   65,494; 5058,333; 0,57636
 423,12;   89,389;   72,024; 5078,744; 0,34684
 423,71;   81,312;   66,689; 5068,211; 0,29238
 424,30;  110,757;   89,573; 5100,569; 0,42275
 424,90;   67,645;   43,340; 5114,485; 0,47928
 425,49;   98,348;   81,202; 5178,854; 0,33636
 426,08;  104,548;   92,902; 5202,554; 0,22793
 426,67;   75,327;   45,784; 5121,564; 0,58205
 427,26;   94,603;   68,045; 5250,607; 0,51245
 427,85;  100,852;   70,837; 5203,512; 0,58478
 428,44;   97,266;   77,458; 5282,875; 0,38052
 429,03;  111,937;   94,369; 5336,070; 0,33514
 429,62;  106,629;   78,572; 5320,344; 0,53526
 430,21;  112,354;   87,626; 5379,691; 0,46728
 430,80;   91,850;   68,390; 5384,834; 0,44127
 431,39;   85,869;   64,020; 5422,044; 0,40778
 431,99;  102,312;   78,389; 5404,911; 0,44914
 432,58;  114,989;   88,924; 5475,443; 0,48390
 433,17;   95,498;   61,295; 5473,958; 0,63191
 433,76;  105,753;   76,252; 5611,203; 0,53300
 434,35;  122,635;   87,396; 5644,881; 0,63410
 434,94;  112,049;   86,117; 5689,945; 0,46276
 435,53;  102,225;   85,037; 5702,586; 0,30598
 436,12;   93,862;   77,723; 5717,418; 0,28616
 436,71;  122,985;  100,188; 5794,986; 0,40031
 437,30;  114,714;   85,677; 5821,891; 0,50621
 437,89;  116,928;   90,098; 5954,555; 0,45750
 438,48;  104,896;   84,647; 5952,581; 0,34506
 439,07;  116,674;   82,929; 5962,491; 0,57394
 439,66;  121,390;   92,139; 6155,134; 0,48246
 440,25;  114,062;   88,523; 6180,618; 0,41921
 440,84;  126,086;   93,003; 6242,677; 0,53796
 441,43;  113,359;   82,602; 6365,051; 0,48956
 442,02;  106,115;   68,192; 6383,382; 0,60051
 442,61;  123,769;   96,420; 6402,044; 0,43372
 443,20;  122,479;   94,106; 6499,250; 0,44297
 443,79;  103,809;   78,469; 6561,544; 0,39087
 444,38;  118,312;   88,030; 6697,713; 0,45814
 444,97;  113,672;   88,182; 6713,613; 0,38473
 445,56;  135,794;   97,374; 6900,792; 0,56472
 446,15;  115,467;   90,373; 6925,066; 0,36715
 446,74;  105,377;   74,118; 6970,271; 0,45328
 447,33;  126,809;   85,569; 7177,945; 0,58148
 447,92;  113,952;   87,779; 7318,514; 0,36198
 448,51;  131,780;  101,279; 7302,839; 0,42352
 449,10;  130,958;  101,288; 7460,160; 0,40319
 449,69;  122,330;   81,787; 7609,035; 0,53862
 450,28;  110,583;   79,941; 7744,508; 0,39978
 450,87;  127,368;   85,947; 7863,655; 0,53257
 451,46;  133,827;   91,425; 8014,566; 0,53517
 452,05;  121,986;   84,103; 8123,077; 0,47124
 452,64;  114,423;   76,190; 8257,108; 0,46735
 453,23;  158,504;  117,160; 8452,598; 0,49601
 453,82;  135,145;   84,981; 8555,787; 0,59219
 454,40;  111,523;   65,490; 8714,309; 0,53225
 454,99;  139,985;  105,030; 8923,988; 0,39636
 455,58;  116,739;   77,058; 9016,950; 0,44386
 456,17;  118,841;   70,246; 9261,930; 0,52868
 456,76;  114,652;   71,479; 9410,114; 0,46231
 457,35;  131,112;   89,230; 9515,113; 0,44433
 457,94;  111,314;   70,219; 9743,293; 0,42485
 458,53;  118,338;   67,984; 9887,661; 0,51278
 459,12;  149,499;   91,751;10171,451; 0,57291
 459,71;  113,198;   64,036;10274,061; 0,48150
 460,30;  135,190;   84,539;10423,935; 0,48989
 460,89;  119,652;   71,479;10599,313; 0,45758
 461,48;  125,414;   81,219;10776,394; 0,41323
 462,06;  118,501;   83,598;10916,430; 0,32220
 462,65;   93,042;   46,919;11103,619; 0,41714
 463,24;  138,732;   79,275;11350,114; 0,52753
 463,83;  113,601;   60,398;11498,529; 0,46514
 464,42;  144,649;   85,317;11657,945; 0,51270
 465,01;  131,023;   87,290;11862,509; 0,37140
 465,60;  117,415;   73,592;12020,182; 0,36683
 466,19;  141,214;   84,019;12227,993; 0,47098
 466,77;  136,267;   78,373;12394,166; 0,47008
 467,36;  134,991;   67,653;12490,426; 0,54205
 467,95;  144,974;   79,570;12596,793; 0,52251
 468,54;  137,744;   83,208;12840,198; 0,42750
 469,13;  138,596;   78,262;12922,172; 0,46975
 469,72;  119,988;   63,791;13155,057; 0,42927
 470,31;  142,703;   84,786;13289,810; 0,43860
 470,90;  135,493;   85,300;13438,703; 0,37588
 471,48;   99,006;   41,648;13679,478; 0,42058
 472,07;  187,046;  115,055;13836,477; 0,52466
 472,66;  140,863;   82,738;14008,309; 0,41740
 473,25;  142,167;   74,173;14079,467; 0,48549
 473,84;  137,866;   77,000;14304,478; 0,42781
 474,43;  122,902;   63,613;14592,221; 0,40809
 475,01;  159,751;   77,105;14597,425; 0,56918
 475,60;  133,081;   52,594;14820,130; 0,54502
 476,19;  162,150;   91,032;15001,136; 0,47698
 476,78;  143,991;   76,553;15242,125; 0,44468
 477,37;  125,581;   62,594;15246,130; 0,41483
 477,95;  156,817;   82,681;15389,262; 0,48435
 478,54;  146,085;   77,430;15582,488; 0,44279
 479,13;  143,385;   67,430;15669,188; 0,48684
 479,72;  165,929;   91,113;15805,546; 0,47610
 480,31;  148,616;   76,707;15975,573; 0,45229
 480,89;  137,251;   62,705;16059,024; 0,46602
 481,48;  122,568;   52,588;16219,657; 0,43285
 482,07;  129,644;   54,108;16308,898; 0,46470
 482,66;  125,492;   48,927;16383,015; 0,46875
 483,25;  161,368;   83,288;16630,057; 0,47187
 483,83;  133,559;   63,202;16703,451; 0,42281
 484,42;  133,814;   60,119;16806,393; 0,44007
 485,01;  150,735;   70,837;16977,482; 0,47259
 485,60;  152,667;   76,114;17039,768; 0,45127
 486,18;  142,517;   64,381;17116,361; 0,45823
 486,77;  155,404;   86,760;17139,299; 0,40255
 487,36;  155,974;   64,012;17352,295; 0,53194
 487,95;  151,705;   59,474;17409,289; 0,53159
 488,53;  152,497;   75,477;17539,963; 0,44101
 489,12;  146,137;   56,625;17605,164; 0,51008
 489,71;  115,264;   30,953;17645,000; 0,47866
 490,30;  145,783;   71,683;17741,910; 0,41935
 490,88;  163,512;   92,672;17887,416; 0,39810
 491,47;  141,145;   64,623;17893,189; 0,42921
 492,06;  143,708;   61,236;17920,559; 0,46178
 492,65;  155,127;   73,466;17965,068; 0,45642
 493,23;  152,661;   61,491;18055,730; 0,50666
 493,82;  157,677;   81,132;18124,662; 0,42422
 494,41;  145,042;   54,061;18115,820; 0,50372
 494,99;  165,666;   79,100;18195,479; 0,47783
 495,58;  170,183;   86,883;18196,910; 0,45997
 496,17;  163,632;   64,075;18207,414; 0,54873
 496,76;  169,517;   76,081;18266,463; 0,51366
 497,34;  158,413;   59,145;18340,604; 0,54300
 497,93;  157,406;   58,248;18376,379; 0,54131
 498,52;  164,831;   78,402;18390,025; 0,47199
 499,10;  149,171;   80,950;18436,826; 0,37166
 499,69;  148,046;   65,096;18438,979; 0,45145
 500,28;  128,716;   49,807;18460,174; 0,42861
 500,86;  163,249;   69,258;18459,047; 0,51110
 501,45;  150,349;   55,558;18434,447; 0,51576
 502,04;  143,964;   64,653;18547,600; 0,42910
 502,62;  177,332;   84,875;18603,514; 0,49926
 503,21;  163,747;   62,370;18554,467; 0,54822
 503,80;  174,878;   68,447;18810,752; 0,56787
 504,38;  166,461;   56,591;18774,932; 0,58696
 504,97;  152,178;   51,647;18819,252; 0,53566
 505,56;  179,594;   65,115;18835,395; 0,60990
 506,14;  190,582;   77,809;18917,422; 0,59859
 506,73;  146,218;   39,495;18841,553; 0,56761
 507,32;  182,848;   68,584;18928,357; 0,60586
 507,90;  194,168;   79,788;18947,057; 0,60623
 508,49;  174,826;   56,893;18952,180; 0,62414
 509,08;  197,159;   68,117;19047,643; 0,67990
 509,66;  197,275;   72,885;19103,883; 0,65362
 510,25;  183,320;   63,469;19226,143; 0,62544
 510,83;  178,218;   56,595;19281,453; 0,63263
 511,42;  196,217;   69,122;19226,863; 0,66342
 512,01;  184,196;   53,304;19400,574; 0,67654
 512,59;  182,678;   55,547;19512,553; 0,65340
 513,18;  196,842;   58,661;19397,521; 0,71452
 513,77;  200,384;   53,456;19431,299; 0,75823
 514,35;  210,601;   53,139;19622,031; 0,80465
 514,94;  231,871;   72,350;19687,326; 0,81326
 515,52;  225,185;   46,271;19662,590; 0,91207
 516,11;  280,211;   78,298;19882,627; 1,01954
 516,69;  258,724;   52,504;19688,600; 1,05021
 517,28;  305,443;   85,734;19688,811; 1,12079
 517,87;  289,828;   59,940;19713,758; 1,16969
 518,45;  303,057;   79,329;19768,162; 1,13632
 519,04;  313,880;   54,421;19868,842; 1,30944
 519,62;  319,308;   54,136;19872,158; 1,33803
 520,21;  308,292;   35,768;19909,316; 1,37129
 520,79;  360,288;   54,433;20074,359; 1,52775
 521,38;  350,090;   56,080;20088,336; 1,46768
 521,97;  362,310;   61,825;20362,438; 1,48018
 522,55;  392,287;   68,018;20268,967; 1,60522
 523,14;  369,294;   41,615;20435,494; 1,60675
 523,72;  413,497;   72,577;20645,963; 1,65709
 524,31;  410,618;   80,995;20602,152; 1,60626
 524,89;  400,580;   52,835;20792,332; 1,67673
 525,48;  388,014;   38,060;20930,895; 1,67500
 526,06;  436,096;   61,004;20986,475; 1,79252
 526,65;  457,228;   70,081;21225,059; 1,83005
 527,23;  421,693;   60,842;21099,305; 1,71520
 527,82;  451,251;   51,846;21394,326; 1,87141
 528,41;  451,707;   70,963;21467,369; 1,77948
 528,99;  454,226;   76,793;21623,979; 1,75166
 529,58;  446,186;   54,944;21678,078; 1,80936
 530,16;  471,642;   52,161;21849,721; 1,92444
 530,75;  517,689;   91,906;22135,348; 1,93156
 531,33;  494,014;   46,160;22062,895; 2,03415
 531,92;  496,075;   55,185;22305,984; 1,98146
 532,50;  540,998;   95,992;22653,354; 1,97278
 533,09;  530,355;   75,582;22696,484; 2,01041
 533,67;  542,072;   78,923;22811,215; 2,03740
 534,26;  539,953;   69,593;23054,404; 2,04639
 534,84;  547,027;   71,366;23213,969; 2,05535
 535,42;  552,389;   55,806;23406,248; 2,12665
 536,01;  562,908;   85,136;23645,059; 2,02790
 536,59;  528,792;   39,368;23888,217; 2,05219
 537,18;  570,646;   88,196;24159,578; 2,00425
 537,76;  556,102;   74,254;24458,422; 1,97607
 538,35;  549,903;   70,127;24575,412; 1,95784
 538,93;  567,196;   81,404;24764,273; 1,96814
 539,52;  534,928;   64,781;24960,459; 1,88847
 540,10;  558,269;   70,803;25277,049; 1,93391
 540,69;  563,052;   79,720;25578,816; 1,89549
 541,27;  542,271;   74,050;25731,926; 1,82486
 541,85;  524,777;   61,374;26132,963; 1,77743
 542,44;  522,868;   53,688;26216,357; 1,79332
 543,02;  551,769;   89,603;26640,949; 1,74065
 543,61;  548,144;   90,849;26820,500; 1,71081
 544,19;  510,170;   63,676;26889,137; 1,66444
 544,78;  515,099;   69,165;27105,543; 1,64939
 545,36;  535,354;  102,308;27548,295; 1,57781
 545,94;  499,889;   69,206;27636,047; 1,56232
 546,53;  507,187;   78,959;27848,270; 1,54209
 547,11;  536,025;  100,319;28165,689; 1,55247
 547,70;  541,946;   70,196;28238,479; 1,67475
 548,28;  487,326;   48,793;28532,080; 1,53962
 548,86;  514,726;   89,193;28783,080; 1,48301
 549,45;  483,810;   42,825;28966,537; 1,52465
 550,03;  504,958;   81,444;29260,053; 1,45146
 550,62;  489,285;   68,671;29762,590; 1,41650
 551,20;  503,044;   76,749;30011,801; 1,42406
 551,78;  482,374;   67,712;29974,994; 1,38649
 552,37;  471,589;   49,706;30399,547; 1,39007
 552,95;  481,411;   71,098;30509,926; 1,34799
 553,54;  476,618;   57,095;30897,453; 1,36031
 554,12;  482,266;   84,641;31044,379; 1,28433
 554,70;  490,625;   68,419;31504,891; 1,34304
 555,29;  471,540;   62,687;31736,232; 1,29084
 555,87;  459,913;   60,586;31982,207; 1,25096
 556,45;  449,864;   67,753;32206,900; 1,18893
 557,04;  448,029;   57,255;32612,447; 1,20034
 557,62;  440,529;   75,455;32861,547; 1,11350
 558,20;  413,794;   42,756;33276,695; 1,11644
 558,79;  466,488;  106,633;33556,160; 1,07582
 559,37;  416,444;   57,649;33863,102; 1,06135
 559,95;  407,239;   54,914;34136,043; 1,03379
 560,54;  437,217;   72,222;34305,766; 1,06619
 561,12;  408,699;   59,665;34682,145; 1,00811
 561,70;  408,047;   46,911;34991,668; 1,03345
 562,29;  418,103;   80,127;35404,613; 0,95677
 562,87;  425,610;   77,425;35710,539; 0,97714
 563,45;  414,810;   78,425;36018,738; 0,93596
 564,04;  407,493;   59,142;36042,004; 0,96810
 564,62;  369,932;   47,716;36491,316; 0,88415
 565,20;  401,549;   66,858;36805,246; 0,91101
 565,78;  407,833;   68,890;37188,805; 0,91310
 566,37;  398,777;   71,774;37480,063; 0,87415
 566,95;  387,269;   51,503;37583,648; 0,89461
 567,53;  402,364;   74,253;38052,199; 0,86395
 568,12;  383,026;   59,193;38062,680; 0,85211
 568,70;  404,004;   87,801;38674,398; 0,81946
 569,28;  383,347;   66,111;38869,070; 0,81756
 569,86;  379,036;   68,352;39075,074; 0,79649
 570,45;  381,976;   78,500;39478,477; 0,77024
 571,03;  360,156;   59,855;39592,273; 0,75963
 571,61;  387,043;   73,276;40053,410; 0,78481
 572,19;  357,915;   64,434;40072,484; 0,73356
 572,78;  356,288;   67,633;40432,859; 0,71511
 573,36;  377,389;   97,006;40710,348; 0,69037
 573,94;  319,974;   60,012;40918,395; 0,63625
 574,52;  348,216;   71,507;41099,672; 0,67444
 575,11;  312,959;   37,317;41357,844; 0,66708
 575,69;  328,614;   53,360;41544,496; 0,66340
 576,27;  329,505;   59,374;41726,988; 0,64830
 576,85;  311,389;   41,506;42173,148; 0,64057
 577,44;  308,264;   44,753;42382,301; 0,62241
 578,02;  299,531;   28,402;42406,926; 0,63978
 578,60;  323,067;   61,614;42851,668; 0,61101
 579,18;  311,637;   49,025;43107,563; 0,60990
 579,76;  306,996;   34,004;43175,176; 0,63279
 580,35;  327,291;   68,795;43417,727; 0,59632
 580,93;  323,773;   57,138;43808,508; 0,60943
 581,51;  299,198;   41,292;44046,855; 0,58608
 582,09;  318,001;   64,239;44214,832; 0,57476
 582,67;  311,944;   54,349;44465,402; 0,58002
 583,26;  278,417;   36,522;44784,965; 0,54057
 583,84;  268,482;   32,609;45104,422; 0,52333
 584,42;  287,704;   61,001;45460,102; 0,49936
 585,00;  329,314;   91,760;45715,797; 0,52068
 585,58;  274,829;   39,255;45961,547; 0,51298
 586,17;  304,997;   62,477;45973,762; 0,52824
 586,75;  254,392;   11,568;46134,516; 0,52647
 587,33;  304,651;   45,046;46571,527; 0,55797
 587,91;  334,392;   82,468;46748,816; 0,53984
 588,49;  305,664;   78,053;46766,602; 0,48751
 589,07;  276,280;   48,635;46805,531; 0,48687
 589,65;  274,822;   40,957;46709,723; 0,50112
 590,24;  285,856;   48,755;46929,875; 0,50575
 590,82;  270,827;   38,666;47030,867; 0,49404
 591,40;  289,982;   45,309;47090,820; 0,52008
 591,98;  280,924;   57,604;46914,301; 0,47660
 592,56;  285,527;   59,566;47130,367; 0,48004
 593,14;  290,524;   52,004;47190,000; 0,50600
 593,72;  270,818;   45,195;47402,055; 0,47643
 594,30;  279,131;   49,302;47338,324; 0,48601
 594,89;  279,596;   48,504;47193,375; 0,49018
 595,47;  254,697;   34,677;47507,563; 0,46347
 596,05;  259,529;   26,755;47496,148; 0,49037
 596,63;  274,429;   39,555;47656,648; 0,49326
 597,21;  278,285;   36,371;47898,391; 0,50544
 597,79;  268,822;   44,357;47797,922; 0,47005
 598,37;  269,384;   46,797;47735,902; 0,46674
 598,95;  294,292;   60,568;47945,016; 0,48810
 599,53;  273,184;   41,756;47673,598; 0,48587
 600,11;  275,711;   56,998;48051,426; 0,45570
 600,70;  269,345;   56,123;47864,090; 0,44600
 601,28;  260,182;   44,809;48052,723; 0,44862
 601,86;  277,592;   59,768;47991,918; 0,45444
 602,44;  244,727;   25,766;48088,270; 0,45557
 603,02;  269,625;   40,278;48089,488; 0,47732
 603,60;  275,050;   70,032;48463,637; 0,42365
 604,18;  290,523;   63,931;48321,609; 0,46955
 604,76;  265,001;   52,839;48313,832; 0,43961
 605,34;  254,263;   39,079;48122,813; 0,44752
 605,92;  273,534;   62,863;47909,996; 0,44030
 606,50;  238,756;   19,555;47963,875; 0,45720
 607,08;  245,714;   44,460;47738,996; 0,42196
 607,66;  266,185;   61,171;47912,391; 0,42844
 608,24;  261,536;   50,152;47913,875; 0,44164
 608,82;  262,259;   33,417;47994,344; 0,47714
 609,40;  268,507;   58,063;47801,270; 0,44078
 609,98;  244,996;   38,604;47812,473; 0,43202
 610,56;  269,590;   55,680;47786,738; 0,44816
 611,14;  253,141;   55,687;47626,133; 0,41508
 611,72;  258,726;   61,793;47800,578; 0,41252
 612,30;  253,093;   42,242;47687,906; 0,44254
 612,88;  280,787;   69,218;47868,668; 0,44262
 613,46;  251,156;   24,355;47567,574; 0,47704
 614,04;  257,125;   44,319;47735,391; 0,44622
 614,62;  261,505;   56,074;47474,188; 0,43323
 615,20;  260,780;   53,335;47490,133; 0,43731
 615,78;  242,069;   34,003;47445,250; 0,43885
 616,36;  256,774;   33,512;47368,293; 0,47167
 616,94;  225,485;   13,571;47345,391; 0,44772
 617,52;  232,473;   20,638;47151,305; 0,44946
 618,10;  285,409;   73,110;47277,746; 0,44974
 618,68;  235,477;   32,074;47203,863; 0,43120
 619,26;  247,295;   42,230;47278,984; 0,43412
 619,84;  244,023;   39,031;46848,809; 0,43793
 620,42;  241,118;   46,995;46977,055; 0,41364
 621,00;  234,818;   29,095;46918,152; 0,43874
 621,58;  250,346;   40,796;46835,078; 0,44781
 622,16;  263,535;   52,978;46764,285; 0,45076
 622,74;  257,985;   44,971;47010,891; 0,45355
 623,32;  245,670;   36,376;46796,137; 0,44759
 623,90;  278,750;   69,073;46749,637; 0,44917
 624,48;  243,656;   43,455;46528,375; 0,43068
 625,05;  253,756;   26,455;46671,973; 0,48729
 625,63;  255,756;   50,655;46568,375; 0,44091
 626,21;  240,193;   36,342;46637,707; 0,43744
 626,79;  268,544;   61,549;46653,902; 0,44427
 627,37;  230,571;   44,150;46569,926; 0,40068
 627,95;  293,180;   78,235;46474,934; 0,46328
 628,53;  245,418;   43,895;46391,652; 0,43481
 629,11;  251,502;   45,613;46209,320; 0,44600
 629,69;  266,332;   52,716;46415,516; 0,46075
 630,27;  268,923;   79,831;46333,211; 0,40882
 630,84;  252,056;   44,355;46174,574; 0,45025
 631,42;  259,673;   59,238;46441,008; 0,43214
 632,00;  248,816;   47,107;46328,672; 0,43583
 632,58;  260,252;   62,620;46192,816; 0,42842
 633,16;  270,928;   57,181;46244,859; 0,46278
 633,74;  261,604;   69,401;46156,301; 0,41704
 634,32;  247,212;   42,172;46079,516; 0,44538
 634,90;  262,520;   70,784;46435,531; 0,41354
 635,47;  223,775;   42,385;46012,984; 0,39458
 636,05;  238,312;   45,572;45855,316; 0,42074
 636,63;  243,518;   59,695;46075,453; 0,39948
 637,21;  258,996;   49,204;46146,773; 0,45511
 637,79;  271,255;   69,182;46261,484; 0,43746
 638,37;  262,095;   55,589;45920,184; 0,45025
 638,94;  241,041;   42,087;45894,230; 0,43390
 639,52;  249,641;   49,987;46062,531; 0,43391
 640,10;  268,675;   61,312;46201,988; 0,44942
 640,68;  250,576;   54,011;46143,938; 0,42648
 641,26;  239,878;   29,510;46023,387; 0,45738
 641,84;  256,779;   58,610;46039,234; 0,43098
 642,41;  242,781;   29,109;46052,684; 0,46427
 642,99;  258,482;   55,709;46103,629; 0,44035
 643,57;  221,884;   30,008;46112,680; 0,41637
 644,15;  220,685;   26,308;46156,527; 0,42137
 644,73;  258,587;   44,607;46289,676; 0,46271
 645,30;  266,388;   79,507;46210,223; 0,40511
 645,88;  244,590;   66,206;46235,473; 0,38637
 646,46;  267,991;   62,005;46367,621; 0,44484
 647,04;  262,993;   52,105;46320,270; 0,45579
 647,61;  253,094;   44,804;46301,816; 0,45029
 648,19;  273,096;   69,504;46384,266; 0,43958
 648,77;  247,397;   29,603;46427,012; 0,46941
 649,35;  257,399;   54,803;46487,262; 0,43632
 649,92;  249,100;   50,502;46409,508; 0,42839
 650,50;  239,602;   31,102;46441,855; 0,44925
 651,08;  261,403;   52,101;46384,605; 0,45174
 651,66;  237,705;   29,100;46667,754; 0,44728
 652,23;  247,106;   41,600;46518,000; 0,44217
 652,81;  249,408;   39,699;46704,750; 0,44939
 653,39;  275,109;   80,299;46763,996; 0,41730
 653,97;  243,811;   24,898;46865,746; 0,46735
 654,54;  233,412;   26,698;46614,395; 0,44371
 655,12;  228,514;   35,897;46912,141; 0,41090
 655,70;  262,715;   51,597;47117,492; 0,44856
 656,28;  255,217;   39,996;47191,539; 0,45644
 656,85;  252,018;   47,396;47130,387; 0,43460
 657,43;  225,020;   16,295;47018,234; 0,44408
 658,01;  239,021;   21,494;47262,984; 0,46046
 658,58;  279,822;   65,494;47656,633; 0,45035
 659,16;  265,124;   59,593;47278,879; 0,43527
 659,74;  269,725;   68,593;47494,027; 0,42410
 660,32;  290,227;   74,792;47569,176; 0,45360
 660,89;  242,828;   43,092;47511,125; 0,42078
 661,47;  261,530;   58,091;47867,473; 0,42552
 662,05;  246,231;   46,191;47948,621; 0,41760
 662,62;  278,933;   64,390;48243,270; 0,44530
 663,20;  320,134;   87,089;48433,516; 0,48203
 663,78;  283,336;   61,489;48846,266; 0,45475
 664,35;  275,337;   54,988;48955,414; 0,45061
 664,93;  276,639;   68,088;48995,359; 0,42625
 665,51;  290,140;   51,587;48983,609; 0,48752
 666,08;  252,342;   44,587;49290,957; 0,42187
 666,66;  276,243;   46,686;49966,707; 0,45985
 667,23;  288,745;   59,186;49907,453; 0,46052
 667,81;  286,346;   65,185;50605,402; 0,43759
 668,39;  275,648;   51,285;50611,852; 0,44375
 668,96;  281,949;   62,684;50956,699; 0,43083
 669,54;  277,851;   38,083;51466,645; 0,46621
 670,12;  286,852;   53,483;51883,996; 0,45025
 670,69;  298,154;   69,682;52389,543; 0,43668
 671,27;  288,155;   34,282;52652,191; 0,48248
 671,84;  296,857;   49,681;52463,039; 0,47159
 672,42;  316,858;   84,481;52984,488; 0,43928
 673,00;  304,560;   62,280;53245,234; 0,45556
 673,57;  293,261;   69,680;52998,383; 0,42242
 674,15;  311,163;   68,479;53364,434; 0,45535
 674,72;  292,164;   57,978;53046,281; 0,44196
 675,30;  305,466;   81,878;53068,227; 0,42197
 675,88;  287,967;   59,777;53131,375; 0,42997
 676,45;  301,269;   66,277;53408,426; 0,44054
 677,03;  311,970;   73,976;53198,973; 0,44799
 677,60;  279,072;   33,776;53411,922; 0,45954
 678,18;  294,773;   53,275;53629,270; 0,45076
 678,76;  274,775;   39,975;53442,918; 0,43968
 679,33;  305,576;   65,974;53470,566; 0,44865
 679,91;  292,178;   45,573;53507,914; 0,46127
 680,48;  273,779;   41,173;53547,363; 0,43473
 681,06;  303,981;   59,372;53492,711; 0,45778
 681,63;  293,782;   37,072;53339,258; 0,48161
 682,21;  325,284;   63,671;53256,508; 0,49182
 682,78;  262,185;   21,171;52780,656; 0,45682
 683,36;  287,187;   52,370;53056,602; 0,44301
 683,93;  284,288;   42,570;52885,551; 0,45743
 684,51;  279,390;   43,969;52822,297; 0,44606
 685,08;  289,291;   48,169;53078,445; 0,45469
 685,66;  301,593;   58,168;53179,797; 0,45824
 686,24;  284,794;   52,967;53178,742; 0,43637
 686,81;  294,496;   60,367;53275,191; 0,43997
 687,39;  293,197;   49,866;53298,738; 0,45697
 687,96;  298,399;   56,166;53404,387; 0,45406
 688,54;  282,400;   35,465;53481,938; 0,46202
 689,11;  276,901;   27,465;53681,984; 0,46489
 689,69;  283,503;   31,064;53730,031; 0,47010
 690,26;  307,504;   73,564;54071,480; 0,43324
 690,84;  301,906;   55,563;53842,828; 0,45799
 691,41;  293,607;   43,962;54165,375; 0,46127
 691,98;  287,709;   37,562;54195,523; 0,46188
 692,56;  287,810;   41,261;54274,172; 0,45461
 693,13;  321,612;   58,961;54603,621; 0,48153
 693,71;  283,613;   43,360;54667,969; 0,43983
 694,28;  293,415;   39,860;54832,617; 0,46275
 694,86;  301,516;   50,659;55173,266; 0,45509
 695,43;  315,018;   61,159;55058,313; 0,46159
 696,01;  295,019;   48,858;55477,363; 0,44411
 696,58;  301,021;   49,858;55361,910; 0,45408
 697,16;  295,622;   42,557;55431,758; 0,45689
 697,73;  322,724;   76,356;55810,008; 0,44204
 698,30;  315,725;   55,156;55690,656; 0,46835
 698,88;  311,027;   34,555;55941,102; 0,49452
 699,45;  294,028;   40,755;56208,852; 0,45092
 700,03;  317,430;   59,254;56380,699; 0,45840
 700,60;  319,231;   66,154;56539,246; 0,44814
 701,18;  302,133;   56,053;56680,996; 0,43458
 701,75;  342,134;   75,953;57150,145; 0,46638
 702,32;  324,736;   51,852;56796,793; 0,48090
 702,90;  309,737;   53,051;57066,941; 0,45022
 703,47;  321,239;   51,051;57460,688; 0,47063
 704,05;  346,340;   74,050;57541,035; 0,47382
 704,62;  315,242;   40,550;57539,184; 0,47774
 705,19;  330,943;   43,849;57563,734; 0,49912
 705,77;  308,245;   39,749;57818,680; 0,46470
 706,34;  329,546;   74,148;57908,730; 0,44160
 706,91;  328,848;   54,948;57997,379; 0,47271
 707,49;  327,949;   64,047;58274,027; 0,45336
 708,06;  337,851;   83,146;58384,973; 0,43687
 708,64;  308,852;   35,346;58413,621; 0,46851
 709,21;  331,554;   65,945;58609,969; 0,45369
 709,78;  336,455;   61,545;58767,219; 0,46829
 710,36;  344,957;   69,044;59027,266; 0,46798
 710,93;  343,158;   65,444;59277,016; 0,46902
 711,50;  328,660;   53,143;59302,664; 0,46501
 712,08;  370,561;   60,943;59889,211; 0,51751
 712,65;  348,763;   64,042;59580,059; 0,47839
 713,22;  367,864;   81,542;59653,605; 0,48063
 713,80;  367,166;   81,041;59879,855; 0,47848
 714,37;  341,967;   57,440;59519,605; 0,47850
 714,94;  355,769;   66,040;59479,551; 0,48765
 715,52;  353,670;   62,339;59611,398; 0,48923
 716,09;  334,372;   48,839;59741,449; 0,47834
 716,66;  353,873;   76,138;59670,395; 0,46604
 717,23;  332,575;   76,238;59753,844; 0,42954
 717,81;  356,376;   59,937;59513,094; 0,49861
 718,38;  344,378;   56,437;59206,742; 0,48680
 718,95;  354,579;   77,336;59080,891; 0,46988
 719,53;  338,980;   58,635;59153,836; 0,47440
 720,10;  362,382;   67,635;59244,586; 0,49808
 720,67;  332,983;   39,134;58810,133; 0,49999
 721,24;  367,085;   69,934;58290,582; 0,51039
 721,82;  334,886;   52,633;58242,730; 0,48505
 722,39;  354,488;   70,733;58534,477; 0,48535
 722,96;  361,789;   69,632;58535,527; 0,49971
 723,53;  377,291;   92,032;58405,773; 0,48918
 724,11;  360,892;   81,531;58418,422; 0,47888
 724,68;  349,894;   76,031;58469,973; 0,46899
 725,25;  355,095;   70,130;58659,320; 0,48638
 725,82;  391,097;   93,129;59047,066; 0,50542
 726,40;  350,498;   76,629;59143,414; 0,46366
 726,97;  364,700;   62,928;59210,363; 0,51020
 727,54;  329,601;   59,028;59296,012; 0,45676
 728,11;  353,203;   53,427;59595,258; 0,50347
 728,69;  327,904;   40,727;59430,406; 0,48355
 729,26;  333,206;   61,226;59899,258; 0,45453
 729,83;  346,207;   49,426;60292,703; 0,49264
 730,40;  356,909;   67,025;60108,352; 0,48281
 730,97;  342,410;   54,424;60556,699; 0,47599
 731,55;  354,112;   45,024;60690,648; 0,50966
 732,12;  390,113;   91,223;60692,797; 0,49320
 732,69;  371,515;   74,323;60754,344; 0,48977
 733,26;  369,516;   60,522;60783,395; 0,50886
 733,83;  353,418;   40,622;60893,340; 0,51402
 734,41;  386,219;   72,321;61214,391; 0,51339
 734,98;  329,621;   55,921;61057,438; 0,44868
 735,55;  383,022;   54,020;61239,086; 0,53772
 736,12;  387,524;   80,319;61632,633; 0,49909
 736,69;  402,725;   80,919;61557,781; 0,52346
 737,26;  370,227;   62,718;61698,129; 0,49892
 737,84;  379,528;   64,818;61653,879; 0,51098
 738,41;  362,930;   64,117;61895,625; 0,48327
 738,98;  371,531;   67,917;61786,477; 0,49193
 739,55;  380,733;   52,516;61643,723; 0,53290
 740,12;  381,034;   57,816;62108,270; 0,52090
 740,69;  391,036;   74,115;61972,621; 0,51200
 741,26;  370,537;   77,315;61881,668; 0,47444
 741,83;  378,339;   68,514;61724,715; 0,50250
 742,41;  383,340;   65,313;61882,563; 0,51446
 742,98;  413,542;   94,613;62100,914; 0,51435
 743,55;  384,143;   77,912;62231,461; 0,49270
 744,12;  367,445;   55,512;62051,008; 0,50315
 744,69;  382,746;   67,111;62200,758; 0,50799
 745,26;  362,848;   49,811;61966,406; 0,50558
 745,83;  398,549;   72,810;62373,352; 0,52285
 746,40;  383,251;   67,110;62052,801; 0,51002
 746,97;  365,652;   50,109;61967,551; 0,50962
 747,55;  383,854;   63,908;61938,199; 0,51709
 748,12;  377,355;   68,708;61927,547; 0,49895
 748,69;  382,257;   73,107;61816,492; 0,50070
 749,26;  385,658;   61,907;62114,242; 0,52174
 749,83;  383,960;   50,406;62049,590; 0,53800
 750,40;  422,961;   93,406;61932,438; 0,53292
 750,97;  421,163;  105,505;62078,688; 0,50935
 751,54;  366,864;   44,505;61752,434; 0,52240
 752,11;  380,765;   60,404;61797,984; 0,51891
 752,68;  413,667;   93,003;61696,633; 0,52053
 753,25;  398,868;   64,303;61339,980; 0,54600
 753,82;  395,370;   72,902;61456,027; 0,52534
 754,39;  392,271;   77,402;61643,777; 0,51143
 754,96;  366,873;   67,501;61359,523; 0,48843
 755,53;  357,174;   45,801;61551,871; 0,50625
 756,10;  388,776;   72,100;61327,820; 0,51697
 756,67;  401,277;   72,500;61544,969; 0,53484
 757,24;  395,979;   79,399;61345,215; 0,51673
 757,81;  352,680;   22,199;61266,965; 0,53961
 758,38;  371,682;   63,598;61495,012; 0,50151
 758,95;  419,483;   83,497;61168,961; 0,55003
 759,52;  392,785;   53,797;60702,711; 0,55893
 760,09;  396,286;   80,196;60693,457; 0,52149
 760,66;  375,688;   66,096;60242,406; 0,51447
 761,23;  417,589;   88,695;60198,652; 0,54715
 761,80;  392,791;   67,295;60262,402; 0,54074
 762,37;  401,392;   79,794;60200,852; 0,53492
 762,94;  415,094;   81,194;60215,199; 0,55526
 763,51;  372,695;   49,293;60035,145; 0,53913
 764,08;  393,097;   69,392;60022,195; 0,53993
 764,65;  386,198;   80,492;59748,141; 0,51235
 765,22;  370,700;   60,191;59771,191; 0,52002
 765,79;  404,601;   83,491;59544,438; 0,54004
 766,36;  406,203;   73,990;59413,586; 0,55985
 766,93;  397,204;   58,690;59539,535; 0,56912
 767,50;  403,406;   77,689;59556,785; 0,54762
 768,07;  382,007;   67,389;59555,531; 0,52888
 768,64;  415,109;   90,388;59193,578; 0,54941
 769,21;  376,010;   61,288;58606,828; 0,53757
 769,78;  390,412;   81,087;58207,375; 0,53216
 770,34;  362,913;   36,986;58160,023; 0,56075
 770,91;  388,615;   60,186;58034,773; 0,56650
 771,48;  384,716;   70,585;57894,922; 0,54325
 772,05;  403,318;   58,285;57586,770; 0,59976
 772,62;  374,419;   51,284;57213,918; 0,56529
 773,19;  373,821;   57,684;57361,766; 0,55168
 773,76;  391,222;   78,183;57313,715; 0,54693
 774,33;  393,724;   70,983;57111,762; 0,56581
 774,90;  361,125;   54,582;56564,109; 0,54246
 775,47;  378,127;   73,181;56633,859; 0,53915
 776,03;  381,528;   66,481;56357,707; 0,55967
 776,60;  383,730;   64,480;56136,152; 0,56936
 777,17;  380,331;   69,780;55955,602; 0,55569
 777,74;  342,433;   40,979;55430,750; 0,54424
 778,31;  373,334;   64,779;55665,000; 0,55495
 778,88;  343,236;   25,178;55315,047; 0,57525
 779,45;  394,337;   76,978;55020,195; 0,57761
 780,01;  384,039;   63,277;55023,242; 0,58363
 780,58;  364,640;   70,076;54696,891; 0,53923
 781,15;  340,142;   46,576;54313,441; 0,54097
 781,72;  369,643;   85,875;54310,289; 0,52332
 782,29;  361,845;   65,975;54010,734; 0,54847
 782,86;  370,246;   74,074;53636,184; 0,55295
 783,42;  368,847;   64,974;53663,332; 0,56695
 783,99;  379,349;   68,373;53469,980; 0,58233
 784,56;  369,850;   69,573;53343,430; 0,56365
 785,13;  362,852;   42,572;52994,277; 0,60485
 785,70;  349,553;   69,172;52649,625; 0,53324
 786,26;  359,955;   62,371;52642,371; 0,56596
 786,83;  371,356;   81,570;52462,320; 0,55323
 787,40;  376,158;   74,970;52177,871; 0,57806
 787,97;  346,759;   45,669;52106,719; 0,57834
 788,54;  371,261;   76,969;51899,164; 0,56789
 789,10;  360,862;   61,568;51627,113; 0,58042
 789,67;  375,264;   73,868;51235,262; 0,58911
 790,24;  374,365;   63,567;51157,609; 0,60829
 790,81;  365,067;   85,767;50574,457; 0,55319
 791,37;  377,168;   79,866;50510,508; 0,58953
 791,94;  367,770;   80,665;50570,754; 0,56864
 792,51;  352,571;   56,165;50218,805; 0,59089
 793,08;  362,873;   66,364;49950,852; 0,59439
 793,64;  345,074;   65,464;49827,301; 0,56190
 794,21;  363,476;   77,863;49479,348; 0,57815
 794,78;  359,877;   55,163;49217,996; 0,61981
 795,35;  352,779;   76,762;49034,742; 0,56378
 795,91;  327,480;   51,162;48702,293; 0,56796
 796,48;  351,982;   65,461;48451,738; 0,59215
 797,05;  348,083;   75,961;48155,590; 0,56598
 797,62;  342,485;   62,260;48153,535; 0,58269
 798,18;  339,686;   57,059;47786,684; 0,59214
 798,75;  337,988;   65,659;47600,832; 0,57290
 799,32;  349,389;   73,458;47550,383; 0,58119
 799,88;  333,691;   55,658;47393,430; 0,58734
 800,45;  321,692;   41,357;46711,777; 0,60067
 801,02;  346,594;   66,457;46736,125; 0,60026
 801,58;  378,795;  103,656;46334,172; 0,59515
 802,15;  339,397;   71,656;46161,523; 0,58091
 802,72;  348,198;   77,255;45929,070; 0,59091
 803,28;  317,900;   59,654;45792,617; 0,56468
 803,85;  326,001;   45,254;45498,766; 0,61766
 804,42;  358,303;   80,753;45311,516; 0,61363
 804,98;  373,404;  101,253;45317,164; 0,60189
 805,55;  333,006;   67,352;44887,012; 0,59272
 806,12;  347,007;   87,852;44742,457; 0,58036
 806,68;  339,809;   72,951;44340,906; 0,60282
 807,25;  351,910;   88,851;44179,156; 0,59664
 807,82;  361,012;   84,150;44195,102; 0,62765
 808,38;  341,113;   73,549;43813,652; 0,61171
 808,95;  338,215;   63,749;43737,699; 0,62844
 809,52;  313,616;   59,648;43807,047; 0,58053
 810,08;  331,918;   70,748;43565,098; 0,60047
 810,65;  348,219;   76,847;43732,043; 0,62163
 811,21;  340,021;   74,347;43598,191; 0,61041
 811,78;  372,222;   85,446;43629,039; 0,65859
 812,35;  334,124;   69,846;43379,188; 0,61021
 812,91;  366,825;   92,745;43541,438; 0,63081
 813,48;  339,926;   70,045;43341,285; 0,62370
 814,04;  344,828;   74,244;43530,332; 0,62266
 814,61;  347,229;   78,943;43190,980; 0,62230
 815,18;  336,531;   76,443;43015,629; 0,60571
 815,74;  336,432;   81,642;42867,379; 0,59550
 816,31;  357,334;   93,042;42608,227; 0,62164
 816,87;  312,635;   43,141;42052,676; 0,64151
 817,44;  339,637;   96,041;41998,824; 0,58134
 818,00;  316,938;   56,140;41704,570; 0,62619
 818,57;  341,840;   77,340;41640,117; 0,63639
 819,14;  357,141;   94,739;41450,367; 0,63450
 819,70;  331,443;   90,138;41083,016; 0,58865
 820,27;  333,344;   65,338;40847,563; 0,65716
 820,83;  331,046;   76,437;40615,113; 0,62806
 821,40;  356,847;  108,537;40237,160; 0,61879
 821,96;  328,749;   78,536;40230,809; 0,62316
 822,53;  326,750;   86,236;39938,355; 0,60352
 823,09;  327,152;   97,135;39618,305; 0,58201
 823,66;  325,353;   82,735;39519,152; 0,61521
 824,22;  326,055;   81,934;39276,801; 0,62284
 824,79;  326,456;   77,233;38978,047; 0,64066
 825,35;  332,558;   88,233;38961,195; 0,62852
 825,92;  317,059;   79,632;38659,246; 0,61542
 826,48;  342,461;   91,832;38252,191; 0,65678
 827,05;  347,562;  100,231;38092,641; 0,65100
 827,61;  317,764;   69,431;38141,289; 0,65227
 828,18;  315,165;   74,030;37948,039; 0,63668
 828,74;  332,067;  102,130;37810,285; 0,60978
 829,31;  332,068;  112,729;37720,332; 0,58323
 829,87;  325,170;   73,029;37591,383; 0,67205
 830,44;  326,971;   83,128;37188,332; 0,65717
 831,00;  329,773;   94,627;37026,078; 0,63671
 831,57;  343,474;  111,327;37133,625; 0,62705
 832,13;  316,076;   83,826;36566,773; 0,63660
 832,69;  318,877;   77,626;36531,824; 0,66179
 833,26;  333,879;  101,325;36464,973; 0,63952
 833,82;  338,980;  116,625;36341,219; 0,61382
 834,39;  314,582;   87,224;36149,969; 0,63045
 834,95;  290,083;   76,024;36031,016; 0,59535
 835,52;  334,485;  105,023;35825,164; 0,64239
 836,08;  321,186;  109,022;35731,211; 0,59559
 836,64;  321,288;   91,122;35587,961; 0,64841
 837,21;  320,089;   90,721;35487,109; 0,64800
 837,77;  329,991;   95,721;35148,656; 0,66833
 838,34;  301,992;   79,720;35189,105; 0,63308
 838,90;  298,194;   67,820;34846,453; 0,66240
 839,46;  325,395;   92,219;34863,402; 0,67060
 840,03;  318,897;   87,619;34824,848; 0,66579
 840,59;  323,098;   96,418;34530,496; 0,65830
 841,16;  334,500;  108,518;34448,344; 0,65808
 841,72;  283,901;   61,717;34317,793; 0,64860
 842,28;  295,203;   81,216;34208,543; 0,62702
 842,85;  318,104;  102,216;34333,289; 0,63068
 843,41;  341,505;  101,715;34174,238; 0,70376
 843,97;  313,907;   93,515;33927,188; 0,65140
 844,54;  334,508;  106,314;33683,836; 0,67960
 845,10;  322,310;   99,614;33447,383; 0,66780
 845,67;  293,011;   77,213;33269,629; 0,65014
 846,23;  313,313;  103,213;33224,379; 0,63434
 846,79;  317,314;  108,812;32973,328; 0,63443
 847,36;  288,816;   67,111;32864,273; 0,67599
 847,92;  305,117;   88,411;32868,023; 0,66110
 848,48;  277,819;   56,410;32851,570; 0,67513
 849,04;  287,620;   70,710;32682,721; 0,66512
 849,61;  293,822;   59,109;32504,168; 0,72342
 850,17;  297,623;   70,509;32576,316; 0,69869
 850,73;  293,125;   70,408;32366,064; 0,68962
 851,30;  287,326;   54,308;32162,713; 0,72573
 851,86;  292,428;   67,507;31977,561; 0,70486
 852,42;  286,329;   62,306;32107,209; 0,69909
 852,99;  301,531;   96,006;32017,758; 0,64384
 853,55;  307,332;   83,305;31799,506; 0,70635
 854,11;  288,434;   70,705;31699,553; 0,68839
 854,67;  291,735;   96,004;31494,301; 0,62338
 855,24;  272,637;   55,304;31331,250; 0,69489
 855,80;  296,638;   79,803;31543,799; 0,68915
 856,36;  280,940;   70,703;31319,646; 0,67278
 856,92;  258,241;   55,102;31022,594; 0,65598
 857,49;  291,243;   85,102;31039,643; 0,66595
 858,05;  290,344;   72,701;30859,191; 0,70694
 858,61;  282,246;   72,500;30936,939; 0,67957
 859,17;  301,847;   83,000;30820,986; 0,71198
 859,74;  302,449;   85,299;30645,336; 0,71057
 860,30;  304,650;  105,199;30506,584; 0,65606
 860,86;  288,552;   69,998;30433,432; 0,71979
 861,42;  286,853;   85,998;30371,080; 0,66322
 861,99;  260,555;   63,297;30177,027; 0,65504
 862,55;  275,456;   73,097;29970,076; 0,67686
 863,11;  298,558;   91,896;30127,523; 0,68806
 863,67;  278,959;   66,795;30045,172; 0,70772
 864,23;  291,861;   83,795;29931,920; 0,69708
 864,80;  282,462;   69,294;29597,270; 0,72192
 865,36;  295,864;   84,494;29668,217; 0,71448
 865,92;  306,165;  101,993;29589,766; 0,69239
 866,48;  285,567;   69,793;29520,813; 0,73265
 867,04;  256,268;   54,992;29244,861; 0,68954
 867,60;  280,170;   87,792;29071,910; 0,66374
 868,17;  302,071;  102,091;28909,059; 0,69421
 868,73;  287,873;   85,891;28762,406; 0,70435
 869,29;  262,274;   60,390;28711,254; 0,70464
 869,85;  301,876;  110,289;28446,201; 0,67612
 870,41;  281,677;   85,589;28238,350; 0,69652
 870,97;  292,279;  107,188;28291,998; 0,65670
 871,54;  285,880;   73,088;28003,646; 0,76186
 872,10;  285,582;   84,987;27703,895; 0,72629
 872,66;  265,883;   76,487;27456,043; 0,69174
 873,22;  286,985;   90,186;27453,092; 0,71922
 873,78;  266,886;   78,886;27139,439; 0,69474
 874,34;  304,188;   99,085;26999,787; 0,76244
 874,90;  306,388;  114,485;26774,588; 0,71981
 875,46;  283,188;  109,085;26704,387; 0,65464
 876,03;  270,487;   87,285;26403,287; 0,69616
 876,59;  263,888;   69,285;26175,588; 0,74542
 877,15;  281,388;  107,185;26130,887; 0,66940
 877,71;  273,788;   88,485;26141,188; 0,71126
 878,27;  278,587;   99,585;25897,588; 0,69386
 878,83;  298,987;  113,885;25881,088; 0,71836
 879,39;  284,288;  100,485;25804,988; 0,71506
 879,95;  272,487;   99,785;25691,088; 0,67485
 880,51;  260,587;   75,685;25879,387; 0,71657
 881,07;  266,888;   83,685;26030,488; 0,70607
 881,63;  273,987;   92,985;26092,887; 0,69617
 882,19;  269,087;   84,985;25970,688; 0,71121
 882,75;  266,487;   94,885;26024,287; 0,66181
 883,31;  281,888;   92,385;26209,488; 0,72559
 883,88;  291,087;   95,985;26315,588; 0,74411
 884,44;  263,388;   88,385;26391,287; 0,66534
 885,00;  277,087;  106,285;26737,588; 0,64136
 885,56;  300,188;  104,285;26828,387; 0,73306
 886,12;  301,987;  114,885;27066,688; 0,69421
 886,68;  284,788;   96,185;26972,688; 0,70174
 887,24;  308,888;  119,085;27399,287; 0,69575
 887,80;  286,388;   95,385;27358,188; 0,70060
 888,36;  299,987;  111,585;27635,787; 0,68450
 888,92;  303,788;  107,985;27724,287; 0,70901
 889,48;  312,487;  108,485;28080,588; 0,72931
 890,04;  307,388;  110,585;28084,387; 0,70352
 890,60;  302,987;  120,085;28245,287; 0,65032
 891,16;  302,487;   96,885;28391,088; 0,72666
 891,72;  317,388;  117,785;28391,287; 0,70597
 892,28;  322,788;  125,385;28413,787; 0,69782
 892,84;  301,288;  108,185;28199,188; 0,68742
 893,39;  322,688;  127,585;28371,988; 0,69077
 893,95;  324,587;  123,785;28291,088; 0,71289
 894,51;  264,188;   63,885;28130,188; 0,71368
 895,07;  340,688;  146,385;28192,488; 0,69280
 895,63;  268,788;   77,785;27759,688; 0,68999
 896,19;  302,688;   99,385;27677,188; 0,73720
 896,75;  303,188;  116,885;27502,488; 0,68029
 897,31;  294,288;   95,285;27397,387; 0,72889
 897,87;  290,188;  102,485;27202,887; 0,69262
 898,43;  283,487;  104,485;26834,088; 0,66968
 898,99;  306,587;  108,285;26505,588; 0,75122
 899,55;  299,788;  113,785;26408,387; 0,70738
 900,11;  283,888;  105,885;26277,787; 0,68013
 900,67;  286,688;  100,985;26103,387; 0,71417
 901,22;  304,587;  120,085;25789,688; 0,71876
 901,78;  272,587;   86,285;25623,688; 0,72953
 902,34;  296,688;  120,785;25449,887; 0,69447
 902,90;  264,888;   77,285;25260,887; 0,74494
 903,46;  283,288;  108,985;25158,188; 0,69584
 904,02;  267,087;   91,185;24856,787; 0,71027
 904,58;  256,288;   85,885;24697,387; 0,69237
 905,14;  234,688;   72,885;24593,387; 0,65987
 905,70;  253,788;   81,785;24409,387; 0,70703
 906,25;  252,087;   82,585;24460,588; 0,69531
 906,81;  265,788;   93,685;24376,488; 0,70874
 907,37;  272,888;   73,585;24145,588; 0,82794
 907,93;  250,087;   77,585;24015,488; 0,72062
 908,49;  279,188;  110,285;23841,088; 0,71174
 909,05;  261,788;   94,485;23967,088; 0,70081
 909,60;  274,587;   92,285;23775,387; 0,76976
 910,16;  238,188;   73,485;23571,188; 0,70093
 910,72;  284,987;  105,985;23524,887; 0,76435
 911,28;  270,987;   99,785;23299,488; 0,73795
 911,84;  251,288;   84,885;23241,387; 0,71860
 912,39;  240,488;   72,785;23037,787; 0,73025
 912,95;  267,987;  101,885;23158,287; 0,72042
 913,51;  262,288;  107,485;23089,387; 0,67358
 914,07;  262,587;   87,585;22717,988; 0,77331
 914,63;  240,488;   80,385;22709,787; 0,70750
 915,18;  251,988;   82,985;22633,488; 0,74944
 915,74;  246,387;   73,885;22387,787; 0,77307
 916,30;  218,887;   60,985;22193,588; 0,71344
 916,86;  254,288;   92,785;22035,387; 0,73602
 917,42;  252,288;   97,885;22132,688; 0,70072
 917,97;  240,587;   96,985;21890,688; 0,65892
 918,53;  230,688;   69,485;21738,688; 0,74392
 919,09;  278,587;  106,785;21703,188; 0,79551
 919,65;  241,188;   90,785;21453,088; 0,70406
 920,20;  232,488;   76,985;21260,387; 0,73408
 920,76;  221,887;   74,585;21079,287; 0,70128
 921,32;  245,188;   90,285;20984,188; 0,74138
 921,87;  251,587;   89,885;20647,588; 0,78658
 922,43;  219,488;   68,785;20533,387; 0,73641
 922,99;  216,887;   64,885;20137,088; 0,75728
 923,55;  211,288;   65,485;20009,188; 0,73107
 924,10;  216,188;   70,385;20001,088; 0,73155
 924,66;  225,788;   79,185;19796,787; 0,74351
 925,22;  201,488;   55,485;19602,688; 0,74692
 925,77;  213,887;   76,385;19254,688; 0,71697
 926,33;  233,587;   91,385;19173,488; 0,74521
 926,89;  206,587;   80,085;18934,988; 0,67093
 927,44;  197,387;   56,085;18646,787; 0,76007
 928,00;  215,887;   73,685;18425,088; 0,77489
 928,56;  227,288;   93,785;18165,887; 0,73872
 929,12;  219,387;   94,185;18029,588; 0,69807
 929,67;  194,387;   53,185;17690,188; 0,80060
 930,23;  186,587;   56,585;17430,188; 0,74828
 930,78;  233,488;  110,285;17292,988; 0,71701
 931,34;  197,587;   69,485;16895,588; 0,76133
 931,90;  199,087;   71,985;16495,488; 0,77391
 932,45;  192,688;   83,085;16088,188; 0,68480
 933,01;  181,788;   77,385;15695,188; 0,66848
 933,57;  195,288;   73,485;15207,987; 0,80480
 934,12;  182,188;   79,485;14578,888; 0,70832
 934,68;  159,887;   63,185;13806,987; 0,70361
 935,24;  181,188;   81,385;13091,787; 0,76710
 935,79;  175,587;   80,585;12266,487; 0,77961
 936,35;  189,188;   86,985;11501,388; 0,89538
 936,90;  175,587;  100,485;10583,787; 0,71640
 937,46;  150,887;   82,385; 9839,987; 0,70204
 938,02;  151,188;   72,385; 8967,287; 0,88593
 938,57;  147,087;   83,185; 8376,188; 0,77056
 939,13;  137,988;   81,585; 7777,987; 0,73284
 939,68;  117,988;   62,285; 7204,788; 0,77987
 940,24;  119,188;   78,885; 6876,288; 0,59291
 940,79;  160,988;  106,085; 6589,788; 0,84678
 941,35;  147,288;   95,285; 6296,888; 0,83853
 941,91;  127,988;   71,885; 6126,587; 0,92659
 942,46;  116,787;   74,985; 5977,188; 0,70825
 943,02;  119,588;   78,885; 5912,487; 0,69772
 943,57;  105,688;   63,085; 5846,688; 0,73661
 944,13;  123,588;   75,785; 5912,587; 0,81898
 944,68;  128,688;   68,585; 5973,688; 1,01781
 945,24;  146,688;   88,485; 6052,888; 0,97583
 945,79;  116,887;   68,085; 6070,188; 0,81309
 946,35;  112,188;   61,185; 6182,788; 0,83316
 946,90;  154,188;  112,785; 6334,087; 0,66550
 947,46;  108,188;   56,285; 6539,087; 0,80062
 948,01;  110,887;   55,485; 6671,288; 0,83743
 948,57;  154,587;   92,985; 6915,087; 0,90298
 949,12;  134,087;   83,285; 7090,087; 0,72505
 949,68;  143,587;   90,585; 7317,388; 0,73342
 950,23;  139,688;   77,385; 7512,788; 0,83792
 950,79;  137,587;   82,885; 7745,688; 0,71387
 951,34;  152,387;   85,985; 7985,288; 0,84061
 951,90;  130,288;   64,685; 8279,987; 0,79854
 952,45;  153,387;   97,685; 8464,188; 0,66578
 953,01;  138,688;   69,085; 8675,088; 0,80877
 953,56;  148,188;   86,985; 8965,188; 0,68936
 954,12;  122,488;   57,385; 9127,388; 0,71778
 954,67;  147,087;   73,485; 9305,487; 0,79725
 955,23;  139,788;   75,385; 9487,487; 0,68425
 955,78;  141,988;   77,585; 9767,987; 0,66460
 956,33;  124,488;   58,785; 9861,487; 0,67025
 956,89;  136,188;   62,885;10079,088; 0,73184
 957,44;  147,087;   61,185;10322,088; 0,83718
 958,00;  145,188;   66,285;10490,688; 0,75690
 958,55;  158,188;   70,585;10689,188; 0,82499
 959,10;  145,988;   61,685;10798,487; 0,78517
 959,66;  168,387;   77,585;11005,388; 0,83093
 960,21;  166,387;   71,285;11144,987; 0,85881
 960,77;  149,288;   59,185;11196,487; 0,80902
 961,32;  155,788;   66,385;11442,688; 0,78587
 961,87;  169,387;   91,885;11490,588; 0,67992
 962,43;  152,387;   68,985;11614,987; 0,72235
 962,98;  180,387;   85,785;11731,088; 0,81237
 963,54;  128,087;   43,585;11798,787; 0,71885
 964,09;  147,488;   71,085;11852,487; 0,64850
 964,64;  155,488;   83,385;11906,987; 0,60982
 965,20;  147,188;   61,285;11952,688; 0,72239
 965,75;  164,387;   73,685;12053,487; 0,75713
 966,30;  168,587;   88,485;12085,688; 0,66768
 966,86;  173,288;   80,985;12260,888; 0,75783
 967,41;  169,488;   89,985;12288,388; 0,65175
 967,96;  172,587;   72,785;12324,688; 0,81459
 968,52;  193,288;   91,285;12494,487; 0,82239
 969,07;  174,288;   77,885;12456,888; 0,77876
 969,62;  172,188;   92,985;12395,388; 0,64380
 970,18;  166,188;   67,485;12430,888; 0,79834
 970,73;  162,688;   76,685;12440,588; 0,69559
 971,28;  201,188;   97,685;12509,088; 0,83393
 971,84;  159,488;   72,485;12497,588; 0,70022
 972,39;  195,288;  103,885;12516,287; 0,73638
 972,94;  175,387;   62,285;12606,888; 0,90160
 973,49;  172,688;   71,785;12486,388; 0,81277
 974,05;  172,887;   85,185;12512,287; 0,70574
 974,60;  176,788;   77,585;12438,588; 0,80254
 975,15;  196,688;   86,785;12506,287; 0,88492
 975,71;  176,587;   74,085;12471,088; 0,82683
 976,26;  191,788;   89,485;12460,787; 0,82693
 976,81;  186,988;   91,385;12477,987; 0,77182
 977,36;  193,788;   90,885;12515,787; 0,82820
 977,92;  200,387;  106,785;12414,287; 0,76053
 978,47;  164,788;   82,685;12367,787; 0,66831
 979,02;  193,587;   84,685;12372,888; 0,88624
 979,57;  179,988;   87,685;12184,588; 0,76303
 980,13;  163,288;   73,085;12274,688; 0,73927
 980,68;  169,887;   82,085;12299,088; 0,71869
 981,23;  185,688;   98,285;12232,588; 0,72029
 981,78;  173,288;   87,585;12193,987; 0,70791
 982,33;  186,188;   93,585;12131,088; 0,76928
 982,89;  185,887;   86,385;12112,987; 0,82735
 983,44;  175,688;   77,485;11963,388; 0,82621
 983,99;  204,387;  102,185;12085,188; 0,85290
 984,54;  187,688;   88,185;12037,188; 0,83273
 985,09;  184,688;  104,185;11970,688; 0,67840
 985,65;  172,488;   87,085;11900,888; 0,72290
 986,20;  198,087;  108,485;11873,088; 0,76163
 986,75;  204,488;  109,085;11844,987; 0,81291
 987,30;  194,688;  104,785;11731,588; 0,77323
 987,85;  180,188;   93,485;11707,287; 0,74655
 988,40;  193,887;  102,085;11630,287; 0,79633
 988,96;  198,188;  110,985;11597,987; 0,75914
 989,51;  207,887;  109,185;11503,188; 0,86627
 990,06;  216,488;  139,085;11439,987; 0,68492
 990,61;  184,488;   96,285;11312,888; 0,78636
 991,16;  197,288;  126,785;11284,987; 0,63184
 991,71;  176,688;   95,285;11178,987; 0,73443
 992,26;  180,587;   96,185;11124,787; 0,76531
 992,81;  165,587;   90,585;11117,088; 0,68020
 993,37;  196,387;  112,785;11091,088; 0,76152
 993,92;  200,688;  111,485;10895,787; 0,82715
 994,47;  212,788;  127,285;10881,688; 0,79505
 995,02;  205,488;  120,885;10830,487; 0,78997
 995,57;  183,488;  105,885;10676,287; 0,73415
 996,12;  218,887;  146,185;10671,787; 0,69072
 996,67;  207,087;  120,585;10625,487; 0,82345
 997,22;  183,087;  110,885;10516,388; 0,69389
 997,77;  214,587;  123,885;10509,188; 0,87337
 998,32;  192,688;  113,285;10354,388; 0,77533
 998,87;  204,688;  118,685;10322,987; 0,84281
 999,42;  198,488;  114,485;10232,588; 0,83022
 999,97;  195,587;  106,385;10221,888; 0,88184
1000,53;  215,488;  131,385;10169,188; 0,83786
1001,08;  188,188;  116,785;10035,088; 0,71991
1001,63;  222,387;  142,485; 9961,388; 0,81376
1002,18;  175,288;   80,985; 9795,388; 0,97075
1002,73;  217,188;  138,285; 9811,987; 0,81564
1003,28;  192,087;  112,585; 9773,088; 0,82296
1003,83;  191,887;  131,985; 9598,088; 0,63281
1004,38;  216,188;  133,285; 9567,388; 0,87875
1004,93;  191,587;  121,585; 9472,787; 0,74859
1005,48;  192,188;  125,485; 9456,987; 0,71481
1006,03;  175,788;  110,685; 9367,487; 0,70329
1006,58;  187,288;  108,485; 9267,688; 0,86036
1007,13;  155,387;   87,285; 9216,688; 0,74597
1007,68;  173,288;  104,185; 9176,987; 0,76164
1008,23;  197,387;  115,485; 9089,388; 0,91267
1008,78;  186,288;  112,885; 9076,688; 0,81888
1009,33;  187,887;  130,185; 8977,388; 0,65221
1009,88;  160,387;   91,085; 8917,888; 0,78514
1010,43;  175,688;  106,485; 8847,987; 0,79165
1010,98;  172,887;  107,585; 8784,088; 0,75264
1011,52;  163,988;   98,385; 8757,888; 0,75758
1012,07;  216,188;  151,085; 8797,588; 0,75293
1012,62;  175,887;  102,885; 8672,287; 0,85190
1013,17;  165,387;  107,085; 8654,987; 0,68207
1013,72;  162,688;   96,285; 8549,787; 0,78550
1014,27;  165,887;  115,785; 8482,088; 0,59886
1014,82;  154,488;  100,085; 8280,987; 0,66499
1015,37;  148,188;   90,685; 8148,587; 0,71362
1015,92;  174,488;  113,385; 8078,388; 0,76714
1016,47;  144,288;   89,585; 8002,087; 0,69134
1017,02;  130,188;   83,585; 7781,587; 0,60538
1017,57;  164,188;  110,885; 7677,987; 0,70440
1018,11;  153,087;   93,585; 7625,788; 0,78997
1018,66;  182,587;  120,285; 7544,188; 0,83921
1019,21;  172,488;   97,185; 7441,587; 1,02530
1019,76;  144,188;   91,485; 7241,388; 0,73711
1020,31;  148,988;   87,385; 7140,987; 0,87335
1020,86;  144,988;   99,585; 7136,087; 0,64524
1021,41;  149,488;   85,585; 7046,288; 0,91805
1021,96;  146,688;   91,785; 6968,587; 0,79837
1022,50;  176,688;  114,785; 6908,788; 0,91113
1023,05;  145,087;   96,185; 6774,188; 0,73229
1023,60;  151,887;  109,285; 6668,487; 0,64951
1024,15;  145,988;   82,585; 6582,487; 0,97544
1024,70;  147,688;  118,285; 6556,688; 0,45667
1025,25;  149,887;  105,085; 6444,587; 0,70672
1025,79;  157,188;  111,185; 6416,087; 0,72963
1026,34;  152,688;  103,685; 6359,487; 0,78331
1026,89;  162,387;  101,985; 6282,688; 0,97728
1027,44;  147,788;   91,385; 6238,288; 0,91758
1027,99;  153,887;  102,585; 6140,788; 0,84963
1028,53;  148,688;   99,685; 6068,188; 0,82102
1029,08;  154,887;  105,085; 5984,888; 0,84701
1029,63;  163,587;  117,485; 5934,888; 0,79249
1030,18;  139,688;  106,385; 5824,587; 0,58239
1030,73;  122,488;   87,885; 5655,688; 0,62148
1031,27;  130,387;   88,685; 5663,688; 0,74803
1031,82;  126,988;   90,885; 5572,688; 0,65859
1032,37;  134,887;  103,485; 5566,888; 0,57478
1032,92;  147,988;  107,585; 5490,587; 0,75056
1033,46;  147,188;  106,885; 5381,188; 0,76413
1034,01;  128,587;   85,985; 5319,487; 0,81403
1034,56;  150,988;  109,785; 5296,987; 0,79431
1035,11;  137,488;  104,585; 5234,587; 0,64137
1035,65;  121,887;   96,685; 5100,587; 0,50366
1036,20;  137,188;  106,585; 5087,188; 0,61443
1036,75;  162,288;  121,685; 5047,788; 0,82423
1037,29;  145,488;  100,385; 4975,388; 0,92518
1037,84;  121,887;   83,185; 4881,288; 0,80662
1038,39;  134,488;   98,385; 4838,288; 0,76167
1038,94;  111,787;   83,685; 4734,788; 0,60421
1039,48;  128,087;  100,385; 4724,288; 0,59911
1040,03;  145,087;  106,285; 4702,788; 0,84417
1040,58;  141,587;  100,685; 4594,388; 0,91022
1041,12;  135,788;  110,285; 4521,288; 0,57816
1041,67;  133,587;  103,485; 4461,188; 0,69079
1042,22;  157,087;  121,285; 4432,688; 0,83041
1042,76;  130,887;   98,385; 4327,688; 0,76851
1043,31;  133,488;   93,985; 4289,487; 0,94154
1043,86;  142,788;  118,285; 4202,987; 0,59986
1044,40;  140,688;  106,585; 4136,288; 0,84628
1044,95;  142,688;   99,685; 4102,788; 1,07423
1045,50;  112,887;   84,385; 4030,988; 0,72220
1046,04;  145,788;  121,885; 4008,288; 0,61503
1046,59;  128,288;   96,585; 3927,087; 0,82763
1047,13;  162,587;  118,885; 3891,887; 1,15829
1047,68;  153,788;  114,085; 3865,988; 1,05820
1048,23;  142,688;  121,185; 3817,087; 0,58179
1048,77;  125,287;  104,285; 3716,887; 0,58137
1049,32;  137,288;  109,485; 3669,288; 0,78101
1049,86;  138,587;  106,585; 3625,587; 0,90942
1050,41;  125,887;   93,085; 3587,587; 0,93869
1050,96;  138,587;  110,485; 3541,688; 0,81903
1051,50;  130,688;   98,185; 3486,488; 0,95926
1052,05;  131,887;  104,285; 3428,387; 0,83037
1052,59;  129,688;   97,785; 3377,488; 0,97273
1053,14;  116,387;   89,085; 3312,087; 0,84711
1053,69;  132,387;   99,185; 3261,087; 1,05008
1054,23;  139,587;  114,385; 3244,387; 0,80519
1054,78;  127,387;  109,485; 3203,087; 0,57869
1055,32;  151,188;  131,285; 3124,587; 0,66490
1055,87;  106,188;   86,785; 3086,387; 0,64684
1056,41;  108,887;   91,985; 3038,288; 0,57369
1056,96;  123,887;   92,085; 2979,988; 1,10123
1057,50;  151,188;  122,285; 2963,887; 1,01712
1058,05;   94,188;   84,685; 2903,087; 0,33716
1058,59;  134,488;   95,885; 2856,587; 1,39829
1059,14;  125,988;  113,685; 2828,988; 0,45308
1059,68;  111,488;   86,585; 2787,188; 0,92211
1060,23;  156,288;  135,385; 2801,688; 0,78395
1060,77;  126,787;  114,585; 2694,087; 0,47306
1061,32;  145,188;  113,585; 2690,387; 1,22642
1061,86;  120,588;  100,585; 2638,988; 0,78800
1062,41;  122,488;  112,985; 2588,988; 0,38378
1062,95;  135,587;  103,385; 2532,488; 1,32570
1063,50;  136,188;  121,385; 2531,587; 0,61416
1064,04;  110,887;   87,585; 2470,887; 0,97774
1064,59;  147,788;  118,685; 2420,688; 1,26423
1065,13;  119,787;  114,485; 2390,688; 0,23295
1065,68;  131,387;  111,085; 2340,587; 0,91063
1066,22;  139,788;  120,185; 2342,988; 0,88188
1066,76;  145,887;  126,585; 2324,887; 0,87806
1067,31;  117,887;  103,485; 2240,387; 0,67399
1067,85;  123,887;   98,785; 2227,688; 1,17913
1068,40;  130,788;  112,885; 2216,288; 0,85112
1068,94;  121,988;  103,985; 2163,288; 0,87420
1069,49;  120,287;   97,485; 2154,188; 1,10869
1070,03;  124,988;  104,485; 2089,887; 1,03266
1070,57;  111,488;   95,985; 2073,887; 0,78378
1071,12;   99,287;   83,785; 2044,988; 0,79046
1071,66;  162,988;  134,085; 2075,788; 1,48851
1072,21;  138,887;  116,685; 2020,387; 1,16628
1072,75;  134,887;  102,685; 1991,188; 1,70519
1073,29;  100,387;   88,185; 1929,287; 0,66278
1073,84;  117,188;  105,985; 1934,188; 0,61276
1074,38;  117,988;   99,785; 1900,988; 1,01057
1074,92;  119,887;  107,985; 1903,188; 0,66302
1075,47;  135,288;  116,785; 1900,088; 1,03754
1076,01;  145,288;  135,585; 1865,787; 0,56077
1076,56;  114,688;  103,485; 1816,887; 0,65382
1077,10;   94,887;   90,485; 1785,588; 0,25972
1077,64;  108,588;   97,685; 1777,787; 0,64892
1078,19;  140,488;  131,885; 1776,588; 0,52304
1078,73;  117,988;  108,685; 1757,688; 0,56413
1079,27;  138,988;  127,585; 1725,887; 0,71341
1079,81;  143,387;  128,585; 1709,188; 0,93651
1080,36;  137,387;  108,085; 1672,688; 1,87284
1080,90;  120,787;  107,885; 1631,188; 0,84701
1081,44;  104,088;   95,485; 1628,188; 0,56126
1081,99;   97,287;   71,785; 1579,287; 1,69171
1082,53;  141,587;  120,785; 1598,887; 1,40738
1083,07;  125,488;  114,685; 1569,887; 0,74234
1083,62;  129,488;  113,585; 1553,988; 1,10403
1084,16;  122,887;  112,485; 1541,988; 0,72770
1084,70;  128,688;  119,085; 1527,688; 0,68170
1085,24;  135,087;  116,085; 1504,188; 1,36895
1085,79;  125,988;  106,485; 1481,287; 1,41857
1086,33;  110,787;  104,485; 1424,887; 0,47732
1086,87;  130,587;  115,785; 1426,588; 1,12927
1087,41;  108,588;   91,185; 1424,588; 1,30512
1087,96;  136,988;  132,185; 1431,287; 0,36968
1088,50;  116,688;  106,685; 1378,988; 0,78617
1089,04;  131,688;  123,885; 1413,787; 0,60489
1089,58;   86,387;   87,285; 1345,488;-0,07133
1090,13;  100,488;  108,585; 1338,588;-0,65833
1090,67;  114,188;  120,585; 1335,188;-0,52672
1091,21;  106,088;   97,685; 1289,988; 0,70473
1091,75;  120,588;   94,485; 1295,287; 2,17375
1092,29;  127,688;  121,385; 1309,887; 0,53029
1092,84;  113,488;  108,285; 1255,188; 0,45361
1093,38;  145,188;  138,685; 1289,088; 0,56524
1093,92;  127,588;  126,485; 1245,688; 0,09851
1094,46;  142,288;  125,885; 1241,387; 1,47041
1095,00;  111,287;  102,185; 1207,188; 0,82375
1095,54;   99,887;   91,585; 1185,588; 0,75891
1096,09;  114,588;  117,085; 1174,988;-0,23608
1096,63;  133,087;  129,785; 1177,887; 0,31509
1097,17;  116,088;  104,485; 1142,287; 1,11799
1097,71;  138,188;  128,785; 1148,988; 0,92163
1098,25;  108,188;  106,185; 1074,488; 0,20681
1098,79;  129,188;  113,285; 1111,287; 1,59343
1099,33;  122,088;  125,085; 1078,988;-0,31424
1099,88;  116,488;  117,685; 1058,287;-0,12731
1100,42;   83,188;   84,285; 1020,888;-0,11718

