CICIMAUCR0179_M
Integration time [ms]:   8,000
Averaging Nr. [scans]: 10
Smoothing Nr. [pixels]: 0
Data measured with spectrometer [name]: 7314920SP
Wave   ;Sample   ;Dark     ;Reference;Reflectance
[nm]   ;[counts] ;[counts] ;[counts] ;[%]

 199,42;   69,816;   69,124;  212,912; 0,48151
 200,02;   97,751;   97,516;  201,017; 0,22618
 200,62;   70,930;   69,328;  116,337; 3,40806
 201,22;   90,474;   89,808;  191,196; 0,65660
 201,82;   68,886;   78,699;  227,849;-6,57916
 202,42;  113,443;  107,919;  211,990; 5,30748
 203,03;   58,904;   49,933;  144,859; 9,45039
 203,63;   72,772;   68,244;  153,253; 5,32730
 204,23;   76,291;   79,167;  197,491;-2,43083
 204,83;   81,957;   74,949;  153,601; 8,90976
 205,43;   67,416;   62,524;  192,612; 3,76079
 206,03;   59,249;   65,952;  137,574;-9,35862
 206,63;   68,524;   73,695;  129,953;-9,19250
 207,24;   85,449;   74,278;  246,960; 6,46938
 207,84;   45,941;   58,255;  132,648;-16,55176
 208,44;   52,274;   55,408;  142,596;-3,59489
 209,04;   48,632;   54,593;  111,779;-10,42366
 209,64;   92,469;   74,340;  200,454;14,37519
 210,24;   53,157;   59,249;  129,701;-8,64757
 210,84;   56,782;   60,406;  155,122;-3,82589
 211,44;   89,513;   82,595;  190,227; 6,42778
 212,05;   77,332;   77,893;  120,879;-1,30491
 212,65;   76,504;   82,933;  164,459;-7,88598
 213,25;   99,743;   88,219;  192,990;10,99878
 213,85;   93,063;   87,282;  147,585; 9,58697
 214,45;   59,057;   57,349;  133,901; 2,23073
 215,05;   43,282;   41,406;  140,122; 1,90064
 215,65;   49,090;   58,803;  153,048;-10,30628
 216,25;   57,457;   55,649;  132,501; 2,35214
 216,85;   42,366;   29,911;  142,569;11,05570
 217,45;   54,104;   57,033;  133,359;-3,83765
 218,05;   66,236;   64,486;  160,906; 1,81498
 218,66;   32,158;   32,114;  123,343; 0,04892
 219,26;   38,372;   32,444;  110,553; 7,59026
 219,86;   39,076;   33,573;  147,938; 4,81150
 220,46;   64,629;   55,689;  156,280; 8,88695
 221,06;   65,291;   59,567;  179,691; 4,76490
 221,66;   55,115;   48,459;  173,070; 5,34093
 222,26;   34,869;   37,740;  169,554;-2,17797
 222,86;   75,427;   70,125;  156,338; 6,15044
 223,46;   62,157;   49,349;  140,501;14,05095
 224,06;   67,483;   53,770;  170,464;11,75140
 224,66;   64,152;   63,681;  184,759; 0,38907
 225,26;   68,205;   54,297;  152,501;14,16225
 225,86;   46,293;   50,732;  174,133;-3,59742
 226,46;   56,935;   56,922;  154,264; 0,01338
 227,06;   34,452;   31,681;  136,259; 2,64977
 227,66;   57,455;   46,384;  122,058;14,62948
 228,27;   32,629;   40,089;  152,380;-6,64393
 228,87;   95,144;   86,284;  181,333; 9,32207
 229,47;   41,477;   42,137;  179,680;-0,48009
 230,07;   11,005;   10,997;  120,401; 0,00718
 230,67;   40,966;   52,311;  147,769;-11,88458
 231,27;   34,329;   37,789;  150,380;-3,07355
 231,87;   52,266;   45,111;  153,169; 6,62158
 232,47;   62,333;   61,983;  211,507; 0,23435
 233,07;   50,416;   50,698;  111,627;-0,46285
 233,67;   54,404;   47,333;  137,259; 7,86300
 234,27;   22,049;   19,552;  106,574; 2,86951
 234,87;   45,976;   38,773;  173,938; 5,32880
 235,47;   20,805;   25,997;  134,501;-4,78522
 236,07;   30,194;   33,871;  104,390;-5,21368
 236,67;   44,425;   45,360;  136,795;-1,02203
 237,27;   28,432;   40,218;  177,065;-8,61299
 237,87;   28,752;   42,281;  161,659;-11,33284
 238,47;   24,951;   26,116;  114,617;-1,31740
 239,07;   37,361;   25,643;  171,528; 8,03276
 239,67;   37,635;   51,548;  217,050;-8,40631
 240,27;   55,693;   52,032;  182,133; 2,81376
 240,87;   51,740;   48,316;  206,091; 2,17015
 241,47;   45,561;   50,817;  107,142;-9,33114
 242,07;   40,719;   45,327;  127,711;-5,59338
 242,67;   -5,876;    0,121;  128,039;-4,68827
 243,27;   17,157;   18,649;   93,101;-2,00445
 243,87;   53,283;   63,270;  167,664;-9,56640
 244,47;   50,991;   44,467;  161,591; 5,56999
 245,07;   12,382;   18,606;  116,922;-6,33032
 245,67;   37,804;   44,533;  125,259;-8,33576
 246,27;   43,424;   39,595;   96,053; 6,78126
 246,87;   31,627;   22,125;  117,738; 9,93847
 247,46;   20,330;   18,828;   63,537; 3,35971
 248,06;   21,936;   27,886;  124,906;-6,13276
 248,66;   41,169;   38,540;  161,754; 2,13379
 249,26;   43,294;   36,471;  101,190;10,54305
 249,86;   44,193;   51,532;  172,833;-6,05045
 250,46;   20,241;   23,280;  176,234;-1,98692
 251,06;   28,304;   29,033;  111,359;-0,88566
 251,66;   20,568;   19,476;  139,512; 0,90985
 252,26;   44,910;   36,365;  104,343;12,56956
 252,86;   46,182;   32,306;  140,922;12,77544
 253,46;   -2,343;    1,549;   78,501;-5,05818
 254,06;   30,386;   44,874;  100,464;-26,06075
 254,66;   36,216;   24,424;  155,112; 9,02326
 255,26;   52,801;   41,629;  185,460; 7,76699
 255,86;   44,761;   46,817;   99,342;-3,91388
 256,46;   25,513;   21,995;  127,027; 3,34980
 257,05;   32,360;   25,678;  125,685; 6,68114
 257,65;   51,576;   42,773;  167,138; 7,07809
 258,25;   45,177;   39,437;  160,880; 4,72622
 258,85;   20,782;   26,106;  127,022;-5,27540
 259,45;   15,066;    9,311;  107,069; 5,88713
 260,05;   42,657;   40,249;  112,801; 3,31854
 260,65;   36,710;   40,365;  108,043;-5,40147
 261,25;   29,383;   41,070;  143,564;-11,40236
 261,85;    1,307;   -5,838;  119,043; 5,72129
 262,45;   51,282;   48,806;  144,522; 2,58706
 263,04;   58,608;   45,927;  178,986; 9,53095
 263,64;   47,480;   38,741;  115,980;11,31462
 264,24;   58,699;   43,265;  155,817;13,71298
 264,84;   72,471;   66,305;  203,697; 4,48797
 265,44;   40,196;   28,435;  102,832;15,80757
 266,04;   58,471;   54,079;  117,411; 6,93450
 266,64;   55,025;   54,560;  123,795; 0,67236
 267,24;   40,825;   44,260;  105,895;-5,57228
 267,84;   28,643;   32,519;  118,090;-4,53008
 268,43;   51,011;   59,330;  133,785;-11,17264
 269,03;   48,358;   45,214;  136,843; 3,43191
 269,63;   68,602;   62,268;  128,816; 9,51777
 270,23;   14,155;   17,984;   65,758;-8,01554
 270,83;   50,710;   56,265;  128,243;-7,71851
 271,43;   29,088;   29,638;  107,206;-0,70931
 272,03;   55,496;   50,535;  136,332; 5,78149
 272,62;   29,490;   19,803;  122,348; 9,44632
 273,22;   24,544;   16,184;  111,433; 8,77756
 273,82;   25,674;   30,483;   40,710;-47,01670
 274,42;   29,769;   25,614;   68,869; 9,60550
 275,02;   36,808;   33,801;   87,500; 5,60053
 275,62;   47,877;   51,537;  170,781;-3,06964
 276,21;   33,421;   39,192;  122,554;-6,92292
 276,81;   44,741;   50,655;  118,848;-8,67154
 277,41;   29,322;   22,156;  132,796; 6,47680
 278,01;   13,408;   19,001;   72,600;-10,43397
 278,61;   60,774;   59,408;  151,996; 1,47505
 279,20;   70,593;   63,732;  183,233; 5,74115
 279,80;    3,844;    2,358;   11,347;16,53309
 280,40;   49,794;   34,171;   90,290;27,83966
 281,00;    3,074;    9,408;   86,096;-8,25988
 281,60;   25,063;   32,007;  150,670;-5,85224
 282,20;   19,913;   38,695;  129,627;-20,65439
 282,79;   32,911;   35,030;   99,785;-3,27170
 283,39;   20,402;   29,168;   73,516;-19,76656
 283,99;   27,116;   27,598;   55,627;-1,71971
 284,59;   19,297;    9,100;  105,375;10,59190
 285,19;   33,949;   33,752;   96,274; 0,31527
 285,78;   33,513;   26,295;  122,227; 7,52443
 286,38;   41,724;   46,795;   84,853;-13,32581
 286,98;   33,411;   42,730;  109,785;-13,89694
 287,58;   11,391;    4,767;  110,991; 6,23569
 288,17;   31,901;   23,729;  140,560; 6,99414
 288,77;   20,980;   30,667;  176,065;-6,66194
 289,37;   10,382;   13,206;   99,322;-3,27899
 289,97;   57,216;   50,698;  100,827;13,00258
 290,57;   44,338;   37,851;  142,149; 6,21968
 291,16;   62,896;   72,635;  130,432;-16,85154
 291,76;   23,644;   13,884;  103,733;10,86326
 292,36;   38,572;   36,344;  103,253; 3,33095
 292,96;    8,885;    1,335;  116,607; 6,54989
 293,55;   29,541;   35,255;  100,448;-8,76380
 294,15;   39,021;   28,492;  119,754;11,53705
 294,75;   51,124;   42,295;   85,853;20,26867
 295,35;   16,296;   22,535;   96,932;-8,38700
 295,94;   41,233;   40,557;   96,022; 1,21888
 296,54;   35,035;   31,722;  108,464; 4,31708
 297,14;   52,115;   33,859;  144,270;16,53408
 297,73;    5,547;    9,887;   70,132;-7,20372
 298,33;   31,586;   40,174;   99,364;-14,50781
 298,93;   45,127;   30,325;  113,638;17,76729
 299,53;   25,154;   21,246;  138,401; 3,33577
 300,12;    5,015;    7,459;  114,770;-2,27809
 300,72;   49,580;   68,241;  124,580;-33,12239
 301,32;   40,876;   40,773;  145,238; 0,09829
 301,92;   21,477;   24,312;   62,295;-7,46303
 302,51;   17,065;   14,346;   96,927; 3,29156
 303,11;   16,949;   20,952;   93,674;-5,50432
 303,71;   43,451;   30,616;  121,617;14,10336
 304,30;   24,679;   18,176;   83,737; 9,91792
 304,90;   17,986;   22,074;   85,164;-6,47833
 305,50;   31,955;   35,584;   89,058;-6,78711
 306,09;   29,994;   23,571;   88,790; 9,84890
 306,69;   43,499;   37,765;  140,017; 5,60798
 307,29;   25,466;   24,885;   43,884; 3,05715
 307,88;   46,197;   48,300;  142,675;-2,22801
 308,48;    5,829;   11,989;  111,680;-6,17964
 309,08;    5,115;    8,834;   44,084;-10,55012
 309,68;   17,347;   26,887;   87,532;-15,73074
 310,27;   15,290;   17,703;  113,848;-2,50996
 310,87;   35,835;   29,822;  103,864; 8,12108
 311,47;   51,657;   52,349;  116,401;-1,08092
 312,06;   39,840;   46,190;   96,406;-12,64626
 312,66;   59,396;   52,235;  146,232; 7,61764
 313,26;   36,468;   45,676;  157,012;-8,27031
 313,85;   51,049;   33,452;  110,474;22,84672
 314,45;   39,474;   49,208;  130,496;-11,97515
 315,04;   53,140;   63,290;  105,606;-23,98735
 315,64;   23,280;   27,641;  103,480;-5,75001
 316,24;   41,429;   38,789;  125,980; 3,02723
 316,83;   47,794;   43,171;  121,990; 5,86579
 317,43;   33,088;   29,738;  114,606; 3,94708
 318,03;   49,246;   52,323;  100,590;-6,37464
 318,62;   65,529;   86,763;  121,994;-60,27336
 319,22;   18,143;   21,719;  124,690;-3,47324
 319,82;   46,196;   44,535;  123,932; 2,09119
 320,41;   68,251;   57,916;  170,917; 9,14519
 321,01;   84,055;   84,785;  169,258;-0,86337
 321,60;   75,569;   79,214;  137,469;-6,25746
 322,20;   65,616;   55,024;  210,912; 6,79483
 322,80;   55,980;   61,241;  161,180;-5,26396
 323,39;   61,100;   51,304;  108,574;17,10644
 323,99;   61,510;   75,665;  148,943;-19,31784
 324,59;   65,546;   75,523;  121,990;-21,47086
 325,18;   47,565;   54,546;  141,027;-8,07326
 325,78;   74,647;   75,387;  154,332;-0,93719
 326,37;   64,604;   71,333;  171,659;-6,70726
 326,97;   73,880;   66,641;  181,780; 6,28743
 327,57;   41,130;   41,428;  117,237;-0,39298
 328,16;   63,961;   59,717;  137,042; 5,48882
 328,76;   58,933;   66,157;  165,422;-7,27749
 329,35;   68,476;   71,673;  215,438;-2,22399
 329,95;   32,913;   47,995;  188,127;-10,76237
 330,54;   50,157;   53,049;  176,901;-2,33533
 331,14;   44,341;   43,955;  145,248; 0,38164
 331,74;   57,455;   49,084;  157,158; 7,74534
 332,33;   41,729;   37,489;  190,880; 2,76383
 332,93;   54,077;   51,512;  148,895; 2,63424
 333,52;   55,002;   52,668;  187,116; 1,73591
 334,12;   67,358;   68,714;  222,743;-0,87994
 334,71;   47,294;   43,171;  179,090; 3,03369
 335,31;   69,249;   68,952;  192,674; 0,24015
 335,90;   38,283;   29,144;  139,379; 8,29039
 336,50;   31,124;   31,295;  156,953;-0,13646
 337,10;   51,590;   56,203;  213,048;-2,94125
 337,69;   55,624;   58,595;  181,353;-2,42060
 338,29;   38,072;   41,044;  190,353;-1,99001
 338,88;   40,427;   26,425;  201,238; 8,00997
 339,48;   70,475;   72,747;  186,852;-1,99086
 340,07;   56,418;   52,063;  212,169; 2,72005
 340,67;   48,776;   40,273;  267,038; 3,74955
 341,26;   61,294;   58,271;  227,390; 1,78771
 341,86;   69,005;   67,997;  282,701; 0,46942
 342,45;   64,197;   54,300;  294,375; 4,12260
 343,05;   57,297;   48,700;  266,775; 3,94237
 343,64;   57,925;   55,660;  261,695; 1,09957
 344,24;   52,524;   43,595;  237,153; 4,61286
 344,83;   78,016;   63,198;  283,827; 6,71626
 345,43;   35,333;   33,657;  279,522; 0,68169
 346,02;   41,766;   42,211;  304,369;-0,16968
 346,62;   53,668;   53,076;  330,912; 0,21313
 347,21;   51,947;   54,787;  311,732;-1,10524
 347,81;   40,938;   43,951;  355,349;-0,96758
 348,40;   37,361;   37,717;  297,542;-0,13693
 349,00;   62,846;   52,723;  328,190; 3,67491
 349,59;   77,244;   76,784;  420,333; 0,13405
 350,19;   46,368;   48,176;  412,212;-0,49661
 350,78;   41,349;   52,652;  383,074;-3,42074
 351,38;   31,466;   22,311;  389,069; 2,49624
 351,97;   49,233;   34,957;  401,122; 3,89881
 352,57;   45,729;   31,789;  439,980; 3,41494
 353,16;   38,600;   36,404;  411,674; 0,58542
 353,76;   50,144;   42,384;  494,333; 1,71713
 354,35;   40,505;   30,497;  490,701; 2,17466
 354,95;   45,321;   50,292;  532,454;-1,03100
 355,54;   54,343;   43,119;  531,090; 2,30005
 356,14;   44,505;   44,397;  535,601; 0,02196
 356,73;   49,975;   46,047;  497,052; 0,87102
 357,32;   20,051;   25,916;  543,817;-1,13263
 357,92;   32,246;   29,248;  620,175; 0,50726
 358,51;   63,454;   53,846;  654,401; 1,59986
 359,11;   43,038;   45,951;  660,349;-0,47413
 359,70;   28,060;   30,078;  655,785;-0,32258
 360,30;   63,544;   56,558;  633,847; 1,21017
 360,89;   30,027;   20,725;  679,238; 1,41265
 361,48;   59,821;   53,792;  746,354; 0,87053
 362,08;   16,588;   26,038;  709,306;-1,38309
 362,67;   43,130;   34,028;  722,537; 1,32200
 363,27;   66,365;   50,946;  777,927; 2,12085
 363,86;   44,155;   24,184;  785,858; 2,62195
 364,46;   58,461;   53,717;  816,942; 0,62160
 365,05;   80,780;   63,815;  839,894; 2,18598
 365,64;   56,735;   52,496;  883,078; 0,51032
 366,24;   54,033;   33,732;  926,136; 2,27494
 366,83;   71,769;   52,089; 1030,183; 2,01212
 367,43;   67,860;   72,101; 1067,428;-0,42614
 368,02;   58,953;   47,769; 1189,245; 0,97987
 368,61;   74,416;   71,021; 1314,370; 0,27305
 369,21;   37,783;   37,616; 1309,751; 0,01313
 369,80;   58,941;   55,375; 1431,649; 0,25911
 370,39;   66,078;   60,796; 1667,838; 0,32866
 370,99;   43,986;   51,442; 1696,093;-0,45337
 371,58;   40,211;   31,647; 1771,243; 0,49227
 372,18;   42,258;   37,705; 1907,216; 0,24350
 372,77;   40,997;   52,340; 1905,576;-0,61210
 373,36;   56,833;   48,898; 1956,423; 0,41599
 373,96;   66,684;   51,724; 1859,937; 0,82736
 374,55;   43,984;   43,949; 1820,723; 0,00196
 375,14;   55,589;   46,343; 1722,950; 0,55146
 375,74;   70,542;   74,185; 1591,878;-0,24004
 376,33;   53,264;   44,338; 1488,500; 0,61807
 376,92;   52,053;   39,463; 1433,460; 0,90317
 377,52;  100,545;   93,543; 1607,390; 0,46257
 378,11;   66,299;   60,159; 1524,532; 0,41925
 378,71;   84,806;   72,082; 1607,944; 0,82848
 379,30;   68,142;   63,665; 1696,477; 0,27421
 379,89;   60,816;   65,044; 1708,013;-0,25735
 380,49;   37,489;   28,849; 1764,635; 0,49779
 381,08;   81,794;   84,991; 1727,991;-0,19459
 381,67;   68,911;   63,350; 1745,186; 0,33065
 382,26;   54,394;   46,191; 1718,491; 0,49051
 382,86;   57,130;   47,448; 1715,838; 0,58029
 383,45;   56,177;   48,558; 1836,281; 0,42619
 384,04;   53,561;   49,263; 1871,629; 0,23585
 384,64;   56,663;   51,628; 1928,071; 0,26833
 385,23;   78,709;   68,886; 1889,243; 0,53967
 385,82;   66,456;   57,095; 1958,887; 0,49225
 386,42;   80,049;   64,923; 2066,646; 0,75562
 387,01;   77,047;   60,033; 2023,818; 0,86639
 387,60;   90,058;   79,634; 2039,544; 0,53187
 388,20;   51,977;   48,158; 2070,681; 0,18883
 388,79;   93,513;   79,840; 2211,914; 0,64127
 389,38;   59,094;   45,191; 2114,591; 0,67183
 389,97;   68,341;   60,100; 2256,534; 0,37517
 390,57;   79,386;   70,519; 2282,250; 0,40089
 391,16;   80,686;   67,819; 2344,350; 0,56519
 391,75;   68,024;   62,141; 2361,739; 0,25580
 392,34;   82,861;   62,689; 2534,314; 0,81616
 392,94;   61,628;   57,435; 2531,866; 0,16947
 393,53;   67,488;   40,684; 2583,592; 1,05406
 394,12;   62,694;   55,742; 2671,462; 0,26576
 394,72;   78,031;   63,238; 2681,066; 0,56508
 395,31;   59,956;   37,495; 2721,087; 0,83699
 395,90;   63,556;   48,221; 2829,972; 0,55130
 396,49;   66,267;   54,447; 2959,684; 0,40686
 397,09;   60,650;   47,362; 2931,503; 0,46072
 397,68;   73,188;   54,610; 3083,778; 0,61330
 398,27;   68,897;   57,372; 3138,847; 0,37403
 398,86;   51,019;   36,699; 3190,583; 0,45405
 399,45;   75,232;   53,590; 3290,237; 0,66864
 400,05;   46,699;   43,410; 3227,204; 0,10328
 400,64;   77,544;   66,930; 3333,119; 0,32498
 401,23;   68,830;   58,900; 3394,109; 0,29774
 401,82;   89,830;   81,200; 3450,009; 0,25618
 402,42;   85,469;   63,386; 3526,141; 0,63773
 403,01;  103,688;   82,610; 3624,378; 0,59513
 403,60;   94,194;   63,468; 3703,948; 0,84401
 404,19;   92,772;   73,615; 3713,925; 0,52624
 404,78;   71,531;   73,264; 3693,351;-0,04786
 405,38;   84,833;   70,354; 3880,579; 0,37999
 405,97;   76,681;   60,077; 3843,494; 0,43887
 406,56;  102,791;   87,139; 3973,463; 0,40274
 407,15;   83,853;   70,417; 3987,473; 0,34302
 407,74;   98,908;   87,198; 4097,358; 0,29201
 408,34;   73,849;   55,849; 4144,632; 0,44022
 408,93;   76,271;   66,976; 4153,269; 0,22745
 409,52;   78,697;   60,697; 4245,132; 0,43016
 410,11;  107,086;   86,171; 4321,721; 0,49381
 410,70;   85,421;   66,763; 4271,226; 0,44375
 411,29;   87,575;   68,244; 4342,310; 0,45228
 411,89;  101,421;   69,889; 4445,711; 0,72058
 412,48;   92,383;   59,242; 4494,437; 0,74724
 413,07;   88,003;   72,530; 4563,316; 0,34456
 413,66;   89,405;   69,295; 4633,159; 0,44064
 414,25;   86,622;   62,054; 4719,854; 0,52747
 414,84;  102,171;   73,276; 4642,269; 0,63240
 415,44;  110,392;   92,604; 4746,905; 0,38220
 416,03;   95,991;   71,765; 4819,648; 0,51026
 416,62;  105,385;   72,432; 4873,064; 0,68643
 417,21;   98,142;   77,516; 4873,048; 0,43011
 417,80;   97,430;   75,351; 4894,480; 0,45815
 418,39;  105,978;   83,199; 4954,581; 0,46761
 418,98;   83,811;   60,327; 4924,443; 0,48280
 419,58;   96,080;   74,038; 4935,637; 0,45339
 420,17;   85,082;   66,603; 4989,979; 0,37533
 420,76;  101,791;   84,165; 5072,948; 0,35332
 421,35;  103,928;   61,586; 5004,337; 0,85665
 421,94;  118,678;   94,499; 5096,880; 0,48335
 422,53;   93,894;   65,494; 5058,333; 0,56882
 423,12;   89,208;   72,024; 5078,744; 0,34323
 423,71;   83,721;   66,689; 5068,211; 0,34053
 424,30;  123,667;   89,573; 5100,569; 0,68040
 424,90;   72,361;   43,340; 5114,485; 0,57228
 425,49;  111,471;   81,202; 5178,854; 0,59378
 426,08;  110,071;   92,902; 5202,554; 0,33600
 426,67;   76,536;   45,784; 5121,564; 0,60587
 427,26;   82,435;   68,045; 5250,607; 0,27766
 427,85;   87,369;   70,837; 5203,512; 0,32209
 428,44;  107,396;   77,458; 5282,875; 0,57512
 429,03;  122,064;   94,369; 5336,070; 0,52836
 429,62;  111,057;   78,572; 5320,344; 0,61973
 430,21;  122,889;   87,626; 5379,691; 0,66635
 430,80;  100,091;   68,390; 5384,834; 0,59628
 431,39;   84,905;   64,020; 5422,044; 0,38979
 431,99;  101,421;   78,389; 5404,911; 0,43239
 432,58;  120,808;   88,924; 5475,443; 0,59193
 433,17;   98,305;   61,295; 5473,958; 0,68377
 433,76;  105,000;   76,252; 5611,203; 0,51939
 434,35;  127,175;   87,396; 5644,881; 0,71578
 434,94;  114,602;   86,117; 5689,945; 0,50832
 435,53;  103,858;   85,037; 5702,586; 0,33505
 436,12;  102,897;   77,723; 5717,418; 0,44638
 436,71;  121,710;  100,188; 5794,986; 0,37791
 437,30;  112,441;   85,677; 5821,891; 0,46657
 437,89;  112,868;   90,098; 5954,555; 0,38826
 438,48;  106,227;   84,647; 5952,581; 0,36775
 439,07;  120,893;   82,929; 5962,491; 0,64568
 439,66;  126,739;   92,139; 6155,134; 0,57069
 440,25;  108,797;   88,523; 6180,618; 0,33280
 440,84;  126,941;   93,003; 6242,677; 0,55186
 441,43;  113,130;   82,602; 6365,051; 0,48592
 442,02;  105,072;   68,192; 6383,382; 0,58399
 442,61;  123,505;   96,420; 6402,044; 0,42953
 443,20;  131,533;   94,106; 6499,250; 0,58433
 443,79;  119,353;   78,469; 6561,544; 0,63064
 444,38;  125,563;   88,030; 6697,713; 0,56784
 444,97;  124,114;   88,182; 6713,613; 0,54234
 445,56;  136,638;   97,374; 6900,792; 0,57712
 446,15;  125,327;   90,373; 6925,066; 0,51142
 446,74;  100,113;   74,118; 6970,271; 0,37695
 447,33;  129,153;   85,569; 7177,945; 0,61453
 447,92;  120,311;   87,779; 7318,514; 0,44992
 448,51;  134,422;  101,279; 7302,839; 0,46022
 449,10;  134,699;  101,288; 7460,160; 0,45403
 449,69;  120,188;   81,787; 7609,035; 0,51016
 450,28;  114,532;   79,941; 7744,508; 0,45130
 450,87;  120,116;   85,947; 7863,655; 0,43932
 451,46;  138,479;   91,425; 8014,566; 0,59388
 452,05;  123,541;   84,103; 8123,077; 0,49058
 452,64;  129,480;   76,190; 8257,108; 0,65140
 453,23;  167,166;  117,160; 8452,598; 0,59993
 453,82;  136,004;   84,981; 8555,787; 0,60233
 454,40;  103,580;   65,490; 8714,309; 0,44041
 454,99;  152,452;  105,030; 8923,988; 0,53773
 455,58;  112,285;   77,058; 9016,950; 0,39404
 456,17;  126,605;   70,246; 9261,930; 0,61315
 456,76;  118,311;   71,479; 9410,114; 0,50149
 457,35;  129,463;   89,230; 9515,113; 0,42683
 457,94;  131,583;   70,219; 9743,293; 0,63438
 458,53;  122,296;   67,984; 9887,661; 0,55309
 459,12;  152,579;   91,751;10171,451; 0,60347
 459,71;  127,747;   64,036;10274,061; 0,62401
 460,30;  140,539;   84,539;10423,935; 0,54163
 460,89;  139,211;   71,479;10599,313; 0,64337
 461,48;  141,983;   81,219;10776,394; 0,56815
 462,06;  126,957;   83,598;10916,430; 0,40025
 462,65;  109,994;   46,919;11103,619; 0,57047
 463,24;  143,308;   79,275;11350,114; 0,56813
 463,83;  103,257;   60,398;11498,529; 0,37470
 464,42;  144,502;   85,317;11657,945; 0,51142
 465,01;  128,880;   87,290;11862,509; 0,35320
 465,60;  130,972;   73,592;12020,182; 0,48030
 466,19;  145,483;   84,019;12227,993; 0,50613
 466,77;  139,027;   78,373;12394,166; 0,49249
 467,36;  130,671;   67,653;12490,426; 0,50727
 467,95;  132,835;   79,570;12596,793; 0,42553
 468,54;  141,314;   83,208;12840,198; 0,45549
 469,13;  142,558;   78,262;12922,172; 0,50059
 469,72;  141,061;   63,791;13155,057; 0,59024
 470,31;  153,777;   84,786;13289,810; 0,52246
 470,90;  152,449;   85,300;13438,703; 0,50286
 471,48;  110,986;   41,648;13679,478; 0,50843
 472,07;  179,793;  115,055;13836,477; 0,47180
 472,66;  146,829;   82,738;14008,309; 0,46024
 473,25;  137,627;   74,173;14079,467; 0,45307
 473,84;  144,438;   77,000;14304,478; 0,47400
 474,43;  124,988;   63,613;14592,221; 0,42245
 475,01;  151,122;   77,105;14597,425; 0,50975
 475,60;  123,354;   52,594;14820,130; 0,47915
 476,19;  159,433;   91,032;15001,136; 0,45876
 476,78;  158,071;   76,553;15242,125; 0,53752
 477,37;  140,354;   62,594;15246,130; 0,51213
 477,95;  172,593;   82,681;15389,262; 0,58741
 478,54;  147,652;   77,430;15582,488; 0,45290
 479,13;  142,652;   67,430;15669,188; 0,48214
 479,72;  161,299;   91,113;15805,546; 0,44663
 480,31;  157,004;   76,707;15975,573; 0,50505
 480,89;  145,722;   62,705;16059,024; 0,51898
 481,48;  134,058;   52,588;16219,657; 0,50393
 482,07;  140,414;   54,108;16308,898; 0,53096
 482,66;  151,960;   48,927;16383,015; 0,63078
 483,25;  175,358;   83,288;16630,057; 0,55642
 483,83;  144,230;   63,202;16703,451; 0,48694
 484,42;  151,183;   60,119;16806,393; 0,54379
 485,01;  148,518;   70,837;16977,482; 0,45947
 485,60;  162,369;   76,114;17039,768; 0,50847
 486,18;  149,693;   64,381;17116,361; 0,50031
 486,77;  159,066;   86,760;17139,299; 0,42402
 487,36;  149,177;   64,012;17352,295; 0,49262
 487,95;  164,297;   59,474;17409,289; 0,60417
 488,53;  160,490;   75,477;17539,963; 0,48677
 489,12;  146,438;   56,625;17605,164; 0,51180
 489,71;  127,860;   30,953;17645,000; 0,55017
 490,30;  157,374;   71,683;17741,910; 0,48495
 490,88;  184,105;   92,672;17887,416; 0,51382
 491,47;  164,146;   64,623;17893,189; 0,55822
 492,06;  152,507;   61,236;17920,559; 0,51105
 492,65;  166,621;   73,466;17965,068; 0,52066
 493,23;  141,750;   61,491;18055,730; 0,44603
 493,82;  162,144;   81,132;18124,662; 0,44898
 494,41;  156,636;   54,061;18115,820; 0,56792
 494,99;  173,738;   79,100;18195,479; 0,52239
 495,58;  168,274;   86,883;18196,910; 0,44943
 496,17;  159,008;   64,075;18207,414; 0,52324
 496,76;  168,893;   76,081;18266,463; 0,51023
 497,34;  160,194;   59,145;18340,604; 0,55274
 497,93;  168,886;   58,248;18376,379; 0,60398
 498,52;  170,719;   78,402;18390,025; 0,50415
 499,10;  180,068;   80,950;18436,826; 0,53998
 499,69;  160,035;   65,096;18438,979; 0,51670
 500,28;  148,904;   49,807;18460,174; 0,53826
 500,86;  169,744;   69,258;18459,047; 0,54642
 501,45;  149,744;   55,558;18434,447; 0,51247
 502,04;  172,160;   64,653;18547,600; 0,58166
 502,62;  200,008;   84,875;18603,514; 0,62171
 503,21;  160,024;   62,370;18554,467; 0,52809
 503,80;  178,475;   68,447;18810,752; 0,58706
 504,38;  164,950;   56,591;18774,932; 0,57890
 504,97;  160,875;   51,647;18819,252; 0,58200
 505,56;  187,580;   65,115;18835,395; 0,65244
 506,14;  175,385;   77,809;18917,422; 0,51793
 506,73;  135,824;   39,495;18841,553; 0,51233
 507,32;  178,455;   68,584;18928,357; 0,58257
 507,90;  190,858;   79,788;18947,057; 0,58869
 508,49;  178,532;   56,893;18952,180; 0,64375
 509,08;  190,861;   68,117;19047,643; 0,64672
 509,66;  201,866;   72,885;19103,883; 0,67774
 510,25;  188,513;   63,469;19226,143; 0,65254
 510,83;  184,824;   56,595;19281,453; 0,66699
 511,42;  214,835;   69,122;19226,863; 0,76060
 512,01;  198,400;   53,304;19400,574; 0,74996
 512,59;  206,675;   55,547;19512,553; 0,77673
 513,18;  208,636;   58,661;19397,521; 0,77551
 513,77;  201,463;   53,456;19431,299; 0,76379
 514,35;  205,299;   53,139;19622,031; 0,77756
 514,94;  226,368;   72,350;19687,326; 0,78521
 515,52;  206,894;   46,271;19662,590; 0,81883
 516,11;  255,016;   78,298;19882,627; 0,89232
 516,69;  218,011;   52,504;19688,600; 0,84287
 517,28;  252,125;   85,734;19688,811; 0,84880
 517,87;  231,910;   59,940;19713,758; 0,87500
 518,45;  250,141;   79,329;19768,162; 0,86756
 519,04;  255,865;   54,421;19868,842; 1,01665
 519,62;  255,107;   54,136;19872,158; 1,01408
 520,21;  257,402;   35,768;19909,316; 1,11522
 520,79;  296,904;   54,433;20074,359; 1,21115
 521,38;  303,482;   56,080;20088,336; 1,23502
 521,97;  331,727;   61,825;20362,438; 1,32953
 522,55;  352,272;   68,018;20268,967; 1,40713
 523,14;  344,280;   41,615;20435,494; 1,48410
 523,72;  402,890;   72,577;20645,963; 1,60553
 524,31;  413,724;   80,995;20602,152; 1,62139
 524,89;  405,296;   52,835;20792,332; 1,69946
 525,48;  410,926;   38,060;20930,895; 1,78466
 526,06;  440,200;   61,004;20986,475; 1,81213
 526,65;  478,652;   70,081;21225,059; 1,93132
 527,23;  471,091;   60,842;21099,305; 1,95000
 527,82;  469,065;   51,846;21394,326; 1,95487
 528,41;  498,018;   70,963;21467,369; 1,99592
 528,99;  488,432;   76,793;21623,979; 1,91041
 529,58;  486,883;   54,944;21678,078; 1,99758
 530,16;  489,336;   52,161;21849,721; 2,00562
 530,75;  547,493;   91,906;22135,348; 2,06677
 531,33;  503,125;   46,160;22062,895; 2,07554
 531,92;  504,866;   55,185;22305,984; 2,02096
 532,50;  554,621;   95,992;22653,354; 2,03317
 533,09;  540,663;   75,582;22696,484; 2,05598
 533,67;  532,757;   78,923;22811,215; 1,99643
 534,26;  529,843;   69,593;23054,404; 2,00241
 534,84;  547,621;   71,366;23213,969; 2,05791
 535,42;  533,693;   55,806;23406,248; 2,04658
 536,01;  555,407;   85,136;23645,059; 1,99606
 536,59;  529,902;   39,368;23888,217; 2,05685
 537,18;  570,235;   88,196;24159,578; 2,00254
 537,76;  560,930;   74,254;24458,422; 1,99587
 538,35;  554,119;   70,127;24575,412; 1,97505
 538,93;  570,701;   81,404;24764,273; 1,98233
 539,52;  550,352;   64,781;24960,459; 1,95042
 540,10;  581,890;   70,803;25277,049; 2,02762
 540,69;  590,054;   79,720;25578,816; 2,00138
 541,27;  582,268;   74,050;25731,926; 1,98075
 541,85;  566,286;   61,374;26132,963; 1,93664
 542,44;  572,458;   53,688;26216,357; 1,98286
 543,02;  600,290;   89,603;26640,949; 1,92339
 543,61;  611,057;   90,849;26820,500; 1,94618
 544,19;  604,679;   63,676;26889,137; 2,01675
 544,78;  599,510;   69,165;27105,543; 1,96160
 545,36;  608,674;  102,308;27548,295; 1,84495
 545,94;  585,993;   69,206;27636,047; 1,87467
 546,53;  593,615;   78,959;27848,270; 1,85332
 547,11;  646,443;  100,319;28165,689; 1,94590
 547,70;  631,735;   70,196;28238,479; 1,99351
 548,28;  593,432;   48,793;28532,080; 1,91214
 548,86;  646,032;   89,193;28783,080; 1,94062
 549,45;  610,427;   42,825;28966,537; 1,96241
 550,03;  627,572;   81,444;29260,053; 1,87168
 550,62;  622,694;   68,671;29762,590; 1,86578
 551,20;  637,057;   76,749;30011,801; 1,87174
 551,78;  631,577;   67,712;29974,994; 1,88538
 552,37;  621,493;   49,706;30399,547; 1,88398
 552,95;  630,116;   71,098;30509,926; 1,83653
 553,54;  617,824;   57,095;30897,453; 1,81816
 554,12;  625,980;   84,641;31044,379; 1,74853
 554,70;  638,043;   68,419;31504,891; 1,81198
 555,29;  626,047;   62,687;31736,232; 1,77865
 555,87;  607,936;   60,586;31982,207; 1,71467
 556,45;  591,760;   67,753;32206,900; 1,63043
 557,04;  587,641;   57,255;32612,447; 1,62919
 557,62;  602,941;   75,455;32861,547; 1,60887
 558,20;  570,722;   42,756;33276,695; 1,58863
 558,79;  615,804;  106,633;33556,160; 1,52221
 559,37;  562,157;   57,649;33863,102; 1,49239
 559,95;  576,858;   54,914;34136,043; 1,53148
 560,54;  564,635;   72,222;34305,766; 1,43839
 561,12;  555,710;   59,665;34682,145; 1,43272
 561,70;  547,866;   46,911;34991,668; 1,43356
 562,29;  569,819;   80,127;35404,613; 1,38627
 562,87;  556,827;   77,425;35710,539; 1,34538
 563,45;  569,627;   78,425;36018,738; 1,36672
 564,04;  529,991;   59,142;36042,004; 1,30854
 564,62;  529,250;   47,716;36491,316; 1,32131
 565,20;  537,744;   66,858;36805,246; 1,28173
 565,78;  544,240;   68,890;37188,805; 1,28058
 566,37;  555,086;   71,774;37480,063; 1,29199
 566,95;  534,190;   51,503;37583,648; 1,28606
 567,53;  550,160;   74,253;38052,199; 1,25311
 568,12;  513,232;   59,193;38062,680; 1,19473
 568,70;  543,008;   87,801;38674,398; 1,17970
 569,28;  504,766;   66,111;38869,070; 1,13047
 569,86;  505,049;   68,352;39075,074; 1,11954
 570,45;  501,697;   78,500;39478,477; 1,07411
 571,03;  481,852;   59,855;39592,273; 1,06747
 571,61;  488,868;   73,276;40053,410; 1,03950
 572,19;  490,115;   64,434;40072,484; 1,06399
 572,78;  475,704;   67,633;40432,859; 1,01095
 573,36;  505,993;   97,006;40710,348; 1,00702
 573,94;  443,977;   60,012;40918,395; 0,93975
 574,52;  471,304;   71,507;41099,672; 0,97444
 575,11;  427,161;   37,317;41357,844; 0,94346
 575,69;  457,125;   53,360;41544,496; 0,97314
 576,27;  427,597;   59,374;41726,988; 0,88371
 576,85;  431,093;   41,506;42173,148; 0,92469
 577,44;  415,260;   44,753;42382,301; 0,87513
 578,02;  419,219;   28,402;42406,926; 0,92221
 578,60;  439,869;   61,614;42851,668; 0,88398
 579,18;  426,738;   49,025;43107,563; 0,87721
 579,76;  410,000;   34,004;43175,176; 0,87155
 580,35;  426,213;   68,795;43417,727; 0,82451
 580,93;  430,188;   57,138;43808,508; 0,85266
 581,51;  397,621;   41,292;44046,855; 0,80974
 582,09;  426,899;   64,239;44214,832; 0,82142
 582,67;  395,057;   54,349;44465,402; 0,76717
 583,26;  388,635;   36,522;44784,965; 0,78687
 583,84;  373,285;   32,609;45104,422; 0,75585
 584,42;  390,408;   61,001;45460,102; 0,72558
 585,00;  401,525;   91,760;45715,797; 0,67895
 585,58;  362,041;   39,255;45961,547; 0,70290
 586,17;  373,690;   62,477;45973,762; 0,67786
 586,75;  323,302;   11,568;46134,516; 0,67588
 587,33;  356,865;   45,046;46571,527; 0,67020
 587,91;  387,702;   82,468;46748,816; 0,65408
 588,49;  361,260;   78,053;46766,602; 0,60659
 589,07;  359,596;   48,635;46805,531; 0,66506
 589,65;  339,033;   40,957;46709,723; 0,63871
 590,24;  338,452;   48,755;46929,875; 0,61794
 590,82;  332,121;   38,666;47030,867; 0,62448
 591,40;  340,785;   45,309;47090,820; 0,62806
 591,98;  342,911;   57,604;46914,301; 0,60889
 592,56;  366,921;   59,566;47130,367; 0,65296
 593,14;  338,111;   52,004;47190,000; 0,60696
 593,72;  330,624;   45,195;47402,055; 0,60272
 594,30;  339,019;   49,302;47338,324; 0,61265
 594,89;  332,300;   48,504;47193,375; 0,60197
 595,47;  316,690;   34,677;47507,563; 0,59405
 596,05;  319,641;   26,755;47496,148; 0,61700
 596,63;  309,641;   39,555;47656,648; 0,56721
 597,21;  331,194;   36,371;47898,391; 0,61599
 597,79;  323,133;   44,357;47797,922; 0,58378
 598,37;  314,905;   46,797;47735,902; 0,56220
 598,95;  348,602;   60,568;47945,016; 0,60152
 599,53;  313,163;   41,756;47673,598; 0,56980
 600,11;  324,216;   56,998;48051,426; 0,55677
 600,70;  330,246;   56,123;47864,090; 0,57338
 601,28;  293,385;   44,809;48052,723; 0,51778
 601,86;  313,402;   59,768;47991,918; 0,52915
 602,44;  287,121;   25,766;48088,270; 0,54378
 603,02;  296,300;   40,278;48089,488; 0,53283
 603,60;  325,933;   70,032;48463,637; 0,52879
 604,18;  328,822;   63,931;48321,609; 0,54891
 604,76;  311,099;   52,839;48313,832; 0,53513
 605,34;  293,671;   39,079;48122,813; 0,52948
 605,92;  334,429;   62,863;47909,996; 0,56757
 606,50;  288,052;   19,555;47963,875; 0,56002
 607,08;  302,125;   44,460;47738,996; 0,54024
 607,66;  290,794;   61,171;47912,391; 0,47987
 608,24;  294,849;   50,152;47913,875; 0,51124
 608,82;  284,561;   33,417;47994,344; 0,52364
 609,40;  302,318;   58,063;47801,270; 0,51160
 609,98;  282,000;   38,604;47812,473; 0,50948
 610,56;  295,682;   55,680;47786,738; 0,50282
 611,14;  281,747;   55,687;47626,133; 0,47521
 611,72;  302,032;   61,793;47800,578; 0,50324
 612,30;  284,291;   42,242;47687,906; 0,50802
 612,88;  321,672;   69,218;47868,668; 0,52815
 613,46;  298,452;   24,355;47567,574; 0,57652
 614,04;  281,843;   44,319;47735,391; 0,49805
 614,62;  281,497;   56,074;47474,188; 0,47539
 615,20;  298,596;   53,335;47490,133; 0,51703
 615,78;  268,290;   34,003;47445,250; 0,49416
 616,36;  272,777;   33,512;47368,293; 0,50547
 616,94;  259,694;   13,571;47345,391; 0,52000
 617,52;  263,788;   20,638;47151,305; 0,51591
 618,10;  308,196;   73,110;47277,746; 0,49801
 618,68;  267,386;   32,074;47203,863; 0,49884
 619,26;  281,211;   42,230;47278,984; 0,50592
 619,84;  264,322;   39,031;46848,809; 0,48129
 620,42;  281,524;   46,995;46977,055; 0,49974
 621,00;  269,324;   29,095;46918,152; 0,51233
 621,58;  280,935;   40,796;46835,078; 0,51318
 622,16;  292,260;   52,978;46764,285; 0,51226
 622,74;  289,194;   44,971;47010,891; 0,52000
 623,32;  275,579;   36,376;46796,137; 0,51156
 623,90;  306,876;   69,073;46749,637; 0,50943
 624,48;  267,452;   43,455;46528,375; 0,48187
 625,05;  264,952;   26,455;46671,973; 0,51130
 625,63;  284,152;   50,655;46568,375; 0,50195
 626,21;  263,891;   36,342;46637,707; 0,48829
 626,79;  296,357;   61,549;46653,902; 0,50396
 627,37;  270,368;   44,150;46569,926; 0,48622
 627,95;  322,396;   78,235;46474,934; 0,52625
 628,53;  274,224;   43,895;46391,652; 0,49696
 629,11;  287,988;   45,613;46209,320; 0,52503
 629,69;  271,251;   52,716;46415,516; 0,47136
 630,27;  296,122;   79,831;46333,211; 0,46762
 630,84;  267,952;   44,355;46174,574; 0,48471
 631,42;  270,488;   59,238;46441,008; 0,45546
 632,00;  271,704;   47,107;46328,672; 0,48528
 632,58;  291,254;   62,620;46192,816; 0,49563
 633,16;  283,152;   57,181;46244,859; 0,48925
 633,74;  284,708;   69,401;46156,301; 0,46718
 634,32;  263,005;   42,172;46079,516; 0,47968
 634,90;  283,944;   70,784;46435,531; 0,45975
 635,47;  265,966;   42,385;46012,984; 0,48636
 636,05;  267,505;   45,572;45855,316; 0,48447
 636,63;  277,024;   59,695;46075,453; 0,47229
 637,21;  290,700;   49,204;46146,773; 0,52388
 637,79;  298,263;   69,182;46261,484; 0,49593
 638,37;  274,869;   55,589;45920,184; 0,47810
 638,94;  271,847;   42,087;45894,230; 0,50109
 639,52;  288,547;   49,987;46062,531; 0,51847
 640,10;  302,978;   61,312;46201,988; 0,52376
 640,68;  281,979;   54,011;46143,938; 0,49462
 641,26;  264,781;   29,510;46023,387; 0,51153
 641,84;  276,782;   58,610;46039,234; 0,47449
 642,41;  253,184;   29,109;46052,684; 0,48687
 642,99;  280,786;   55,709;46103,629; 0,48879
 643,57;  255,387;   30,008;46112,680; 0,48908
 644,15;  252,889;   26,308;46156,527; 0,49118
 644,73;  270,990;   44,607;46289,676; 0,48953
 645,30;  280,192;   79,507;46210,223; 0,43504
 645,88;  284,293;   66,206;46235,473; 0,47236
 646,46;  281,895;   62,005;46367,621; 0,47487
 647,04;  280,297;   52,105;46320,270; 0,49319
 647,61;  268,798;   44,804;46301,816; 0,48424
 648,19;  291,700;   69,504;46384,266; 0,47975
 648,77;  248,501;   29,603;46427,012; 0,47179
 649,35;  275,603;   54,803;46487,262; 0,47553
 649,92;  279,705;   50,502;46409,508; 0,49441
 650,50;  257,706;   31,102;46441,855; 0,48826
 651,08;  274,008;   52,101;46384,605; 0,47894
 651,66;  257,109;   29,100;46667,754; 0,48888
 652,23;  268,311;   41,600;46518,000; 0,48780
 652,81;  267,412;   39,699;46704,750; 0,48797
 653,39;  303,614;   80,299;46763,996; 0,47836
 653,97;  261,116;   24,898;46865,746; 0,50430
 654,54;  255,217;   26,698;46614,395; 0,49051
 655,12;  259,419;   35,897;46912,141; 0,47683
 655,70;  276,620;   51,597;47117,492; 0,47810
 656,28;  261,622;   39,996;47191,539; 0,47003
 656,85;  266,923;   47,396;47130,387; 0,46626
 657,43;  248,425;   16,295;47018,234; 0,49387
 658,01;  249,227;   21,494;47262,984; 0,48206
 658,58;  291,628;   65,494;47656,633; 0,47516
 659,16;  280,130;   59,593;47278,879; 0,46705
 659,74;  304,531;   68,593;47494,027; 0,49749
 660,32;  303,933;   74,792;47569,176; 0,48246
 660,89;  268,635;   43,092;47511,125; 0,47515
 661,47;  279,236;   58,091;47867,473; 0,46256
 662,05;  267,638;   46,191;47948,621; 0,46229
 662,62;  303,239;   64,390;48243,270; 0,49576
 663,20;  330,041;   87,089;48433,516; 0,50252
 663,78;  290,442;   61,489;48846,266; 0,46931
 664,35;  287,644;   54,988;48955,414; 0,47577
 664,93;  306,046;   68,088;48995,359; 0,48635
 665,51;  297,047;   51,587;48983,609; 0,50163
 666,08;  295,349;   44,587;49290,957; 0,50920
 666,66;  299,050;   46,686;49966,707; 0,50554
 667,23;  312,052;   59,186;49907,453; 0,50727
 667,81;  309,654;   65,185;50605,402; 0,48371
 668,39;  315,555;   51,285;50611,852; 0,52268
 668,96;  311,457;   62,684;50956,699; 0,48881
 669,54;  293,158;   38,083;51466,645; 0,49598
 670,12;  309,860;   53,483;51883,996; 0,49464
 670,69;  334,861;   69,682;52389,543; 0,50684
 671,27;  298,163;   34,282;52652,191; 0,50150
 671,84;  307,565;   49,681;52463,039; 0,49202
 672,42;  344,366;   84,481;52984,488; 0,49128
 673,00;  329,568;   62,280;53245,234; 0,50258
 673,57;  329,569;   69,680;52998,383; 0,49102
 674,15;  344,171;   68,479;53364,434; 0,51728
 674,72;  314,973;   57,978;53046,281; 0,48500
 675,30;  333,874;   81,878;53068,227; 0,47559
 675,88;  317,476;   59,777;53131,375; 0,48557
 676,45;  344,877;   66,277;53408,426; 0,52229
 677,03;  349,279;   73,976;53198,973; 0,51822
 677,60;  289,080;   33,776;53411,922; 0,47829
 678,18;  333,282;   53,275;53629,270; 0,52263
 678,76;  314,784;   39,975;53442,918; 0,51460
 679,33;  333,085;   65,974;53470,566; 0,50017
 679,91;  307,687;   45,573;53507,914; 0,49028
 680,48;  305,988;   41,173;53547,363; 0,49492
 681,06;  330,190;   59,372;53492,711; 0,50683
 681,63;  327,091;   37,072;53339,258; 0,54410
 682,21;  337,793;   63,671;53256,508; 0,51534
 682,78;  281,195;   21,171;52780,656; 0,49285
 683,36;  318,696;   52,370;53056,602; 0,50246
 683,93;  306,898;   42,570;52885,551; 0,50021
 684,51;  302,199;   43,969;52822,297; 0,48927
 685,08;  325,401;   48,169;53078,445; 0,52278
 685,66;  320,303;   58,168;53179,797; 0,49346
 686,24;  328,304;   52,967;53178,742; 0,51827
 686,81;  325,906;   60,367;53275,191; 0,49899
 687,39;  310,907;   49,866;53298,738; 0,49023
 687,96;  319,809;   56,166;53404,387; 0,49419
 688,54;  299,610;   35,465;53481,938; 0,49422
 689,11;  299,812;   27,465;53681,984; 0,50759
 689,69;  294,514;   31,064;53730,031; 0,49060
 690,26;  342,515;   73,564;54071,480; 0,49808
 690,84;  328,517;   55,563;53842,828; 0,50747
 691,41;  315,418;   43,962;54165,375; 0,50157
 691,98;  308,520;   37,562;54195,523; 0,50031
 692,56;  324,922;   41,261;54274,172; 0,52304
 693,13;  345,723;   58,961;54603,621; 0,52574
 693,71;  321,025;   43,360;54667,969; 0,50831
 694,28;  319,126;   39,860;54832,617; 0,50968
 694,86;  334,528;   50,659;55173,266; 0,51498
 695,43;  355,729;   61,159;55058,313; 0,53561
 696,01;  327,731;   48,858;55477,363; 0,50312
 696,58;  334,033;   49,858;55361,910; 0,51377
 697,16;  326,934;   42,557;55431,758; 0,51342
 697,73;  363,036;   76,356;55810,008; 0,51437
 698,30;  337,937;   55,156;55690,656; 0,50828
 698,88;  322,439;   34,555;55941,102; 0,51494
 699,45;  329,641;   40,755;56208,852; 0,51432
 700,03;  337,742;   59,254;56380,699; 0,49446
 700,60;  353,844;   66,154;56539,246; 0,50943
 701,18;  357,045;   56,053;56680,996; 0,53155
 701,75;  392,047;   75,953;57150,145; 0,55383
 702,32;  336,448;   51,852;56796,793; 0,50154
 702,90;  352,850;   53,051;57066,941; 0,52583
 703,47;  349,652;   51,051;57460,688; 0,52012
 704,05;  361,253;   74,050;57541,035; 0,49977
 704,62;  343,155;   40,550;57539,184; 0,52628
 705,19;  343,156;   43,849;57563,734; 0,52035
 705,77;  354,858;   39,749;57818,680; 0,54537
 706,34;  373,459;   74,148;57908,730; 0,51753
 706,91;  346,561;   54,948;57997,379; 0,50328
 707,49;  372,163;   64,047;58274,027; 0,52932
 708,06;  375,064;   83,146;58384,973; 0,50070
 708,64;  332,366;   35,346;58413,621; 0,50878
 709,21;  379,467;   65,945;58609,969; 0,53553
 709,78;  368,169;   61,545;58767,219; 0,52231
 710,36;  369,471;   69,044;59027,266; 0,50956
 710,93;  361,872;   65,444;59277,016; 0,50063
 711,50;  368,074;   53,143;59302,664; 0,53153
 712,08;  373,775;   60,943;59889,211; 0,52288
 712,65;  381,777;   64,042;59580,059; 0,53386
 713,22;  406,778;   81,542;59653,605; 0,54596
 713,80;  410,380;   81,041;59879,855; 0,55075
 714,37;  370,482;   57,440;59519,605; 0,52645
 714,94;  377,783;   66,040;59479,551; 0,52470
 715,52;  366,585;   62,339;59611,398; 0,51092
 716,09;  369,186;   48,839;59741,449; 0,53666
 716,66;  390,388;   76,138;59670,395; 0,52732
 717,23;  395,690;   76,238;59753,844; 0,53530
 717,81;  375,891;   59,937;59513,094; 0,53143
 718,38;  370,393;   56,437;59206,742; 0,53078
 718,95;  374,694;   77,336;59080,891; 0,50397
 719,53;  378,596;   58,635;59153,836; 0,54143
 720,10;  389,697;   67,635;59244,586; 0,54424
 720,67;  362,799;   39,134;58810,133; 0,55072
 721,24;  387,801;   69,934;58290,582; 0,54597
 721,82;  372,502;   52,633;58242,730; 0,54970
 722,39;  376,504;   70,733;58534,477; 0,52301
 722,96;  395,305;   69,632;58535,527; 0,55703
 723,53;  396,007;   92,032;58405,773; 0,52128
 724,11;  386,708;   81,531;58418,422; 0,52313
 724,68;  378,510;   76,031;58469,973; 0,51800
 725,25;  394,912;   70,130;58659,320; 0,55434
 725,82;  422,113;   93,129;59047,066; 0,55804
 726,40;  382,215;   76,629;59143,414; 0,51736
 726,97;  383,316;   62,928;59210,363; 0,54168
 727,54;  363,618;   59,028;59296,012; 0,51419
 728,11;  370,420;   53,427;59595,258; 0,53239
 728,69;  363,321;   40,727;59430,406; 0,54318
 729,26;  383,423;   61,226;59899,258; 0,53845
 729,83;  398,924;   49,426;60292,703; 0,58015
 730,40;  383,126;   67,025;60108,352; 0,52647
 730,97;  385,627;   54,424;60556,699; 0,54742
 731,55;  374,229;   45,024;60690,648; 0,54283
 732,12;  426,331;   91,223;60692,797; 0,55297
 732,69;  401,332;   74,323;60754,344; 0,53891
 733,26;  394,934;   60,522;60783,395; 0,55072
 733,83;  371,835;   40,622;60893,340; 0,54429
 734,41;  414,237;   72,321;61214,391; 0,55922
 734,98;  368,939;   55,921;61057,438; 0,51313
 735,55;  385,940;   54,020;61239,086; 0,54249
 736,12;  415,742;   80,319;61632,633; 0,54494
 736,69;  434,043;   80,919;61557,781; 0,57440
 737,26;  394,645;   62,718;61698,129; 0,53853
 737,84;  402,146;   64,818;61653,879; 0,54771
 738,41;  394,448;   64,117;61895,625; 0,53424
 738,98;  410,550;   67,917;61786,477; 0,55515
 739,55;  402,651;   52,516;61643,723; 0,56848
 740,12;  402,153;   57,816;62108,270; 0,55493
 740,69;  424,054;   74,115;61972,621; 0,56534
 741,26;  418,856;   77,315;61881,668; 0,55262
 741,83;  413,057;   68,514;61724,715; 0,55881
 742,41;  409,359;   65,313;61882,563; 0,55655
 742,98;  449,861;   94,613;62100,914; 0,57292
 743,55;  419,862;   77,912;62231,461; 0,55017
 744,12;  405,964;   55,512;62051,008; 0,56529
 744,69;  414,065;   67,111;62200,758; 0,55840
 745,26;  405,967;   49,811;61966,406; 0,57522
 745,83;  419,969;   72,810;62373,352; 0,55723
 746,40;  409,370;   67,110;62052,801; 0,55216
 746,97;  402,972;   50,109;61967,551; 0,56989
 747,55;  424,073;   63,908;61938,199; 0,58209
 748,12;  413,175;   68,708;61927,547; 0,55686
 748,69;  423,576;   73,107;61816,492; 0,56762
 749,26;  408,778;   61,907;62114,242; 0,55900
 749,83;  415,580;   50,406;62049,590; 0,58900
 750,40;  437,881;   93,406;61932,438; 0,55705
 750,97;  446,083;  105,505;62078,688; 0,54956
 751,54;  396,184;   44,505;61752,434; 0,56991
 752,11;  415,786;   60,404;61797,984; 0,57563
 752,68;  441,388;   93,003;61696,633; 0,56553
 753,25;  433,389;   64,303;61339,980; 0,60234
 753,82;  413,091;   72,902;61456,027; 0,55420
 754,39;  427,392;   77,402;61643,777; 0,56848
 754,96;  412,794;   67,501;61359,523; 0,56336
 755,53;  399,895;   45,801;61551,871; 0,57571
 756,10;  422,297;   72,100;61327,820; 0,57170
 756,67;  423,499;   72,500;61544,969; 0,57099
 757,24;  436,500;   79,399;61345,215; 0,58287
 757,81;  389,802;   22,199;61266,965; 0,60022
 758,38;  422,503;   63,598;61495,012; 0,58424
 758,95;  447,005;   83,497;61168,961; 0,59508
 759,52;  414,907;   53,797;60702,711; 0,59541
 760,09;  427,608;   80,196;60693,457; 0,57316
 760,66;  420,510;   66,096;60242,406; 0,58896
 761,23;  435,711;   88,695;60198,652; 0,57730
 761,80;  429,813;   67,295;60262,402; 0,60224
 762,37;  433,514;   79,794;60200,852; 0,58835
 762,94;  429,616;   81,194;60215,199; 0,57941
 763,51;  408,818;   49,293;60035,145; 0,59935
 764,08;  432,119;   69,392;60022,195; 0,60502
 764,65;  425,421;   80,492;59748,141; 0,57808
 765,22;  404,822;   60,191;59771,191; 0,57716
 765,79;  435,924;   83,491;59544,438; 0,59271
 766,36;  416,625;   73,990;59413,586; 0,57741
 766,93;  420,927;   58,690;59539,535; 0,60900
 767,50;  405,329;   77,689;59556,785; 0,55085
 768,07;  433,130;   67,389;59555,531; 0,61481
 768,64;  427,432;   90,388;59193,578; 0,57026
 769,21;  397,633;   61,288;58606,828; 0,57450
 769,78;  417,135;   81,087;58207,375; 0,57813
 770,34;  388,837;   36,986;58160,023; 0,60535
 770,91;  406,538;   60,186;58034,773; 0,59742
 771,48;  413,040;   70,585;57894,922; 0,59223
 772,05;  409,641;   58,285;57586,770; 0,61075
 772,62;  396,843;   51,284;57213,918; 0,60452
 773,19;  390,644;   57,684;57361,766; 0,58104
 773,76;  412,146;   78,183;57313,715; 0,58349
 774,33;  412,748;   70,983;57111,762; 0,59916
 774,90;  398,149;   54,582;56564,109; 0,60798
 775,47;  403,851;   73,181;56633,859; 0,58463
 776,03;  395,952;   66,481;56357,707; 0,58530
 776,60;  407,554;   64,480;56136,152; 0,61185
 777,17;  412,556;   69,780;55955,602; 0,61335
 777,74;  365,557;   40,979;55430,750; 0,58599
 778,31;  406,559;   64,779;55665,000; 0,61471
 778,88;  372,960;   25,178;55315,047; 0,62902
 779,45;  409,662;   76,978;55020,195; 0,60551
 780,01;  405,563;   63,277;55023,242; 0,62279
 780,58;  404,065;   70,076;54696,891; 0,61140
 781,15;  378,067;   46,576;54313,441; 0,61085
 781,72;  398,868;   85,875;54310,289; 0,57722
 782,29;  396,770;   65,975;54010,734; 0,61321
 782,86;  401,171;   74,074;53636,184; 0,61069
 783,42;  392,073;   64,974;53663,332; 0,61028
 783,99;  377,674;   68,373;53469,980; 0,57920
 784,56;  401,176;   69,573;53343,430; 0,62245
 785,13;  373,278;   42,572;52994,277; 0,62454
 785,70;  385,179;   69,172;52649,625; 0,60100
 786,26;  392,481;   62,371;52642,371; 0,62782
 786,83;  418,082;   81,570;52462,320; 0,64243
 787,40;  383,884;   74,970;52177,871; 0,59289
 787,97;  370,886;   45,669;52106,719; 0,62468
 788,54;  395,987;   76,969;51899,164; 0,61560
 789,10;  384,989;   61,568;51627,113; 0,62720
 789,67;  401,490;   73,868;51235,262; 0,64037
 790,24;  389,592;   63,567;51157,609; 0,63809
 790,81;  383,593;   85,767;50574,457; 0,58989
 791,37;  398,195;   79,866;50510,508; 0,63122
 791,94;  403,697;   80,665;50570,754; 0,63979
 792,51;  359,598;   56,165;50218,805; 0,60490
 793,08;  396,700;   66,364;49950,852; 0,66220
 793,64;  380,201;   65,464;49827,301; 0,63249
 794,21;  391,903;   77,863;49479,348; 0,63569
 794,78;  374,905;   55,163;49217,996; 0,65037
 795,35;  382,506;   76,762;49034,742; 0,62450
 795,91;  365,808;   51,162;48702,293; 0,64674
 796,48;  375,909;   65,461;48451,738; 0,64160
 797,05;  377,211;   75,961;48155,590; 0,62657
 797,62;  371,612;   62,260;48153,535; 0,64326
 798,18;  364,114;   57,059;47786,684; 0,64332
 798,75;  353,116;   65,659;47600,832; 0,60472
 799,32;  377,217;   73,458;47550,383; 0,63980
 799,88;  370,319;   55,658;47393,430; 0,66471
 800,45;  340,020;   41,357;46711,777; 0,63994
 801,02;  360,522;   66,457;46736,125; 0,63010
 801,58;  399,724;  103,656;46334,172; 0,64042
 802,15;  362,025;   71,656;46161,523; 0,63001
 802,72;  374,027;   77,255;45929,070; 0,64724
 803,28;  343,428;   59,654;45792,617; 0,62050
 803,85;  333,330;   45,254;45498,766; 0,63378
 804,42;  380,331;   80,753;45311,516; 0,66233
 804,98;  397,233;  101,253;45317,164; 0,65459
 805,55;  362,335;   67,352;44887,012; 0,65815
 806,12;  363,136;   87,852;44742,457; 0,61647
 806,68;  354,538;   72,951;44340,906; 0,63610
 807,25;  390,839;   88,851;44179,156; 0,68493
 807,82;  385,541;   84,150;44195,102; 0,68326
 808,38;  368,943;   73,549;43813,652; 0,67534
 808,95;  355,844;   63,749;43737,699; 0,66881
 809,52;  334,346;   59,648;43807,047; 0,62792
 810,08;  345,647;   70,748;43565,098; 0,63203
 810,65;  360,249;   76,847;43732,043; 0,64918
 811,21;  371,550;   74,347;43598,191; 0,68285
 811,78;  373,052;   85,446;43629,039; 0,66050
 812,35;  353,254;   69,846;43379,188; 0,65438
 812,91;  377,955;   92,745;43541,438; 0,65643
 813,48;  357,557;   70,045;43341,285; 0,66444
 814,04;  366,458;   74,244;43530,332; 0,67244
 814,61;  369,660;   78,943;43190,980; 0,67433
 815,18;  352,961;   76,443;43015,629; 0,64398
 815,74;  369,163;   81,642;42867,379; 0,67200
 816,31;  360,565;   93,042;42608,227; 0,62924
 816,87;  337,366;   43,141;42052,676; 0,70038
 817,44;  360,868;   96,041;41998,824; 0,63200
 818,00;  319,069;   56,140;41704,570; 0,63131
 818,57;  361,271;   77,340;41640,117; 0,68314
 819,14;  366,373;   94,739;41450,367; 0,65682
 819,70;  357,574;   90,138;41083,016; 0,65240
 820,27;  335,076;   65,338;40847,563; 0,66141
 820,83;  342,077;   76,437;40615,113; 0,65528
 821,40;  363,879;  108,537;40237,160; 0,63631
 821,96;  347,480;   78,536;40230,809; 0,66981
 822,53;  343,982;   86,236;39938,355; 0,64676
 823,09;  352,484;   97,135;39618,305; 0,64611
 823,66;  340,485;   82,735;39519,152; 0,65359
 824,22;  335,687;   81,934;39276,801; 0,64741
 824,79;  338,888;   77,233;38978,047; 0,67262
 825,35;  345,890;   88,233;38961,195; 0,66282
 825,92;  323,192;   79,632;38659,246; 0,63132
 826,48;  355,493;   91,832;38252,191; 0,69093
 827,05;  352,395;  100,231;38092,641; 0,66372
 827,61;  339,496;   69,431;38141,289; 0,70936
 828,18;  323,598;   74,030;37948,039; 0,65894
 828,74;  348,599;  102,130;37810,285; 0,65362
 829,31;  360,901;  112,729;37720,332; 0,65990
 829,87;  331,203;   73,029;37591,383; 0,68813
 830,44;  341,004;   83,128;37188,332; 0,69499
 831,00;  355,006;   94,627;37026,078; 0,70503
 831,57;  344,007;  111,327;37133,625; 0,62849
 832,13;  328,609;   83,826;36566,773; 0,67095
 832,69;  332,510;   77,626;36531,824; 0,69919
 833,26;  352,612;  101,325;36464,973; 0,69104
 833,82;  337,814;  116,625;36341,219; 0,61060
 834,39;  317,715;   87,224;36149,969; 0,63914
 834,95;  317,817;   76,024;36031,016; 0,67249
 835,52;  337,918;  105,023;35825,164; 0,65200
 836,08;  343,920;  109,022;35731,211; 0,65941
 836,64;  333,422;   91,122;35587,961; 0,68259
 837,21;  326,123;   90,721;35487,109; 0,66504
 837,77;  326,325;   95,721;35148,656; 0,65787
 838,34;  317,226;   79,720;35189,105; 0,67647
 838,90;  314,928;   67,820;34846,453; 0,71052
 839,46;  333,229;   92,219;34863,402; 0,69313
 840,03;  324,031;   87,619;34824,848; 0,68057
 840,59;  332,433;   96,418;34530,496; 0,68541
 841,16;  338,534;  108,518;34448,344; 0,66982
 841,72;  298,336;   61,717;34317,793; 0,69074
 842,28;  319,537;   81,216;34208,543; 0,69833
 842,85;  337,339;  102,216;34333,289; 0,68687
 843,41;  351,041;  101,715;34174,238; 0,73175
 843,97;  328,342;   93,515;33927,188; 0,69406
 844,54;  329,944;  106,314;33683,836; 0,66601
 845,10;  334,845;   99,614;33447,383; 0,70539
 845,67;  307,147;   77,213;33269,629; 0,69273
 846,23;  332,548;  103,213;33224,379; 0,69241
 846,79;  325,950;  108,812;32973,328; 0,66071
 847,36;  298,952;   67,111;32864,273; 0,70689
 847,92;  319,653;   88,411;32868,023; 0,70545
 848,48;  284,355;   56,410;32851,570; 0,69506
 849,04;  294,556;   70,710;32682,721; 0,68639
 849,61;  294,558;   59,109;32504,168; 0,72568
 850,17;  302,960;   70,509;32576,316; 0,71511
 850,73;  295,161;   70,408;32366,064; 0,69592
 851,30;  287,163;   54,308;32162,713; 0,72522
 851,86;  291,864;   67,507;31977,561; 0,70309
 852,42;  272,366;   62,306;32107,209; 0,65552
 852,99;  315,667;   96,006;32017,758; 0,68812
 853,55;  329,669;   83,305;31799,506; 0,77678
 854,11;  290,871;   70,705;31699,553; 0,69609
 854,67;  293,872;   96,004;31494,301; 0,63019
 855,24;  284,174;   55,304;31331,250; 0,73178
 855,80;  293,675;   79,803;31543,799; 0,67974
 856,36;  295,177;   70,703;31319,646; 0,71834
 856,92;  273,378;   55,102;31022,594; 0,70486
 857,49;  308,780;   85,102;31039,643; 0,72260
 858,05;  300,382;   72,701;30859,191; 0,73955
 858,61;  294,783;   72,500;30936,939; 0,72019
 859,17;  291,485;   83,000;30820,986; 0,67826
 859,74;  303,786;   85,299;30645,336; 0,71494
 860,30;  312,488;  105,199;30506,584; 0,68184
 860,86;  297,590;   69,998;30433,432; 0,74956
 861,42;  294,591;   85,998;30371,080; 0,68877
 861,99;  262,693;   63,297;30177,027; 0,66214
 862,55;  287,794;   73,097;29970,076; 0,71813
 863,11;  299,996;   91,896;30127,523; 0,69284
 863,67;  274,197;   66,795;30045,172; 0,69184
 864,23;  310,299;   83,795;29931,920; 0,75886
 864,80;  290,201;   69,294;29597,270; 0,74813
 865,36;  294,702;   84,494;29668,217; 0,71055
 865,92;  307,204;  101,993;29589,766; 0,69592
 866,48;  287,505;   69,793;29520,813; 0,73924
 867,04;  274,207;   54,992;29244,861; 0,75100
 867,60;  293,709;   87,792;29071,910; 0,71045
 868,17;  318,210;  102,091;28909,059; 0,75023
 868,73;  285,712;   85,891;28762,406; 0,69681
 869,29;  263,013;   60,390;28711,254; 0,70722
 869,85;  311,715;  110,289;28446,201; 0,71085
 870,41;  285,816;   85,589;28238,350; 0,71122
 870,97;  310,418;  107,188;28291,998; 0,72106
 871,54;  265,920;   73,088;28003,646; 0,69040
 872,10;  282,221;   84,987;27703,895; 0,71413
 872,66;  270,523;   76,487;27456,043; 0,70869
 873,22;  285,524;   90,186;27453,092; 0,71388
 873,78;  262,226;   78,886;27139,439; 0,67752
 874,34;  283,027;   99,085;26999,787; 0,68378
 874,90;  312,228;  114,485;26774,588; 0,74172
 875,46;  295,027;  109,085;26704,387; 0,69916
 876,03;  292,128;   87,285;26403,287; 0,77840
 876,59;  257,328;   69,285;26175,588; 0,72030
 877,15;  299,628;  107,185;26130,887; 0,73949
 877,71;  276,328;   88,485;26141,188; 0,72101
 878,27;  279,728;   99,585;25897,588; 0,69828
 878,83;  298,527;  113,885;25881,088; 0,71658
 879,39;  282,128;  100,485;25804,988; 0,70666
 879,95;  272,728;   99,785;25691,088; 0,67579
 880,51;  274,328;   75,685;25879,387; 0,76982
 881,07;  270,728;   83,685;26030,488; 0,72087
 881,63;  293,927;   92,985;26092,887; 0,77286
 882,19;  275,527;   84,985;25970,688; 0,73609
 882,75;  284,728;   94,885;26024,287; 0,73215
 883,31;  286,828;   92,385;26209,488; 0,74450
 883,88;  286,427;   95,985;26315,588; 0,72634
 884,44;  273,828;   88,385;26391,287; 0,70503
 885,00;  304,328;  106,285;26737,588; 0,74365
 885,56;  294,027;  104,285;26828,387; 0,71001
 886,12;  307,027;  114,885;27066,688; 0,71291
 886,68;  290,728;   96,185;26972,688; 0,72384
 887,24;  309,527;  119,085;27399,287; 0,69810
 887,80;  296,228;   95,385;27358,188; 0,73669
 888,36;  306,328;  111,585;27635,787; 0,70753
 888,92;  313,728;  107,985;27724,287; 0,74500
 889,48;  319,427;  108,485;28080,588; 0,75412
 890,04;  307,628;  110,585;28084,387; 0,70438
 890,60;  324,228;  120,085;28245,287; 0,72583
 891,16;  281,728;   96,885;28391,088; 0,65329
 891,72;  315,427;  117,785;28391,287; 0,69904
 892,28;  325,228;  125,385;28413,787; 0,70645
 892,84;  319,228;  108,185;28199,188; 0,75128
 893,39;  326,228;  127,585;28371,988; 0,70330
 893,95;  333,228;  123,785;28291,088; 0,74357
 894,51;  276,027;   63,885;28130,188; 0,75586
 895,07;  339,027;  146,385;28192,488; 0,68688
 895,63;  279,328;   77,785;27759,688; 0,72807
 896,19;  311,128;   99,385;27677,188; 0,76780
 896,75;  307,328;  116,885;27502,488; 0,69541
 897,31;  290,328;   95,285;27397,387; 0,71439
 897,87;  294,027;  102,485;27202,887; 0,70679
 898,43;  298,427;  104,485;26834,088; 0,72557
 898,99;  297,828;  108,285;26505,588; 0,71804
 899,55;  313,128;  113,785;26408,387; 0,75811
 900,11;  293,628;  105,885;26277,787; 0,71734
 900,67;  296,628;  100,985;26103,387; 0,75240
 901,22;  304,828;  120,085;25789,688; 0,71969
 901,78;  275,828;   86,285;25623,688; 0,74222
 902,34;  299,328;  120,785;25449,887; 0,70489
 902,90;  262,128;   77,285;25260,887; 0,73398
 903,46;  273,328;  108,985;25158,188; 0,65608
 904,02;  282,427;   91,185;24856,787; 0,77221
 904,58;  267,828;   85,885;24697,387; 0,73926
 905,14;  249,727;   72,885;24593,387; 0,72120
 905,70;  267,228;   81,785;24409,387; 0,76227
 906,25;  271,828;   82,585;24460,588; 0,77628
 906,81;  273,427;   93,685;24376,488; 0,74020
 907,37;  265,828;   73,585;24145,588; 0,79861
 907,93;  266,927;   77,585;24015,488; 0,79097
 908,49;  279,328;  110,285;23841,088; 0,71233
 909,05;  265,527;   94,485;23967,088; 0,71648
 909,60;  276,427;   92,285;23775,387; 0,77753
 910,16;  245,527;   73,485;23571,188; 0,73217
 910,72;  270,927;  105,985;23524,887; 0,70431
 911,28;  280,728;   99,785;23299,488; 0,77993
 911,84;  254,128;   84,885;23241,387; 0,73086
 912,39;  245,428;   72,785;23037,787; 0,75176
 912,95;  277,027;  101,885;23158,287; 0,75963
 913,51;  255,928;  107,485;23089,387; 0,64591
 914,07;  261,427;   87,585;22717,988; 0,76818
 914,63;  243,327;   80,385;22709,787; 0,72005
 915,18;  248,128;   82,985;22633,488; 0,73232
 915,74;  245,928;   73,885;22387,787; 0,77101
 916,30;  223,727;   60,985;22193,588; 0,73531
 916,86;  254,327;   92,785;22035,387; 0,73620
 917,42;  259,628;   97,885;22132,688; 0,73403
 917,97;  244,428;   96,985;21890,688; 0,67654
 918,53;  239,628;   69,485;21738,688; 0,78518
 919,09;  255,527;  106,785;21703,188; 0,68874
 919,65;  245,428;   90,785;21453,088; 0,72390
 920,20;  233,128;   76,985;21260,387; 0,73710
 920,76;  226,527;   74,585;21079,287; 0,72337
 921,32;  249,527;   90,285;20984,188; 0,76215
 921,87;  244,327;   89,885;20647,588; 0,75126
 922,43;  218,428;   68,785;20533,387; 0,73123
 922,99;  205,227;   64,885;20137,088; 0,69919
 923,55;  216,527;   65,485;20009,188; 0,75734
 924,10;  214,827;   70,385;20001,088; 0,72472
 924,66;  230,727;   79,185;19796,787; 0,76856
 925,22;  197,928;   55,485;19602,688; 0,72871
 925,77;  236,628;   76,385;19254,688; 0,83554
 926,33;  234,827;   91,385;19173,488; 0,75171
 926,89;  217,727;   80,085;18934,988; 0,73001
 927,44;  201,827;   56,085;18646,787; 0,78395
 928,00;  209,727;   73,685;18425,088; 0,74132
 928,56;  217,428;   93,785;18165,887; 0,68416
 929,12;  224,227;   94,185;18029,588; 0,72506
 929,67;  205,327;   53,185;17690,188; 0,86263
 930,23;  192,928;   56,585;17430,188; 0,78477
 930,78;  246,527;  110,285;17292,988; 0,79290
 931,34;  197,727;   69,485;16895,588; 0,76216
 931,90;  198,027;   71,985;16495,488; 0,76745
 932,45;  207,928;   83,085;16088,188; 0,78002
 933,01;  185,628;   77,385;15695,188; 0,69307
 933,57;  192,928;   73,485;15207,987; 0,78921
 934,12;  185,027;   79,485;14578,888; 0,72791
 934,68;  168,928;   63,185;13806,987; 0,76938
 935,24;  177,928;   81,385;13091,787; 0,74204
 935,79;  168,428;   80,585;12266,487; 0,72085
 936,35;  185,428;   86,985;11501,388; 0,86244
 936,90;  184,727;  100,485;10583,787; 0,80359
 937,46;  159,428;   82,385; 9839,987; 0,78956
 938,02;  138,628;   72,385; 8967,287; 0,74472
 938,57;  154,327;   83,185; 8376,188; 0,85786
 939,13;  147,827;   81,585; 7777,987; 0,86069
 939,68;  117,827;   62,285; 7204,788; 0,77763
 940,24;  130,928;   78,885; 6876,288; 0,76562
 940,79;  152,928;  106,085; 6589,788; 0,72247
 941,35;  154,227;   95,285; 6296,888; 0,95044
 941,91;  121,027;   71,885; 6126,587; 0,81164
 942,46;  128,327;   74,985; 5977,188; 0,90377
 943,02;  119,927;   78,885; 5912,487; 0,70355
 943,57;  109,427;   63,085; 5846,688; 0,80127
 944,13;  122,728;   75,785; 5912,587; 0,80425
 944,68;  123,427;   68,585; 5973,688; 0,92873
 945,24;  142,928;   88,485; 6052,888; 0,91279
 945,79;  123,527;   68,085; 6070,188; 0,92372
 946,35;  116,327;   61,185; 6182,788; 0,90079
 946,90;  171,928;  112,785; 6334,087; 0,95065
 947,46;  115,027;   56,285; 6539,087; 0,90613
 948,01;  107,027;   55,485; 6671,288; 0,77908
 948,57;  155,928;   92,985; 6915,087; 0,92263
 949,12;  131,227;   83,285; 7090,087; 0,68423
 949,68;  155,827;   90,585; 7317,388; 0,90279
 950,23;  139,027;   77,385; 7512,788; 0,82904
 950,79;  143,027;   82,885; 7745,688; 0,78486
 951,34;  156,827;   85,985; 7985,288; 0,89682
 951,90;  133,027;   64,685; 8279,987; 0,83189
 952,45;  151,227;   97,685; 8464,188; 0,63996
 953,01;  144,928;   69,085; 8675,088; 0,88127
 953,56;  167,827;   86,985; 8965,188; 0,91057
 954,12;  131,327;   57,385; 9127,388; 0,81524
 954,67;  156,827;   73,485; 9305,487; 0,90276
 955,23;  149,727;   75,385; 9487,487; 0,78986
 955,78;  152,827;   77,585; 9767,987; 0,77646
 956,33;  125,027;   58,785; 9861,487; 0,67576
 956,89;  143,128;   62,885;10079,088; 0,80113
 957,44;  151,727;   61,185;10322,088; 0,88240
 958,00;  143,428;   66,285;10490,688; 0,74002
 958,55;  156,527;   70,585;10689,188; 0,80936
 959,10;  147,027;   61,685;10798,487; 0,79486
 959,66;  171,527;   77,585;11005,388; 0,85967
 960,21;  163,928;   71,285;11144,987; 0,83660
 960,77;  151,428;   59,185;11196,487; 0,82823
 961,32;  158,428;   66,385;11442,688; 0,80907
 961,87;  178,827;   91,885;11490,588; 0,76274
 962,43;  159,727;   68,985;11614,987; 0,78592
 962,98;  172,827;   85,785;11731,088; 0,74745
 963,54;  130,027;   43,585;11798,787; 0,73536
 964,09;  164,628;   71,085;11852,487; 0,79398
 964,64;  175,428;   83,385;11906,987; 0,77846
 965,20;  151,128;   61,285;11952,688; 0,75552
 965,75;  176,628;   73,685;12053,487; 0,85930
 966,30;  171,327;   88,485;12085,688; 0,69052
 966,86;  178,128;   80,985;12260,888; 0,79756
 967,41;  168,928;   89,985;12288,388; 0,64715
 967,96;  182,327;   72,785;12324,688; 0,89409
 968,52;  193,827;   91,285;12494,487; 0,82674
 969,07;  173,827;   77,885;12456,888; 0,77504
 969,62;  183,128;   92,985;12395,388; 0,73272
 970,18;  166,027;   67,485;12430,888; 0,79705
 970,73;  170,227;   76,685;12440,588; 0,75658
 971,28;  190,928;   97,685;12509,088; 0,75126
 971,84;  175,327;   72,485;12497,588; 0,82770
 972,39;  199,628;  103,885;12516,287; 0,77135
 972,94;  164,628;   62,285;12606,888; 0,81583
 973,49;  170,128;   71,785;12486,388; 0,79215
 974,05;  171,727;   85,185;12512,287; 0,69640
 974,60;  187,128;   77,585;12438,588; 0,88619
 975,15;  174,628;   86,785;12506,287; 0,70729
 975,71;  164,628;   74,085;12471,088; 0,73036
 976,26;  185,727;   89,485;12460,787; 0,77795
 976,81;  188,428;   91,385;12477,987; 0,78345
 977,36;  190,327;   90,885;12515,787; 0,80035
 977,92;  197,428;  106,785;12414,287; 0,73648
 978,47;  176,527;   82,685;12367,787; 0,76387
 979,02;  192,027;   84,685;12372,888; 0,87354
 979,57;  166,928;   87,685;12184,588; 0,65506
 980,13;  163,628;   73,085;12274,688; 0,74205
 980,68;  171,928;   82,085;12299,088; 0,73539
 981,23;  201,727;   98,285;12232,588; 0,85248
 981,78;  168,628;   87,585;12193,987; 0,66942
 982,33;  175,827;   93,585;12131,088; 0,68322
 982,89;  192,428;   86,385;12112,987; 0,88173
 983,44;  168,227;   77,485;11963,388; 0,76345
 983,99;  201,327;  102,185;12085,188; 0,82736
 984,54;  184,628;   88,185;12037,188; 0,80712
 985,09;  197,727;  104,185;11970,688; 0,78829
 985,65;  178,628;   87,085;11900,888; 0,77488
 986,20;  191,327;  108,485;11873,088; 0,70417
 986,75;  203,327;  109,085;11844,987; 0,80303
 987,30;  199,727;  104,785;11731,588; 0,81658
 987,85;  189,327;   93,485;11707,287; 0,82525
 988,40;  202,428;  102,085;11630,287; 0,87041
 988,96;  202,227;  110,985;11597,987; 0,79431
 989,51;  197,128;  109,185;11503,188; 0,77183
 990,06;  213,928;  139,085;11439,987; 0,66227
 990,61;  183,727;   96,285;11312,888; 0,77958
 991,16;  197,128;  126,785;11284,987; 0,63041
 991,71;  179,128;   95,285;11178,987; 0,75645
 992,26;  184,327;   96,185;11124,787; 0,79922
 992,81;  167,527;   90,585;11117,088; 0,69780
 993,37;  213,027;  112,785;11091,088; 0,91310
 993,92;  205,227;  111,485;10895,787; 0,86925
 994,47;  215,128;  127,285;10881,688; 0,81681
 995,02;  207,128;  120,885;10830,487; 0,80528
 995,57;  188,027;  105,885;10676,287; 0,77710
 996,12;  214,327;  146,185;10671,787; 0,64740
 996,67;  216,227;  120,585;10625,487; 0,91046
 997,22;  190,327;  110,885;10516,388; 0,76347
 997,77;  204,928;  123,885;10509,188; 0,78036
 998,32;  191,727;  113,285;10354,388; 0,76596
 998,87;  190,428;  118,685;10322,987; 0,70306
 999,42;  190,727;  114,485;10232,588; 0,75353
 999,97;  189,227;  106,385;10221,888; 0,81897
1000,53;  216,928;  131,385;10169,188; 0,85220
1001,08;  194,327;  116,785;10035,088; 0,78181
1001,63;  217,628;  142,485; 9961,388; 0,76528
1002,18;  155,128;   80,985; 9795,388; 0,76322
1002,73;  219,928;  138,285; 9811,987; 0,84396
1003,28;  193,428;  112,585; 9773,088; 0,83684
1003,83;  204,027;  131,985; 9598,088; 0,76106
1004,38;  215,428;  133,285; 9567,388; 0,87070
1004,93;  198,428;  121,585; 9472,787; 0,82174
1005,48;  192,727;  125,485; 9456,987; 0,72060
1006,03;  177,327;  110,685; 9367,487; 0,71993
1006,58;  187,227;  108,485; 9267,688; 0,85971
1007,13;  159,128;   87,285; 9216,688; 0,78694
1007,68;  180,827;  104,185; 9176,987; 0,84475
1008,23;  189,227;  115,485; 9089,388; 0,82174
1008,78;  181,327;  112,885; 9076,688; 0,76354
1009,33;  202,527;  130,185; 8977,388; 0,81769
1009,88;  145,027;   91,085; 8917,888; 0,61112
1010,43;  188,327;  106,485; 8847,987; 0,93625
1010,98;  168,327;  107,585; 8784,088; 0,70008
1011,52;  171,628;   98,385; 8757,888; 0,84580
1012,07;  221,527;  151,085; 8797,588; 0,81469
1012,62;  157,928;  102,885; 8672,287; 0,64231
1013,17;  172,227;  107,085; 8654,987; 0,76209
1013,72;  168,227;   96,285; 8549,787; 0,85104
1014,27;  178,027;  115,785; 8482,088; 0,74397
1014,82;  160,827;  100,085; 8280,987; 0,74249
1015,37;  147,027;   90,685; 8148,587; 0,69922
1015,92;  174,727;  113,385; 8078,388; 0,77015
1016,47;  148,727;   89,585; 8002,087; 0,74746
1017,02;  132,027;   83,585; 7781,587; 0,62929
1017,57;  162,727;  110,885; 7677,987; 0,68510
1018,11;  138,928;   93,585; 7625,788; 0,60198
1018,66;  172,827;  120,285; 7544,188; 0,70775
1019,21;  174,428;   97,185; 7441,587; 1,05172
1019,76;  131,327;   91,485; 7241,388; 0,55725
1020,31;  142,227;   87,385; 7140,987; 0,77751
1020,86;  148,227;   99,585; 7136,087; 0,69129
1021,41;  136,928;   85,585; 7046,288; 0,73761
1021,96;  142,227;   91,785; 6968,587; 0,73352
1022,50;  183,628;  114,785; 6908,788; 1,01328
1023,05;  150,827;   96,185; 6774,188; 0,81825
1023,60;  153,227;  109,285; 6668,487; 0,66994
1024,15;  123,827;   82,585; 6582,487; 0,63451
1024,70;  161,628;  118,285; 6556,688; 0,67319
1025,25;  144,827;  105,085; 6444,587; 0,62690
1025,79;  159,727;  111,185; 6416,087; 0,76992
1026,34;  141,128;  103,685; 6359,487; 0,59852
1026,89;  156,027;  101,985; 6282,688; 0,87437
1027,44;  146,227;   91,385; 6238,288; 0,89220
1027,99;  146,727;  102,585; 6140,788; 0,73105
1028,53;  149,727;   99,685; 6068,188; 0,83844
1029,08;  156,628;  105,085; 5984,888; 0,87660
1029,63;  149,027;  117,485; 5934,888; 0,54221
1030,18;  144,428;  106,385; 5824,587; 0,66529
1030,73;  122,628;   87,885; 5655,688; 0,62399
1031,27;  129,527;   88,685; 5663,688; 0,73260
1031,82;  140,027;   90,885; 5572,688; 0,89647
1032,37;  144,628;  103,485; 5566,888; 0,75306
1032,92;  145,227;  107,585; 5490,587; 0,69928
1033,46;  144,428;  106,885; 5381,188; 0,71180
1034,01;  120,628;   85,985; 5319,487; 0,66194
1034,56;  147,428;  109,785; 5296,987; 0,72568
1035,11;  141,128;  104,585; 5234,587; 0,71233
1035,65;  131,628;   96,685; 5100,587; 0,69831
1036,20;  134,628;  106,585; 5087,188; 0,56303
1036,75;  161,227;  121,685; 5047,788; 0,80271
1037,29;  137,628;  100,385; 4975,388; 0,76395
1037,84;  118,927;   83,185; 4881,288; 0,74493
1038,39;  134,527;   98,385; 4838,288; 0,76252
1038,94;  114,628;   83,685; 4734,788; 0,66527
1039,48;  133,928;  100,385; 4724,288; 0,72542
1040,03;  145,628;  106,285; 4702,788; 0,85592
1040,58;  130,727;  100,685; 4594,388; 0,66855
1041,12;  139,027;  110,285; 4521,288; 0,65161
1041,67;  133,128;  103,485; 4461,188; 0,68023
1042,22;  147,727;  121,285; 4432,688; 0,61332
1042,76;  129,428;   98,385; 4327,688; 0,73399
1043,31;  140,128;   93,985; 4289,487; 1,09981
1043,86;  137,027;  118,285; 4202,987; 0,45885
1044,40;  142,428;  106,585; 4136,288; 0,88946
1044,95;  135,727;   99,685; 4102,788; 0,90036
1045,50;  110,628;   84,385; 4030,988; 0,66494
1046,04;  147,227;  121,885; 4008,288; 0,65208
1046,59;  134,827;   96,585; 3927,087; 0,99837
1047,13;  145,527;  118,885; 3891,887; 0,70614
1047,68;  143,628;  114,085; 3865,988; 0,78740
1048,23;  148,027;  121,185; 3817,087; 0,72628
1048,77;  113,728;  104,285; 3716,887; 0,26138
1049,32;  133,428;  109,485; 3669,288; 0,67258
1049,86;  138,327;  106,585; 3625,587; 0,90203
1050,41;  119,728;   93,085; 3587,587; 0,76241
1050,96;  133,628;  110,485; 3541,688; 0,67447
1051,50;  130,428;   98,185; 3486,488; 0,95158
1052,05;  141,727;  104,285; 3428,387; 1,12639
1052,59;  125,927;   97,785; 3377,488; 0,85808
1053,14;  115,128;   89,085; 3312,087; 0,80802
1053,69;  129,327;   99,185; 3261,087; 0,95330
1054,23;  135,428;  114,385; 3244,387; 0,67228
1054,78;  132,227;  109,485; 3203,087; 0,73515
1055,32;  158,027;  131,285; 3124,587; 0,89341
1055,87;   98,927;   86,785; 3086,387; 0,40480
1056,41;  101,427;   91,985; 3038,288; 0,32049
1056,96;  118,628;   92,085; 2979,988; 0,91909
1057,50;  146,628;  122,285; 2963,887; 0,85665
1058,05;  103,628;   84,685; 2903,087; 0,67210
1058,59;  125,327;   95,885; 2856,587; 1,06649
1059,14;  140,527;  113,685; 2828,988; 0,98856
1059,68;   98,228;   86,585; 2787,188; 0,43111
1060,23;  157,628;  135,385; 2801,688; 0,83421
1060,77;  128,628;  114,585; 2694,087; 0,54439
1061,32;  148,027;  113,585; 2690,387; 1,33664
1061,86;  136,527;  100,585; 2638,988; 1,41595
1062,41;  131,428;  112,985; 2588,988; 0,74485
1062,95;  125,228;  103,385; 2532,488; 0,89920
1063,50;  130,527;  121,385; 2531,587; 0,37932
1064,04;  119,027;   87,585; 2470,887; 1,31928
1064,59;  132,727;  118,685; 2420,688; 0,61001
1065,13;  120,927;  114,485; 2390,688; 0,28304
1065,68;  128,827;  111,085; 2340,587; 0,79581
1066,22;  139,727;  120,185; 2342,988; 0,87918
1066,76;  144,928;  126,585; 2324,887; 0,83439
1067,31;  117,527;  103,485; 2240,387; 0,65714
1067,85;  123,327;   98,785; 2227,688; 1,15282
1068,40;  130,428;  112,885; 2216,288; 0,83401
1068,94;  127,228;  103,985; 2163,288; 1,12866
1069,49;  116,527;   97,485; 2154,188; 0,92588
1070,03;  121,628;  104,485; 2089,887; 0,86343
1070,57;  118,128;   95,985; 2073,887; 1,11949
1071,12;   98,927;   83,785; 2044,988; 0,77210
1071,66;  152,827;  134,085; 2075,788; 0,96526
1072,21;  136,128;  116,685; 2020,387; 1,02130
1072,75;  128,327;  102,685; 1991,188; 1,35782
1073,29;   93,628;   88,185; 1929,287; 0,29561
1073,84;  115,327;  105,985; 1934,188; 0,51102
1074,38;  115,628;   99,785; 1900,988; 0,87955
1074,92;  120,027;  107,985; 1903,188; 0,67082
1075,47;  126,427;  116,785; 1900,088; 0,54071
1076,01;  144,628;  135,585; 1865,787; 0,52263
1076,56;  116,728;  103,485; 1816,887; 0,77288
1077,10;  110,027;   90,485; 1785,588; 1,15288
1077,64;  107,427;   97,685; 1777,787; 0,57988
1078,19;  135,827;  131,885; 1776,588; 0,23971
1078,73;  123,827;  108,685; 1757,688; 0,91828
1079,27;  146,527;  127,585; 1725,887; 1,18516
1079,81;  136,628;  128,585; 1709,188; 0,50882
1080,36;  126,527;  108,085; 1672,688; 1,17873
1080,90;  120,927;  107,885; 1631,188; 0,85620
1081,44;  102,027;   95,485; 1628,188; 0,42686
1081,99;   91,628;   71,785; 1579,287; 1,31625
1082,53;  127,927;  120,785; 1598,887; 0,48322
1083,07;  118,827;  114,685; 1569,887; 0,28467
1083,62;  123,827;  113,585; 1553,988; 0,71109
1084,16;  109,628;  112,485; 1541,988;-0,19989
1084,70;  127,228;  119,085; 1527,688; 0,57806
1085,24;  137,428;  116,085; 1504,188; 1,53753
1085,79;  126,827;  106,485; 1481,287; 1,47967
1086,33;  111,327;  104,485; 1424,887; 0,51821
1086,87;  126,827;  115,785; 1426,588; 0,84242
1087,41;  114,327;   91,185; 1424,588; 1,73560
1087,96;  143,027;  132,185; 1431,287; 0,83461
1088,50;  115,927;  106,685; 1378,988; 0,72644
1089,04;  137,827;  123,885; 1413,787; 1,08090
1089,58;  104,827;   87,285; 1345,488; 1,39425
1090,13;  113,927;  108,585; 1338,588; 0,43435
1090,67;  120,827;  120,585; 1335,188; 0,01997
1091,21;  106,527;   97,685; 1289,988; 0,74163
1091,75;  116,027;   94,485; 1295,287; 1,79401
1092,29;  123,327;  121,385; 1309,887; 0,16344
1092,84;  115,027;  108,285; 1255,188; 0,58789
1093,38;  139,827;  138,685; 1289,088; 0,09931
1093,92;  136,928;  126,485; 1245,688; 0,93303
1094,46;  137,027;  125,885; 1241,387; 0,99888
1095,00;  115,827;  102,185; 1207,188; 1,23461
1095,54;  108,228;   91,585; 1185,588; 1,52125
1096,09;  125,327;  117,085; 1174,988; 0,77914
1096,63;  131,227;  129,785; 1177,887; 0,13763
1097,17;  103,827;  104,485; 1142,287;-0,06336
1097,71;  141,227;  128,785; 1148,988; 1,21961
1098,25;  110,927;  106,185; 1074,488; 0,48977
1098,79;  129,628;  113,285; 1111,287; 1,63752
1099,33;  121,128;  125,085; 1078,988;-0,41487
1099,88;  127,327;  117,685; 1058,287; 1,02514
1100,42;   92,128;   84,285; 1020,888; 0,83733

