PE UV       SUBTECH     SPECTRUM    ASCII       PEDS        4.00        
   -1
INBUCR0126-4.Sample.ASC
24/02/07
11:54:53.00
24/02/07
11:54:53.00
Vinicio Soto Monge
Color café con ambos élitros (Det: A. Solís) COSTA RICA Prov. Guanacaste, Bagaces, P.N Palo Verde, Sector Palo Verde. 10 m. 6-27 MAY 2000. W. Porras. de Luz. L_N_260300_390150 #57445 INB0003168439 INBIOCRI COSTA RICA 
250,000000
1
Lambda 1050
1050L1511233
PerkinElmer UV WinLab 6.3.2.0749 / 2.02.05 Lambda 900 UV/VIS/NIR, Aug  7 2015 09:38:08

0
0
3350/servo 860,8/2
0
0
UV/VIS
1
1
1
DoubleDePol,CommonBeamDepol,RBeamAtt,SBeamAtt,60mm sphere, WB InGaAs Detector
0
0
0
0
Program
Program
3350/servo 860,8/2
3350/0,2 860,8/0,2
3350/0,2 860,8/0,2
0
15.00
 
 
 
0
 
860,8
319,2
860,8
Front
100
on
S:100 R:100
0
0
0
0
 
0
 
 
 
0
 
 
0
0
0
0
0
 
 
 
 
0
0


0
0
#HDR
-1
-1
#GR
nm
%R
1.0
0.0
2500,000000
-1,000000
2251
8
14,684900
1,075400
#DATA

250.000000	2.973771
251.000000	2.965032
252.000000	2.961811
253.000000	2.935152
254.000000	2.921958
255.000000	2.917750
256.000000	2.924107
257.000000	2.911445
258.000000	2.883060
259.000000	2.853908
260.000000	2.870964
261.000000	2.844325
262.000000	2.853190
263.000000	2.824772
264.000000	2.796132
265.000000	2.785489
266.000000	2.762723
267.000000	2.758928
268.000000	2.746548
269.000000	2.711501
270.000000	2.713808
271.000000	2.696683
272.000000	2.690645
273.000000	2.667417
274.000000	2.663400
275.000000	2.645789
276.000000	2.664689
277.000000	2.642081
278.000000	2.637205
279.000000	2.637372
280.000000	2.632984
281.000000	2.621507
282.000000	2.623726
283.000000	2.634468
284.000000	2.638460
285.000000	2.621348
286.000000	2.610036
287.000000	2.604681
288.000000	2.640589
289.000000	2.605848
290.000000	2.607884
291.000000	2.626797
292.000000	2.630032
293.000000	2.632030
294.000000	2.622886
295.000000	2.647051
296.000000	2.654100
297.000000	2.643355
298.000000	2.622768
299.000000	2.628486
300.000000	2.625774
301.000000	2.623140
302.000000	2.624937
303.000000	2.618875
304.000000	2.631496
305.000000	2.620782
306.000000	2.615459
307.000000	2.617314
308.000000	2.629471
309.000000	2.615855
310.000000	2.601803
311.000000	2.617018
312.000000	2.606960
313.000000	2.605897
314.000000	2.622048
315.000000	2.609632
316.000000	2.586637
317.000000	2.652859
318.000000	2.667616
319.000000	2.559027
320.000000	2.616016
321.000000	2.662627
322.000000	2.658576
323.000000	2.634186
324.000000	2.593282
325.000000	2.586482
326.000000	2.570156
327.000000	2.590846
328.000000	2.532869
329.000000	2.600530
330.000000	2.674929
331.000000	2.611142
332.000000	2.599716
333.000000	2.604700
334.000000	2.601969
335.000000	2.605581
336.000000	2.580769
337.000000	2.607634
338.000000	2.621191
339.000000	2.582568
340.000000	2.614203
341.000000	2.570029
342.000000	2.589081
343.000000	2.603429
344.000000	2.597381
345.000000	2.572653
346.000000	2.560341
347.000000	2.572987
348.000000	2.581219
349.000000	2.587973
350.000000	2.584607
351.000000	2.583160
352.000000	2.564875
353.000000	2.571544
354.000000	2.583753
355.000000	2.598477
356.000000	2.576090
357.000000	2.586787
358.000000	2.582946
359.000000	2.580922
360.000000	2.549701
361.000000	2.550756
362.000000	2.590146
363.000000	2.564778
364.000000	2.596462
365.000000	2.600110
366.000000	2.601580
367.000000	2.590855
368.000000	2.598197
369.000000	2.611311
370.000000	2.590093
371.000000	2.570444
372.000000	2.565376
373.000000	2.582220
374.000000	2.564627
375.000000	2.587309
376.000000	2.633342
377.000000	2.667215
378.000000	2.662976
379.000000	2.657274
380.000000	2.659141
381.000000	2.665289
382.000000	2.665350
383.000000	2.664601
384.000000	2.665674
385.000000	2.658954
386.000000	2.660168
387.000000	2.661053
388.000000	2.666225
389.000000	2.664771
390.000000	2.667901
391.000000	2.665516
392.000000	2.665200
393.000000	2.668874
394.000000	2.675225
395.000000	2.677018
396.000000	2.677649
397.000000	2.675044
398.000000	2.679411
399.000000	2.684642
400.000000	2.683981
401.000000	2.683686
402.000000	2.687761
403.000000	2.694579
404.000000	2.696526
405.000000	2.697207
406.000000	2.704499
407.000000	2.713227
408.000000	2.718674
409.000000	2.726070
410.000000	2.732432
411.000000	2.737889
412.000000	2.748338
413.000000	2.759232
414.000000	2.768836
415.000000	2.780833
416.000000	2.793027
417.000000	2.804236
418.000000	2.809868
419.000000	2.823787
420.000000	2.844762
421.000000	2.859082
422.000000	2.873332
423.000000	2.890728
424.000000	2.909549
425.000000	2.926162
426.000000	2.942262
427.000000	2.961524
428.000000	2.984498
429.000000	3.006237
430.000000	3.022619
431.000000	3.043232
432.000000	3.065787
433.000000	3.088775
434.000000	3.110857
435.000000	3.133577
436.000000	3.155701
437.000000	3.179544
438.000000	3.201224
439.000000	3.227940
440.000000	3.256621
441.000000	3.283095
442.000000	3.307637
443.000000	3.333527
444.000000	3.361125
445.000000	3.387818
446.000000	3.410373
447.000000	3.435973
448.000000	3.462429
449.000000	3.493689
450.000000	3.526668
451.000000	3.554891
452.000000	3.585598
453.000000	3.619173
454.000000	3.652545
455.000000	3.685252
456.000000	3.716815
457.000000	3.749756
458.000000	3.784128
459.000000	3.814690
460.000000	3.848025
461.000000	3.882321
462.000000	3.916952
463.000000	3.952761
464.000000	3.988368
465.000000	4.024674
466.000000	4.062259
467.000000	4.102064
468.000000	4.139017
469.000000	4.174471
470.000000	4.208394
471.000000	4.246851
472.000000	4.283284
473.000000	4.325543
474.000000	4.366520
475.000000	4.405871
476.000000	4.446519
477.000000	4.484189
478.000000	4.523126
479.000000	4.565757
480.000000	4.614625
481.000000	4.666189
482.000000	4.713544
483.000000	4.753817
484.000000	4.792045
485.000000	4.822235
486.000000	4.853385
487.000000	4.888955
488.000000	4.925651
489.000000	4.958089
490.000000	4.993343
491.000000	5.020070
492.000000	5.056407
493.000000	5.089602
494.000000	5.124112
495.000000	5.154626
496.000000	5.188389
497.000000	5.224505
498.000000	5.259602
499.000000	5.291737
500.000000	5.327814
501.000000	5.364570
502.000000	5.399288
503.000000	5.428565
504.000000	5.465411
505.000000	5.505149
506.000000	5.540074
507.000000	5.577043
508.000000	5.620380
509.000000	5.663509
510.000000	5.705102
511.000000	5.748806
512.000000	5.790908
513.000000	5.834309
514.000000	5.885660
515.000000	5.932031
516.000000	5.978878
517.000000	6.030254
518.000000	6.077836
519.000000	6.130157
520.000000	6.184526
521.000000	6.236131
522.000000	6.290782
523.000000	6.340113
524.000000	6.390636
525.000000	6.444823
526.000000	6.493315
527.000000	6.544650
528.000000	6.594250
529.000000	6.641198
530.000000	6.689668
531.000000	6.739186
532.000000	6.788605
533.000000	6.835356
534.000000	6.882835
535.000000	6.934117
536.000000	6.987102
537.000000	7.029863
538.000000	7.078165
539.000000	7.125039
540.000000	7.173540
541.000000	7.222813
542.000000	7.269690
543.000000	7.322530
544.000000	7.373467
545.000000	7.424406
546.000000	7.471837
547.000000	7.519282
548.000000	7.572044
549.000000	7.620806
550.000000	7.671570
551.000000	7.723691
552.000000	7.774608
553.000000	7.827164
554.000000	7.881414
555.000000	7.932389
556.000000	7.985096
557.000000	8.034362
558.000000	8.096853
559.000000	8.149447
560.000000	8.262984
561.000000	8.330407
562.000000	8.387403
563.000000	8.444653
564.000000	8.500278
565.000000	8.555276
566.000000	8.611718
567.000000	8.670758
568.000000	8.722825
569.000000	8.790506
570.000000	8.846164
571.000000	8.907064
572.000000	8.966308
573.000000	9.025265
574.000000	9.089410
575.000000	9.147314
576.000000	9.206756
577.000000	9.262876
578.000000	9.321688
579.000000	9.384901
580.000000	9.447101
581.000000	9.496583
582.000000	9.564932
583.000000	9.627769
584.000000	9.689784
585.000000	9.744630
586.000000	9.811800
587.000000	9.874972
588.000000	9.943331
589.000000	9.995023
590.000000	10.060327
591.000000	10.121777
592.000000	10.193100
593.000000	10.252990
594.000000	10.319534
595.000000	10.386357
596.000000	10.451501
597.000000	10.517697
598.000000	10.574854
599.000000	10.644292
600.000000	10.723013
601.000000	10.784170
602.000000	10.853261
603.000000	10.916886
604.000000	10.982269
605.000000	11.050025
606.000000	11.122042
607.000000	11.186630
608.000000	11.252189
609.000000	11.318746
610.000000	11.380576
611.000000	11.450636
612.000000	11.522676
613.000000	11.596667
614.000000	11.655633
615.000000	11.733465
616.000000	11.805359
617.000000	11.879482
618.000000	11.947514
619.000000	12.015322
620.000000	12.070799
621.000000	12.140319
622.000000	12.219142
623.000000	12.281288
624.000000	12.347791
625.000000	12.425481
626.000000	12.492040
627.000000	12.558029
628.000000	12.618516
629.000000	12.678656
630.000000	12.749400
631.000000	12.831682
632.000000	12.897947
633.000000	12.963159
634.000000	13.031081
635.000000	13.097603
636.000000	13.154298
637.000000	13.221169
638.000000	13.294396
639.000000	13.364254
640.000000	13.422460
641.000000	13.486889
642.000000	13.561392
643.000000	13.623788
644.000000	13.685378
645.000000	13.743463
646.000000	13.811405
647.000000	13.883320
648.000000	13.952826
649.000000	14.003502
650.000000	14.080485
651.000000	14.150459
652.000000	14.213563
653.000000	14.273063
654.000000	14.332537
655.000000	14.398266
656.000000	14.466690
657.000000	14.540167
658.000000	14.607532
659.000000	14.654231
660.000000	14.714046
661.000000	14.789513
662.000000	14.858794
663.000000	14.915967
664.000000	14.980247
665.000000	15.033776
666.000000	15.091601
667.000000	15.156386
668.000000	15.225178
669.000000	15.297366
670.000000	15.345693
671.000000	15.398457
672.000000	15.459201
673.000000	15.537592
674.000000	15.601023
675.000000	15.656965
676.000000	15.720050
677.000000	15.775070
678.000000	15.828846
679.000000	15.893030
680.000000	15.958640
681.000000	16.011469
682.000000	16.073601
683.000000	16.118648
684.000000	16.185296
685.000000	16.257585
686.000000	16.314490
687.000000	16.372764
688.000000	16.419577
689.000000	16.486539
690.000000	16.546113
691.000000	16.607299
692.000000	16.680828
693.000000	16.740807
694.000000	16.794925
695.000000	16.850818
696.000000	16.909332
697.000000	16.957290
698.000000	17.021950
699.000000	17.094430
700.000000	17.147360
701.000000	17.211110
702.000000	17.266879
703.000000	17.320436
704.000000	17.389639
705.000000	17.447175
706.000000	17.493990
707.000000	17.569776
708.000000	17.630738
709.000000	17.678071
710.000000	17.741717
711.000000	17.789393
712.000000	17.848260
713.000000	17.919222
714.000000	17.978214
715.000000	18.043596
716.000000	18.097593
717.000000	18.149091
718.000000	18.227458
719.000000	18.285582
720.000000	18.344394
721.000000	18.402754
722.000000	18.444170
723.000000	18.506925
724.000000	18.590770
725.000000	18.659254
726.000000	18.718229
727.000000	18.770656
728.000000	18.825097
729.000000	18.893800
730.000000	18.945671
731.000000	18.990547
732.000000	19.066922
733.000000	19.148658
734.000000	19.207871
735.000000	19.268609
736.000000	19.327508
737.000000	19.388581
738.000000	19.464700
739.000000	19.516672
740.000000	19.562596
741.000000	19.633172
742.000000	19.701949
743.000000	19.777852
744.000000	19.833315
745.000000	19.885151
746.000000	19.950238
747.000000	20.024206
748.000000	20.085547
749.000000	20.158645
750.000000	20.233159
751.000000	20.269649
752.000000	20.344801
753.000000	20.428199
754.000000	20.473936
755.000000	20.540051
756.000000	20.613525
757.000000	20.679554
758.000000	20.748568
759.000000	20.801010
760.000000	20.883218
761.000000	20.969894
762.000000	21.042621
763.000000	21.071960
764.000000	21.118891
765.000000	21.226584
766.000000	21.304562
767.000000	21.385142
768.000000	21.455793
769.000000	21.480101
770.000000	21.561059
771.000000	21.638865
772.000000	21.682426
773.000000	21.746378
774.000000	21.830042
775.000000	21.884475
776.000000	22.000090
777.000000	22.037780
778.000000	22.108625
779.000000	22.156523
780.000000	22.242668
781.000000	22.342087
782.000000	22.396500
783.000000	22.443903
784.000000	22.534370
785.000000	22.602220
786.000000	22.689942
787.000000	22.755816
788.000000	22.823731
789.000000	22.884074
790.000000	22.930404
791.000000	23.013142
792.000000	23.109326
793.000000	23.185897
794.000000	23.221312
795.000000	23.271431
796.000000	23.373684
797.000000	23.465872
798.000000	23.547082
799.000000	23.619826
800.000000	23.662037
801.000000	23.788346
802.000000	23.841780
803.000000	23.839572
804.000000	23.973090
805.000000	24.007360
806.000000	24.076390
807.000000	24.186596
808.000000	24.228022
809.000000	24.235910
810.000000	24.384818
811.000000	24.403580
812.000000	24.511342
813.000000	24.558188
814.000000	24.662365
815.000000	24.710591
816.000000	24.768386
817.000000	24.866263
818.000000	24.910239
819.000000	24.981384
820.000000	25.037055
821.000000	25.122454
822.000000	25.183798
823.000000	25.254276
824.000000	25.281371
825.000000	25.374916
826.000000	25.447835
827.000000	25.537883
828.000000	25.634146
829.000000	25.656983
830.000000	25.752296
831.000000	25.745128
832.000000	25.874149
833.000000	25.968650
834.000000	26.019584
835.000000	26.066409
836.000000	26.074840
837.000000	26.130713
838.000000	26.236205
839.000000	26.263519
840.000000	26.341878
841.000000	26.420161
842.000000	26.466755
843.000000	26.583423
844.000000	26.574281
845.000000	26.590730
846.000000	26.648130
847.000000	26.648011
848.000000	26.672263
849.000000	26.734277
850.000000	26.852264
851.000000	26.762404
852.000000	26.880657
853.000000	27.054337
854.000000	27.161008
855.000000	27.000140
856.000000	27.077941
857.000000	27.298107
858.000000	28.625043
859.000000	28.045906
860.000000	27.713050
861.000000	28.016148
862.000000	27.698818
863.000000	27.918754
864.000000	27.778384
865.000000	27.827418
866.000000	27.817035
867.000000	27.816767
868.000000	27.747128
869.000000	27.953179
870.000000	27.945726
871.000000	27.912323
872.000000	28.016262
873.000000	28.009392
874.000000	28.102757
875.000000	27.868660
876.000000	28.041256
877.000000	28.129986
878.000000	28.088186
879.000000	27.948237
880.000000	27.884887
881.000000	27.926999
882.000000	27.867076
883.000000	27.863319
884.000000	28.125558
885.000000	28.176481
886.000000	28.085158
887.000000	28.164149
888.000000	27.983144
889.000000	28.067112
890.000000	28.212332
891.000000	28.108673
892.000000	28.112545
893.000000	27.998769
894.000000	28.044858
895.000000	28.154699
896.000000	28.190829
897.000000	28.226670
898.000000	28.183406
899.000000	28.233827
900.000000	28.205996
901.000000	28.134709
902.000000	28.260071
903.000000	28.249160
904.000000	28.295254
905.000000	28.257908
906.000000	28.283518
907.000000	28.256746
908.000000	28.294848
909.000000	28.241519
910.000000	28.268520
911.000000	28.404949
912.000000	28.398743
913.000000	28.370111
914.000000	28.389200
915.000000	28.394443
916.000000	28.399156
917.000000	28.455657
918.000000	28.449133
919.000000	28.469854
920.000000	28.504683
921.000000	28.458598
922.000000	28.546450
923.000000	28.605946
924.000000	28.600609
925.000000	28.618435
926.000000	28.664914
927.000000	28.659354
928.000000	28.701909
929.000000	28.732351
930.000000	28.763421
931.000000	28.768647
932.000000	28.848496
933.000000	28.839147
934.000000	28.827315
935.000000	28.824364
936.000000	28.846705
937.000000	28.856242
938.000000	28.868572
939.000000	28.919799
940.000000	28.936066
941.000000	28.917065
942.000000	28.968407
943.000000	29.028603
944.000000	29.048015
945.000000	29.054049
946.000000	29.085486
947.000000	29.121797
948.000000	29.139659
949.000000	29.147421
950.000000	29.174848
951.000000	29.168477
952.000000	29.180940
953.000000	29.216354
954.000000	29.253310
955.000000	29.262855
956.000000	29.305705
957.000000	29.318131
958.000000	29.316135
959.000000	29.337543
960.000000	29.368477
961.000000	29.398779
962.000000	29.401482
963.000000	29.425296
964.000000	29.448050
965.000000	29.457116
966.000000	29.471643
967.000000	29.493089
968.000000	29.512514
969.000000	29.546629
970.000000	29.570293
971.000000	29.583178
972.000000	29.599424
973.000000	29.629979
974.000000	29.647328
975.000000	29.668267
976.000000	29.696857
977.000000	29.730916
978.000000	29.744187
979.000000	29.762385
980.000000	29.786508
981.000000	29.797549
982.000000	29.787018
983.000000	29.801624
984.000000	29.825409
985.000000	29.865997
986.000000	29.878644
987.000000	29.886883
988.000000	29.918122
989.000000	29.956975
990.000000	29.965532
991.000000	29.964359
992.000000	29.977641
993.000000	29.990134
994.000000	30.013934
995.000000	30.037812
996.000000	30.062390
997.000000	30.086334
998.000000	30.109297
999.000000	30.140705
1000.000000	30.148496
1001.000000	30.157731
1002.000000	30.173448
1003.000000	30.195286
1004.000000	30.228142
1005.000000	30.255736
1006.000000	30.268624
1007.000000	30.270285
1008.000000	30.293206
1009.000000	30.316289
1010.000000	30.334342
1011.000000	30.357841
1012.000000	30.368083
1013.000000	30.384463
1014.000000	30.408880
1015.000000	30.433794
1016.000000	30.443862
1017.000000	30.460986
1018.000000	30.487048
1019.000000	30.511893
1020.000000	30.530041
1021.000000	30.561437
1022.000000	30.590114
1023.000000	30.617476
1024.000000	30.648213
1025.000000	30.680184
1026.000000	30.704294
1027.000000	30.715967
1028.000000	30.737247
1029.000000	30.756069
1030.000000	30.791094
1031.000000	30.837769
1032.000000	30.868728
1033.000000	30.874591
1034.000000	30.889948
1035.000000	30.907923
1036.000000	30.929642
1037.000000	30.957777
1038.000000	30.994687
1039.000000	31.020756
1040.000000	31.040585
1041.000000	31.057890
1042.000000	31.091600
1043.000000	31.123608
1044.000000	31.135474
1045.000000	31.162864
1046.000000	31.182031
1047.000000	31.203580
1048.000000	31.233302
1049.000000	31.242165
1050.000000	31.267522
1051.000000	31.299771
1052.000000	31.342191
1053.000000	31.371905
1054.000000	31.387025
1055.000000	31.406455
1056.000000	31.435349
1057.000000	31.467084
1058.000000	31.489584
1059.000000	31.521059
1060.000000	31.543993
1061.000000	31.551438
1062.000000	31.583138
1063.000000	31.613086
1064.000000	31.640026
1065.000000	31.666689
1066.000000	31.709260
1067.000000	31.716849
1068.000000	31.735228
1069.000000	31.763855
1070.000000	31.785860
1071.000000	31.801867
1072.000000	31.831370
1073.000000	31.861357
1074.000000	31.883206
1075.000000	31.896362
1076.000000	31.915608
1077.000000	31.936264
1078.000000	31.952549
1079.000000	31.974847
1080.000000	31.999285
1081.000000	32.013818
1082.000000	32.052680
1083.000000	32.060345
1084.000000	32.083773
1085.000000	32.103933
1086.000000	32.113829
1087.000000	32.144638
1088.000000	32.177828
1089.000000	32.192660
1090.000000	32.201986
1091.000000	32.212719
1092.000000	32.235189
1093.000000	32.254896
1094.000000	32.262395
1095.000000	32.279944
1096.000000	32.292577
1097.000000	32.307128
1098.000000	32.322523
1099.000000	32.338615
1100.000000	32.355671
1101.000000	32.370587
1102.000000	32.383477
1103.000000	32.391681
1104.000000	32.398924
1105.000000	32.412455
1106.000000	32.423320
1107.000000	32.439972
1108.000000	32.450529
1109.000000	32.451001
1110.000000	32.459188
1111.000000	32.477116
1112.000000	32.482798
1113.000000	32.490625
1114.000000	32.501270
1115.000000	32.500156
1116.000000	32.503843
1117.000000	32.500043
1118.000000	32.488010
1119.000000	32.502764
1120.000000	32.508092
1121.000000	32.503384
1122.000000	32.473642
1123.000000	32.470468
1124.000000	32.461714
1125.000000	32.442168
1126.000000	32.404226
1127.000000	32.389470
1128.000000	32.342275
1129.000000	32.311440
1130.000000	32.281943
1131.000000	32.253548
1132.000000	32.224278
1133.000000	32.186521
1134.000000	32.131826
1135.000000	32.067130
1136.000000	32.027076
1137.000000	31.993224
1138.000000	31.931470
1139.000000	31.881824
1140.000000	31.833111
1141.000000	31.798896
1142.000000	31.760746
1143.000000	31.743112
1144.000000	31.708813
1145.000000	31.644398
1146.000000	31.593113
1147.000000	31.569844
1148.000000	31.529680
1149.000000	31.488787
1150.000000	31.440108
1151.000000	31.413119
1152.000000	31.354820
1153.000000	31.302645
1154.000000	31.254644
1155.000000	31.182345
1156.000000	31.137548
1157.000000	31.059888
1158.000000	31.003168
1159.000000	30.925421
1160.000000	30.855285
1161.000000	30.796582
1162.000000	30.721563
1163.000000	30.673822
1164.000000	30.598140
1165.000000	30.526347
1166.000000	30.473063
1167.000000	30.415306
1168.000000	30.348296
1169.000000	30.304815
1170.000000	30.240563
1171.000000	30.185186
1172.000000	30.139406
1173.000000	30.114847
1174.000000	30.051254
1175.000000	30.012176
1176.000000	29.983121
1177.000000	29.954008
1178.000000	29.912492
1179.000000	29.883819
1180.000000	29.859285
1181.000000	29.839360
1182.000000	29.806518
1183.000000	29.803190
1184.000000	29.787716
1185.000000	29.773390
1186.000000	29.776954
1187.000000	29.774406
1188.000000	29.784023
1189.000000	29.807811
1190.000000	29.827613
1191.000000	29.851112
1192.000000	29.886246
1193.000000	29.900932
1194.000000	29.925461
1195.000000	29.962638
1196.000000	29.995977
1197.000000	30.022642
1198.000000	30.060673
1199.000000	30.085792
1200.000000	30.117683
1201.000000	30.128777
1202.000000	30.143445
1203.000000	30.179564
1204.000000	30.201933
1205.000000	30.225145
1206.000000	30.263993
1207.000000	30.281734
1208.000000	30.310951
1209.000000	30.340252
1210.000000	30.370630
1211.000000	30.388212
1212.000000	30.413339
1213.000000	30.450777
1214.000000	30.475523
1215.000000	30.509055
1216.000000	30.538703
1217.000000	30.581873
1218.000000	30.614785
1219.000000	30.651788
1220.000000	30.690047
1221.000000	30.732465
1222.000000	30.764258
1223.000000	30.794811
1224.000000	30.838095
1225.000000	30.863564
1226.000000	30.897644
1227.000000	30.950902
1228.000000	30.983198
1229.000000	31.002234
1230.000000	31.047230
1231.000000	31.106865
1232.000000	31.131872
1233.000000	31.163935
1234.000000	31.197377
1235.000000	31.218471
1236.000000	31.244779
1237.000000	31.274720
1238.000000	31.310738
1239.000000	31.339725
1240.000000	31.361698
1241.000000	31.387765
1242.000000	31.416113
1243.000000	31.446339
1244.000000	31.470206
1245.000000	31.500173
1246.000000	31.525117
1247.000000	31.550916
1248.000000	31.572169
1249.000000	31.590375
1250.000000	31.618471
1251.000000	31.634696
1252.000000	31.641458
1253.000000	31.653748
1254.000000	31.666585
1255.000000	31.676659
1256.000000	31.690691
1257.000000	31.693344
1258.000000	31.693629
1259.000000	31.705778
1260.000000	31.713789
1261.000000	31.715257
1262.000000	31.719260
1263.000000	31.725480
1264.000000	31.733685
1265.000000	31.737167
1266.000000	31.733192
1267.000000	31.740914
1268.000000	31.749827
1269.000000	31.753037
1270.000000	31.760282
1271.000000	31.770002
1272.000000	31.778937
1273.000000	31.785413
1274.000000	31.789474
1275.000000	31.794918
1276.000000	31.804217
1277.000000	31.809526
1278.000000	31.819689
1279.000000	31.840172
1280.000000	31.860253
1281.000000	31.870609
1282.000000	31.881418
1283.000000	31.896357
1284.000000	31.910889
1285.000000	31.920902
1286.000000	31.930384
1287.000000	31.945411
1288.000000	31.959936
1289.000000	31.967019
1290.000000	31.975711
1291.000000	31.983458
1292.000000	31.991190
1293.000000	31.988623
1294.000000	31.997452
1295.000000	32.006645
1296.000000	32.003896
1297.000000	32.010235
1298.000000	32.011730
1299.000000	32.011800
1300.000000	32.016768
1301.000000	32.018252
1302.000000	32.008370
1303.000000	31.998007
1304.000000	31.989934
1305.000000	31.981893
1306.000000	31.985096
1307.000000	31.980256
1308.000000	31.969832
1309.000000	31.966762
1310.000000	31.961215
1311.000000	31.943808
1312.000000	31.931537
1313.000000	31.932626
1314.000000	31.916356
1315.000000	31.889562
1316.000000	31.872946
1317.000000	31.861492
1318.000000	31.837273
1319.000000	31.806428
1320.000000	31.781085
1321.000000	31.763903
1322.000000	31.737479
1323.000000	31.712909
1324.000000	31.688174
1325.000000	31.652427
1326.000000	31.620592
1327.000000	31.587468
1328.000000	31.554361
1329.000000	31.498977
1330.000000	31.457478
1331.000000	31.422450
1332.000000	31.377462
1333.000000	31.318781
1334.000000	31.261226
1335.000000	31.209611
1336.000000	31.151805
1337.000000	31.082809
1338.000000	31.014635
1339.000000	30.953351
1340.000000	30.886729
1341.000000	30.813751
1342.000000	30.752393
1343.000000	30.672859
1344.000000	30.585390
1345.000000	30.507164
1346.000000	30.424580
1347.000000	30.335159
1348.000000	30.256523
1349.000000	30.188959
1350.000000	30.118909
1351.000000	30.034394
1352.000000	29.963826
1353.000000	29.898154
1354.000000	29.818257
1355.000000	29.733518
1356.000000	29.674077
1357.000000	29.631089
1358.000000	29.591236
1359.000000	29.555992
1360.000000	29.491064
1361.000000	29.373838
1362.000000	29.294413
1363.000000	29.254401
1364.000000	29.179032
1365.000000	29.116855
1366.000000	29.076577
1367.000000	29.002335
1368.000000	28.906752
1369.000000	28.843127
1370.000000	28.766913
1371.000000	28.645720
1372.000000	28.554487
1373.000000	28.464919
1374.000000	28.380414
1375.000000	28.272202
1376.000000	28.176274
1377.000000	28.093365
1378.000000	28.012007
1379.000000	27.925464
1380.000000	27.822341
1381.000000	27.676058
1382.000000	27.536172
1383.000000	27.406120
1384.000000	27.338737
1385.000000	27.219900
1386.000000	27.109307
1387.000000	26.981959
1388.000000	26.865845
1389.000000	26.768765
1390.000000	26.662417
1391.000000	26.530185
1392.000000	26.409135
1393.000000	26.306612
1394.000000	26.187826
1395.000000	26.006472
1396.000000	25.861065
1397.000000	25.766566
1398.000000	25.670236
1399.000000	25.506848
1400.000000	25.319599
1401.000000	25.156614
1402.000000	25.053519
1403.000000	24.913878
1404.000000	24.734289
1405.000000	24.563769
1406.000000	24.407219
1407.000000	24.271295
1408.000000	24.083503
1409.000000	23.916914
1410.000000	23.763621
1411.000000	23.616697
1412.000000	23.484784
1413.000000	23.341432
1414.000000	23.164033
1415.000000	23.036904
1416.000000	22.911775
1417.000000	22.788996
1418.000000	22.656915
1419.000000	22.531033
1420.000000	22.417359
1421.000000	22.299622
1422.000000	22.192904
1423.000000	22.083034
1424.000000	21.965707
1425.000000	21.886639
1426.000000	21.785159
1427.000000	21.705466
1428.000000	21.624838
1429.000000	21.528611
1430.000000	21.464879
1431.000000	21.368310
1432.000000	21.297320
1433.000000	21.225400
1434.000000	21.144337
1435.000000	21.095775
1436.000000	21.013770
1437.000000	20.960336
1438.000000	20.878246
1439.000000	20.827618
1440.000000	20.758348
1441.000000	20.688110
1442.000000	20.637779
1443.000000	20.597924
1444.000000	20.548032
1445.000000	20.479380
1446.000000	20.413629
1447.000000	20.368440
1448.000000	20.323369
1449.000000	20.270630
1450.000000	20.202164
1451.000000	20.147250
1452.000000	20.105008
1453.000000	20.045396
1454.000000	19.999680
1455.000000	19.940648
1456.000000	19.897725
1457.000000	19.855636
1458.000000	19.812022
1459.000000	19.752781
1460.000000	19.708870
1461.000000	19.652079
1462.000000	19.604562
1463.000000	19.559736
1464.000000	19.514459
1465.000000	19.473283
1466.000000	19.441051
1467.000000	19.391371
1468.000000	19.337773
1469.000000	19.295867
1470.000000	19.266580
1471.000000	19.212320
1472.000000	19.188215
1473.000000	19.143704
1474.000000	19.107424
1475.000000	19.082193
1476.000000	19.042524
1477.000000	19.011785
1478.000000	18.986990
1479.000000	18.956126
1480.000000	18.935266
1481.000000	18.905390
1482.000000	18.881139
1483.000000	18.851814
1484.000000	18.839520
1485.000000	18.816603
1486.000000	18.809897
1487.000000	18.796396
1488.000000	18.786408
1489.000000	18.770902
1490.000000	18.757778
1491.000000	18.749684
1492.000000	18.742716
1493.000000	18.737503
1494.000000	18.742378
1495.000000	18.750700
1496.000000	18.772447
1497.000000	18.771933
1498.000000	18.789193
1499.000000	18.804836
1500.000000	18.830379
1501.000000	18.846001
1502.000000	18.874057
1503.000000	18.908341
1504.000000	18.928292
1505.000000	18.954670
1506.000000	18.979078
1507.000000	19.016178
1508.000000	19.044820
1509.000000	19.074820
1510.000000	19.114178
1511.000000	19.145839
1512.000000	19.179186
1513.000000	19.221471
1514.000000	19.256884
1515.000000	19.294439
1516.000000	19.329948
1517.000000	19.363989
1518.000000	19.394454
1519.000000	19.427311
1520.000000	19.468312
1521.000000	19.505218
1522.000000	19.530449
1523.000000	19.565398
1524.000000	19.605683
1525.000000	19.638310
1526.000000	19.660743
1527.000000	19.690288
1528.000000	19.721291
1529.000000	19.756723
1530.000000	19.787545
1531.000000	19.816473
1532.000000	19.844240
1533.000000	19.871626
1534.000000	19.906431
1535.000000	19.934792
1536.000000	19.955024
1537.000000	19.982388
1538.000000	20.012752
1539.000000	20.041409
1540.000000	20.075297
1541.000000	20.099965
1542.000000	20.125897
1543.000000	20.156667
1544.000000	20.196743
1545.000000	20.231762
1546.000000	20.265107
1547.000000	20.299002
1548.000000	20.326762
1549.000000	20.360108
1550.000000	20.393577
1551.000000	20.427919
1552.000000	20.460687
1553.000000	20.488877
1554.000000	20.513734
1555.000000	20.544220
1556.000000	20.575783
1557.000000	20.593521
1558.000000	20.598976
1559.000000	20.614290
1560.000000	20.625166
1561.000000	20.625745
1562.000000	20.636490
1563.000000	20.642296
1564.000000	20.641520
1565.000000	20.640876
1566.000000	20.637138
1567.000000	20.626928
1568.000000	20.631792
1569.000000	20.626180
1570.000000	20.620289
1571.000000	20.618905
1572.000000	20.620034
1573.000000	20.626172
1574.000000	20.635744
1575.000000	20.636324
1576.000000	20.633367
1577.000000	20.632668
1578.000000	20.646988
1579.000000	20.665458
1580.000000	20.678827
1581.000000	20.691545
1582.000000	20.721698
1583.000000	20.733011
1584.000000	20.752690
1585.000000	20.779294
1586.000000	20.812111
1587.000000	20.831083
1588.000000	20.856954
1589.000000	20.889886
1590.000000	20.913910
1591.000000	20.936150
1592.000000	20.963617
1593.000000	21.000258
1594.000000	21.028443
1595.000000	21.075077
1596.000000	21.122522
1597.000000	21.156469
1598.000000	21.196040
1599.000000	21.244641
1600.000000	21.289720
1601.000000	21.321639
1602.000000	21.363837
1603.000000	21.400684
1604.000000	21.441151
1605.000000	21.475374
1606.000000	21.520479
1607.000000	21.561797
1608.000000	21.594416
1609.000000	21.634598
1610.000000	21.672415
1611.000000	21.718193
1612.000000	21.728978
1613.000000	21.753583
1614.000000	21.789535
1615.000000	21.825156
1616.000000	21.866679
1617.000000	21.893846
1618.000000	21.916977
1619.000000	21.946906
1620.000000	21.969826
1621.000000	21.997190
1622.000000	22.018910
1623.000000	22.042982
1624.000000	22.060674
1625.000000	22.092526
1626.000000	22.129585
1627.000000	22.152543
1628.000000	22.164047
1629.000000	22.202614
1630.000000	22.214392
1631.000000	22.220751
1632.000000	22.236524
1633.000000	22.262882
1634.000000	22.280995
1635.000000	22.295694
1636.000000	22.314405
1637.000000	22.319254
1638.000000	22.332422
1639.000000	22.346318
1640.000000	22.362138
1641.000000	22.377910
1642.000000	22.387823
1643.000000	22.384728
1644.000000	22.391361
1645.000000	22.384500
1646.000000	22.379361
1647.000000	22.367134
1648.000000	22.364749
1649.000000	22.367539
1650.000000	22.354540
1651.000000	22.320968
1652.000000	22.308604
1653.000000	22.282571
1654.000000	22.272378
1655.000000	22.222640
1656.000000	22.176145
1657.000000	22.137282
1658.000000	22.090645
1659.000000	22.023298
1660.000000	21.968816
1661.000000	21.899207
1662.000000	21.838397
1663.000000	21.775754
1664.000000	21.685591
1665.000000	21.607715
1666.000000	21.514452
1667.000000	21.423887
1668.000000	21.339792
1669.000000	21.257315
1670.000000	21.165371
1671.000000	21.046236
1672.000000	20.940806
1673.000000	20.852722
1674.000000	20.750307
1675.000000	20.633898
1676.000000	20.544448
1677.000000	20.427635
1678.000000	20.321490
1679.000000	20.234551
1680.000000	20.122761
1681.000000	20.050880
1682.000000	19.971293
1683.000000	19.869380
1684.000000	19.788902
1685.000000	19.729025
1686.000000	19.658584
1687.000000	19.597073
1688.000000	19.557393
1689.000000	19.532993
1690.000000	19.503641
1691.000000	19.478353
1692.000000	19.485604
1693.000000	19.462989
1694.000000	19.457527
1695.000000	19.456841
1696.000000	19.450865
1697.000000	19.450401
1698.000000	19.438534
1699.000000	19.430384
1700.000000	19.394800
1701.000000	19.377085
1702.000000	19.330912
1703.000000	19.309945
1704.000000	19.250018
1705.000000	19.198401
1706.000000	19.155599
1707.000000	19.100466
1708.000000	19.024460
1709.000000	18.942581
1710.000000	18.869479
1711.000000	18.789598
1712.000000	18.694829
1713.000000	18.599320
1714.000000	18.530539
1715.000000	18.452050
1716.000000	18.350490
1717.000000	18.288499
1718.000000	18.205820
1719.000000	18.139723
1720.000000	18.069132
1721.000000	18.010212
1722.000000	17.943234
1723.000000	17.903849
1724.000000	17.877008
1725.000000	17.862110
1726.000000	17.857538
1727.000000	17.855796
1728.000000	17.874158
1729.000000	17.891519
1730.000000	17.910475
1731.000000	17.946019
1732.000000	17.983534
1733.000000	18.003661
1734.000000	18.051941
1735.000000	18.122897
1736.000000	18.166688
1737.000000	18.222229
1738.000000	18.278826
1739.000000	18.333781
1740.000000	18.387464
1741.000000	18.437152
1742.000000	18.491188
1743.000000	18.549771
1744.000000	18.592782
1745.000000	18.625078
1746.000000	18.667417
1747.000000	18.729132
1748.000000	18.760625
1749.000000	18.791740
1750.000000	18.818668
1751.000000	18.850903
1752.000000	18.869422
1753.000000	18.871401
1754.000000	18.877487
1755.000000	18.917884
1756.000000	18.942096
1757.000000	18.963086
1758.000000	18.964928
1759.000000	18.980075
1760.000000	18.989501
1761.000000	19.014418
1762.000000	19.023237
1763.000000	19.048849
1764.000000	19.058053
1765.000000	19.079126
1766.000000	19.115498
1767.000000	19.129813
1768.000000	19.161295
1769.000000	19.193533
1770.000000	19.230641
1771.000000	19.267553
1772.000000	19.282209
1773.000000	19.316319
1774.000000	19.347506
1775.000000	19.395912
1776.000000	19.428155
1777.000000	19.443973
1778.000000	19.460004
1779.000000	19.469281
1780.000000	19.487006
1781.000000	19.509312
1782.000000	19.540034
1783.000000	19.564270
1784.000000	19.575954
1785.000000	19.573497
1786.000000	19.587491
1787.000000	19.607913
1788.000000	19.615953
1789.000000	19.624065
1790.000000	19.639494
1791.000000	19.646662
1792.000000	19.652707
1793.000000	19.665675
1794.000000	19.690876
1795.000000	19.712539
1796.000000	19.718675
1797.000000	19.750226
1798.000000	19.794085
1799.000000	19.803217
1800.000000	19.804707
1801.000000	19.802401
1802.000000	19.814961
1803.000000	19.853296
1804.000000	19.882314
1805.000000	19.880023
1806.000000	19.877589
1807.000000	19.903858
1808.000000	19.938734
1809.000000	19.964204
1810.000000	19.985413
1811.000000	19.996272
1812.000000	20.010127
1813.000000	20.022317
1814.000000	20.025037
1815.000000	20.026851
1816.000000	20.053051
1817.000000	20.118549
1818.000000	20.150626
1819.000000	20.140360
1820.000000	20.097282
1821.000000	20.056370
1822.000000	20.085074
1823.000000	20.158657
1824.000000	20.212099
1825.000000	20.232819
1826.000000	20.230313
1827.000000	20.241753
1828.000000	20.261704
1829.000000	20.256712
1830.000000	20.252416
1831.000000	20.273064
1832.000000	20.341919
1833.000000	20.419822
1834.000000	20.459665
1835.000000	20.459189
1836.000000	20.452036
1837.000000	20.467417
1838.000000	20.493934
1839.000000	20.508083
1840.000000	20.496274
1841.000000	20.465571
1842.000000	20.457172
1843.000000	20.508036
1844.000000	20.622594
1845.000000	20.712551
1846.000000	20.673977
1847.000000	20.562487
1848.000000	20.499961
1849.000000	20.513782
1850.000000	20.566624
1851.000000	20.613453
1852.000000	20.614162
1853.000000	20.578131
1854.000000	20.555536
1855.000000	20.573441
1856.000000	20.592262
1857.000000	20.587222
1858.000000	20.526103
1859.000000	20.466564
1860.000000	20.445754
1861.000000	20.414747
1862.000000	20.415501
1863.000000	20.433777
1864.000000	20.416496
1865.000000	20.426783
1866.000000	20.386150
1867.000000	20.338562
1868.000000	20.266045
1869.000000	20.094859
1870.000000	19.969601
1871.000000	19.831759
1872.000000	19.642910
1873.000000	19.479843
1874.000000	19.344504
1875.000000	19.144814
1876.000000	19.024618
1877.000000	18.879671
1878.000000	18.734417
1879.000000	18.585029
1880.000000	18.437538
1881.000000	18.269231
1882.000000	18.113519
1883.000000	17.880864
1884.000000	17.662066
1885.000000	17.445189
1886.000000	17.290149
1887.000000	17.110535
1888.000000	16.923405
1889.000000	16.721930
1890.000000	16.512487
1891.000000	16.216382
1892.000000	15.977451
1893.000000	15.747262
1894.000000	15.524861
1895.000000	15.316215
1896.000000	15.097356
1897.000000	14.916951
1898.000000	14.625319
1899.000000	14.353892
1900.000000	14.028093
1901.000000	13.827669
1902.000000	13.666963
1903.000000	13.426974
1904.000000	13.131718
1905.000000	12.903334
1906.000000	12.706153
1907.000000	12.457074
1908.000000	12.308786
1909.000000	12.186138
1910.000000	12.037596
1911.000000	11.830595
1912.000000	11.681767
1913.000000	11.584430
1914.000000	11.331606
1915.000000	11.213641
1916.000000	11.067385
1917.000000	11.014799
1918.000000	10.906096
1919.000000	10.831340
1920.000000	10.714898
1921.000000	10.629219
1922.000000	10.550356
1923.000000	10.409408
1924.000000	10.429075
1925.000000	10.334326
1926.000000	10.293371
1927.000000	10.240547
1928.000000	10.167262
1929.000000	10.117032
1930.000000	10.080661
1931.000000	10.079575
1932.000000	10.044322
1933.000000	10.046217
1934.000000	9.979791
1935.000000	9.914005
1936.000000	9.997672
1937.000000	9.982441
1938.000000	10.002646
1939.000000	9.989649
1940.000000	10.029534
1941.000000	10.027515
1942.000000	10.033222
1943.000000	10.054435
1944.000000	10.112457
1945.000000	10.101728
1946.000000	10.157790
1947.000000	10.153241
1948.000000	10.200060
1949.000000	10.213534
1950.000000	10.261289
1951.000000	10.360513
1952.000000	10.396456
1953.000000	10.436617
1954.000000	10.432559
1955.000000	10.493910
1956.000000	10.560870
1957.000000	10.604752
1958.000000	10.633006
1959.000000	10.672803
1960.000000	10.710293
1961.000000	10.748131
1962.000000	10.787837
1963.000000	10.871802
1964.000000	10.904949
1965.000000	10.988947
1966.000000	11.001622
1967.000000	11.050873
1968.000000	11.095721
1969.000000	11.156759
1970.000000	11.161281
1971.000000	11.249871
1972.000000	11.318838
1973.000000	11.366167
1974.000000	11.387615
1975.000000	11.421262
1976.000000	11.509714
1977.000000	11.511253
1978.000000	11.614302
1979.000000	11.644205
1980.000000	11.712661
1981.000000	11.791041
1982.000000	11.833560
1983.000000	11.862505
1984.000000	11.889981
1985.000000	11.963599
1986.000000	11.988433
1987.000000	12.017695
1988.000000	12.085372
1989.000000	12.126157
1990.000000	12.183141
1991.000000	12.209394
1992.000000	12.265671
1993.000000	12.282880
1994.000000	12.331767
1995.000000	12.367582
1996.000000	12.391080
1997.000000	12.435959
1998.000000	12.463248
1999.000000	12.486646
2000.000000	12.524468
2001.000000	12.567769
2002.000000	12.573377
2003.000000	12.646286
2004.000000	12.660943
2005.000000	12.659736
2006.000000	12.635216
2007.000000	12.628993
2008.000000	12.672745
2009.000000	12.665970
2010.000000	12.689044
2011.000000	12.665608
2012.000000	12.662370
2013.000000	12.657187
2014.000000	12.609450
2015.000000	12.624122
2016.000000	12.634601
2017.000000	12.595320
2018.000000	12.550536
2019.000000	12.495742
2020.000000	12.472529
2021.000000	12.488139
2022.000000	12.437159
2023.000000	12.390560
2024.000000	12.368805
2025.000000	12.308186
2026.000000	12.245047
2027.000000	12.244129
2028.000000	12.199586
2029.000000	12.109028
2030.000000	11.976496
2031.000000	11.953867
2032.000000	11.908614
2033.000000	11.851528
2034.000000	11.790290
2035.000000	11.749427
2036.000000	11.660485
2037.000000	11.580963
2038.000000	11.530891
2039.000000	11.462019
2040.000000	11.360095
2041.000000	11.294613
2042.000000	11.259349
2043.000000	11.143079
2044.000000	11.100368
2045.000000	11.059373
2046.000000	11.004661
2047.000000	10.936907
2048.000000	10.846376
2049.000000	10.792848
2050.000000	10.775461
2051.000000	10.710380
2052.000000	10.671214
2053.000000	10.684894
2054.000000	10.749135
2055.000000	10.790623
2056.000000	10.756594
2057.000000	10.762520
2058.000000	10.813245
2059.000000	10.838500
2060.000000	10.852917
2061.000000	10.855128
2062.000000	10.907415
2063.000000	10.989327
2064.000000	11.049209
2065.000000	11.079389
2066.000000	11.127235
2067.000000	11.251806
2068.000000	11.320358
2069.000000	11.365020
2070.000000	11.408955
2071.000000	11.478533
2072.000000	11.549710
2073.000000	11.663157
2074.000000	11.729496
2075.000000	11.759136
2076.000000	11.824555
2077.000000	11.902219
2078.000000	11.932603
2079.000000	11.920290
2080.000000	11.916888
2081.000000	11.968568
2082.000000	11.977267
2083.000000	12.039023
2084.000000	12.129520
2085.000000	12.173465
2086.000000	12.238551
2087.000000	12.214663
2088.000000	12.203575
2089.000000	12.205481
2090.000000	12.225781
2091.000000	12.188080
2092.000000	12.182881
2093.000000	12.260896
2094.000000	12.259081
2095.000000	12.262949
2096.000000	12.342193
2097.000000	12.350585
2098.000000	12.313331
2099.000000	12.210236
2100.000000	12.211496
2101.000000	12.226210
2102.000000	12.192338
2103.000000	12.219779
2104.000000	12.276627
2105.000000	12.232357
2106.000000	12.258012
2107.000000	12.416923
2108.000000	12.472439
2109.000000	12.421135
2110.000000	12.424922
2111.000000	12.334840
2112.000000	12.363432
2113.000000	12.454406
2114.000000	12.393130
2115.000000	12.344986
2116.000000	12.312737
2117.000000	12.318281
2118.000000	12.440576
2119.000000	12.506190
2120.000000	12.403200
2121.000000	12.417139
2122.000000	12.420573
2123.000000	12.440820
2124.000000	12.369630
2125.000000	12.251539
2126.000000	12.305814
2127.000000	12.263129
2128.000000	12.192999
2129.000000	12.254150
2130.000000	12.244959
2131.000000	12.174466
2132.000000	12.114603
2133.000000	12.070133
2134.000000	11.958430
2135.000000	12.021412
2136.000000	11.875168
2137.000000	11.838266
2138.000000	11.875869
2139.000000	11.757619
2140.000000	11.811552
2141.000000	11.736434
2142.000000	11.645379
2143.000000	11.657211
2144.000000	11.656300
2145.000000	11.574890
2146.000000	11.327717
2147.000000	11.359349
2148.000000	11.231223
2149.000000	11.205020
2150.000000	11.181094
2151.000000	11.258354
2152.000000	11.078599
2153.000000	11.061656
2154.000000	10.962792
2155.000000	10.872775
2156.000000	10.931786
2157.000000	10.872430
2158.000000	10.771287
2159.000000	10.765783
2160.000000	10.700930
2161.000000	10.565416
2162.000000	10.665271
2163.000000	10.712493
2164.000000	10.519661
2165.000000	10.557154
2166.000000	10.506394
2167.000000	10.446651
2168.000000	10.409182
2169.000000	10.359528
2170.000000	10.473267
2171.000000	10.428788
2172.000000	10.266224
2173.000000	10.331408
2174.000000	10.368707
2175.000000	10.304217
2176.000000	10.267004
2177.000000	10.338240
2178.000000	10.177871
2179.000000	10.203948
2180.000000	10.347936
2181.000000	10.378879
2182.000000	10.107037
2183.000000	10.443176
2184.000000	10.330028
2185.000000	10.424270
2186.000000	10.384704
2187.000000	10.288856
2188.000000	10.477622
2189.000000	10.393268
2190.000000	10.370466
2191.000000	10.431829
2192.000000	10.581453
2193.000000	10.573183
2194.000000	10.853928
2195.000000	10.609154
2196.000000	10.693108
2197.000000	10.540376
2198.000000	10.585426
2199.000000	10.752771
2200.000000	10.811820
2201.000000	10.723692
2202.000000	10.822610
2203.000000	10.722423
2204.000000	10.885720
2205.000000	10.881809
2206.000000	10.861177
2207.000000	11.066287
2208.000000	11.057956
2209.000000	11.053184
2210.000000	11.120159
2211.000000	11.175933
2212.000000	11.227721
2213.000000	11.138225
2214.000000	11.367212
2215.000000	11.287449
2216.000000	11.235461
2217.000000	11.301297
2218.000000	11.259751
2219.000000	11.282826
2220.000000	11.352066
2221.000000	11.229998
2222.000000	11.343044
2223.000000	11.550245
2224.000000	11.591248
2225.000000	11.489487
2226.000000	11.504026
2227.000000	11.660796
2228.000000	11.492208
2229.000000	11.528455
2230.000000	11.546763
2231.000000	11.530343
2232.000000	11.553781
2233.000000	11.714087
2234.000000	11.683763
2235.000000	11.649805
2236.000000	11.470373
2237.000000	11.646054
2238.000000	11.609127
2239.000000	11.620513
2240.000000	11.639569
2241.000000	11.461891
2242.000000	11.507166
2243.000000	11.533868
2244.000000	11.382077
2245.000000	11.315603
2246.000000	11.177905
2247.000000	11.037734
2248.000000	10.986442
2249.000000	11.077448
2250.000000	10.977998
2251.000000	11.023882
2252.000000	10.783908
2253.000000	10.892233
2254.000000	10.789654
2255.000000	10.903289
2256.000000	10.587067
2257.000000	10.375396
2258.000000	10.459966
2259.000000	10.490596
2260.000000	10.246936
2261.000000	10.233723
2262.000000	10.128525
2263.000000	9.995872
2264.000000	9.981262
2265.000000	10.045015
2266.000000	10.041098
2267.000000	10.124912
2268.000000	10.078170
2269.000000	9.994901
2270.000000	9.826815
2271.000000	9.805756
2272.000000	9.762987
2273.000000	9.776625
2274.000000	9.796864
2275.000000	9.742290
2276.000000	9.900071
2277.000000	9.950982
2278.000000	9.887802
2279.000000	9.902826
2280.000000	10.017146
2281.000000	9.746407
2282.000000	9.731035
2283.000000	9.628900
2284.000000	9.626883
2285.000000	9.626826
2286.000000	9.505904
2287.000000	9.551471
2288.000000	9.490595
2289.000000	9.794179
2290.000000	9.769338
2291.000000	9.670074
2292.000000	9.492251
2293.000000	9.668266
2294.000000	9.821957
2295.000000	9.701906
2296.000000	9.502945
2297.000000	9.491079
2298.000000	9.642024
2299.000000	9.508570
2300.000000	9.510343
2301.000000	9.768598
2302.000000	9.929743
2303.000000	9.936642
2304.000000	9.877785
2305.000000	9.851575
2306.000000	9.720286
2307.000000	9.784866
2308.000000	9.822338
2309.000000	9.880375
2310.000000	9.874910
2311.000000	9.834152
2312.000000	9.887115
2313.000000	9.983566
2314.000000	9.992430
2315.000000	9.948340
2316.000000	9.898819
2317.000000	9.900535
2318.000000	9.891044
2319.000000	9.947355
2320.000000	10.076160
2321.000000	9.921109
2322.000000	10.004787
2323.000000	10.052800
2324.000000	10.141476
2325.000000	10.315550
2326.000000	10.195614
2327.000000	10.259768
2328.000000	10.322212
2329.000000	10.331590
2330.000000	10.388284
2331.000000	10.276334
2332.000000	10.267596
2333.000000	10.355932
2334.000000	10.309664
2335.000000	10.213577
2336.000000	10.354533
2337.000000	10.712802
2338.000000	10.802084
2339.000000	10.563240
2340.000000	10.526890
2341.000000	10.702157
2342.000000	10.691034
2343.000000	10.770103
2344.000000	10.695097
2345.000000	10.497840
2346.000000	10.625891
2347.000000	10.781202
2348.000000	10.836209
2349.000000	10.706377
2350.000000	10.609334
2351.000000	10.711470
2352.000000	10.734007
2353.000000	10.564898
2354.000000	10.604124
2355.000000	10.834313
2356.000000	11.149039
2357.000000	11.085555
2358.000000	11.111594
2359.000000	11.144997
2360.000000	11.195190
2361.000000	11.049401
2362.000000	11.209603
2363.000000	11.077268
2364.000000	10.971446
2365.000000	11.001461
2366.000000	10.980516
2367.000000	10.949540
2368.000000	11.001925
2369.000000	11.015051
2370.000000	11.087584
2371.000000	11.240275
2372.000000	11.280953
2373.000000	11.176903
2374.000000	11.021289
2375.000000	11.126801
2376.000000	11.095732
2377.000000	11.157018
2378.000000	11.319868
2379.000000	11.445747
2380.000000	11.668106
2381.000000	11.777730
2382.000000	11.639823
2383.000000	11.562013
2384.000000	11.419496
2385.000000	11.192124
2386.000000	11.474503
2387.000000	11.708606
2388.000000	11.540002
2389.000000	11.554899
2390.000000	11.523734
2391.000000	11.514160
2392.000000	11.520508
2393.000000	11.846921
2394.000000	11.684302
2395.000000	11.582520
2396.000000	11.672585
2397.000000	11.745856
2398.000000	11.709594
2399.000000	11.673306
2400.000000	11.726444
2401.000000	11.933224
2402.000000	11.919404
2403.000000	11.922852
2404.000000	11.824602
2405.000000	11.667208
2406.000000	11.912720
2407.000000	11.803175
2408.000000	11.954841
2409.000000	11.970187
2410.000000	11.770866
2411.000000	11.909587
2412.000000	12.110245
2413.000000	11.763120
2414.000000	11.684815
2415.000000	12.016011
2416.000000	12.118626
2417.000000	12.129727
2418.000000	11.694955
2419.000000	12.082168
2420.000000	12.256294
2421.000000	12.292515
2422.000000	12.119261
2423.000000	12.225422
2424.000000	12.243875
2425.000000	11.888493
2426.000000	12.100324
2427.000000	11.825051
2428.000000	11.856217
2429.000000	12.101133
2430.000000	11.863491
2431.000000	11.699378
2432.000000	11.937050
2433.000000	12.656082
2434.000000	11.604679
2435.000000	12.168258
2436.000000	12.283878
2437.000000	12.092503
2438.000000	12.335327
2439.000000	12.940882
2440.000000	12.337674
2441.000000	12.453225
2442.000000	12.664689
2443.000000	12.258453
2444.000000	12.719902
2445.000000	12.188441
2446.000000	12.036843
2447.000000	12.604332
2448.000000	12.556254
2449.000000	13.169273
2450.000000	13.055931
2451.000000	13.275978
2452.000000	12.181003
2453.000000	12.601700
2454.000000	12.566251
2455.000000	13.456967
2456.000000	14.123833
2457.000000	13.026765
2458.000000	13.198414
2459.000000	13.436549
2460.000000	13.058390
2461.000000	13.206912
2462.000000	13.739232
2463.000000	13.497816
2464.000000	13.751863
2465.000000	14.048070
2466.000000	13.896177
2467.000000	14.762205
2468.000000	14.097210
2469.000000	15.098830
2470.000000	14.623489
2471.000000	15.091710
2472.000000	15.364339
2473.000000	15.457296
2474.000000	15.868193
2475.000000	16.803503
2476.000000	16.834310
2477.000000	17.047415
2478.000000	17.042214
2479.000000	16.996504
2480.000000	16.781972
2481.000000	18.536269
2482.000000	18.135734
2483.000000	18.028892
2484.000000	17.754392
2485.000000	18.442658
2486.000000	19.189020
2487.000000	18.894937
2488.000000	18.454213
2489.000000	18.660582
2490.000000	19.720114
2491.000000	20.348605
2492.000000	20.392241
2493.000000	20.557714
2494.000000	21.016667
2495.000000	21.240370
2496.000000	21.175615
2497.000000	21.845649
2498.000000	22.653699
2499.000000	22.991055
2500.000000	23.633741
2501.000000	nan
2502.000000	nan
2503.000000	nan
2504.000000	nan
2505.000000	nan
2506.000000	nan
2507.000000	nan
2508.000000	nan
2509.000000	nan
2510.000000	nan
2511.000000	nan
2512.000000	nan
2513.000000	nan
2514.000000	nan
2515.000000	nan
2516.000000	nan
2517.000000	nan
2518.000000	nan
2519.000000	nan
2520.000000	nan
2521.000000	nan
2522.000000	nan
2523.000000	nan
2524.000000	nan
2525.000000	nan
2526.000000	nan
2527.000000	nan
2528.000000	nan
2529.000000	nan
2530.000000	nan
2531.000000	nan
2532.000000	nan
2533.000000	nan
2534.000000	nan
2535.000000	nan
2536.000000	nan
2537.000000	nan
2538.000000	nan
2539.000000	nan
2540.000000	nan
2541.000000	nan
2542.000000	nan
2543.000000	nan
2544.000000	nan
2545.000000	nan
2546.000000	nan
2547.000000	nan
2548.000000	nan
2549.000000	nan
2550.000000	nan
2551.000000	nan
2552.000000	nan
2553.000000	nan
2554.000000	nan
2555.000000	nan
2556.000000	nan
2557.000000	nan
2558.000000	nan
2559.000000	nan
2560.000000	nan
2561.000000	nan
2562.000000	nan
2563.000000	nan
2564.000000	nan
2565.000000	nan
2566.000000	nan
2567.000000	nan
2568.000000	nan
2569.000000	nan
2570.000000	nan
2571.000000	nan
2572.000000	nan
2573.000000	nan
2574.000000	nan
2575.000000	nan
2576.000000	nan
2577.000000	nan
2578.000000	nan
2579.000000	nan
2580.000000	nan
2581.000000	nan
2582.000000	nan
2583.000000	nan
2584.000000	nan
2585.000000	nan
2586.000000	nan
2587.000000	nan
2588.000000	nan
2589.000000	nan
2590.000000	nan
2591.000000	nan
2592.000000	nan
2593.000000	nan
2594.000000	nan
2595.000000	nan
2596.000000	nan
2597.000000	nan
2598.000000	nan
2599.000000	nan
2600.000000	nan
2601.000000	nan
2602.000000	nan
2603.000000	nan
2604.000000	nan
2605.000000	nan
2606.000000	nan
2607.000000	nan
2608.000000	nan
2609.000000	nan
2610.000000	nan
2611.000000	nan
2612.000000	nan
2613.000000	nan
2614.000000	nan
2615.000000	nan
2616.000000	nan
2617.000000	nan
2618.000000	nan
2619.000000	nan
2620.000000	nan
2621.000000	nan
2622.000000	nan
2623.000000	nan
2624.000000	nan
2625.000000	nan
2626.000000	nan
2627.000000	nan
2628.000000	nan
2629.000000	nan
2630.000000	nan
2631.000000	nan
2632.000000	nan
2633.000000	nan
2634.000000	nan
2635.000000	nan
2636.000000	nan
2637.000000	nan
2638.000000	nan
2639.000000	nan
2640.000000	nan
2641.000000	nan
2642.000000	nan
2643.000000	nan
2644.000000	nan
2645.000000	nan
2646.000000	nan
2647.000000	nan
2648.000000	nan
2649.000000	nan
2650.000000	nan
2651.000000	nan
2652.000000	nan
2653.000000	nan
2654.000000	nan
2655.000000	nan
2656.000000	nan
2657.000000	nan
2658.000000	nan
2659.000000	nan
2660.000000	nan
2661.000000	nan
2662.000000	nan
2663.000000	nan
2664.000000	nan
2665.000000	nan
2666.000000	nan
2667.000000	nan
2668.000000	nan
2669.000000	nan
2670.000000	nan
2671.000000	nan
2672.000000	nan
2673.000000	nan
2674.000000	nan
2675.000000	nan
2676.000000	nan
2677.000000	nan
2678.000000	nan
2679.000000	nan
2680.000000	nan
2681.000000	nan
2682.000000	nan
2683.000000	nan
2684.000000	nan
2685.000000	nan
2686.000000	nan
2687.000000	nan
2688.000000	nan
2689.000000	nan
2690.000000	nan
2691.000000	nan
2692.000000	nan
2693.000000	nan
2694.000000	nan
2695.000000	nan
2696.000000	nan
2697.000000	nan
2698.000000	nan
2699.000000	nan
2700.000000	nan
2701.000000	nan
2702.000000	nan
2703.000000	nan
2704.000000	nan
2705.000000	nan
2706.000000	nan
2707.000000	nan
2708.000000	nan
2709.000000	nan
2710.000000	nan
2711.000000	nan
2712.000000	nan
2713.000000	nan
2714.000000	nan
2715.000000	nan
2716.000000	nan
2717.000000	nan
2718.000000	nan
2719.000000	nan
2720.000000	nan
2721.000000	nan
2722.000000	nan
2723.000000	nan
2724.000000	nan
2725.000000	nan
2726.000000	nan
2727.000000	nan
2728.000000	nan
2729.000000	nan
2730.000000	nan
2731.000000	nan
2732.000000	nan
2733.000000	nan
2734.000000	nan
2735.000000	nan
2736.000000	nan
2737.000000	nan
2738.000000	nan
2739.000000	nan
2740.000000	nan
2741.000000	nan
2742.000000	nan
2743.000000	nan
2744.000000	nan
2745.000000	nan
2746.000000	nan
2747.000000	nan
2748.000000	nan
2749.000000	nan
2750.000000	nan
2751.000000	nan
2752.000000	nan
2753.000000	nan
2754.000000	nan
2755.000000	nan
2756.000000	nan
2757.000000	nan
2758.000000	nan
2759.000000	nan
2760.000000	nan
2761.000000	nan
2762.000000	nan
2763.000000	nan
2764.000000	nan
2765.000000	nan
2766.000000	nan
2767.000000	nan
2768.000000	nan
2769.000000	nan
2770.000000	nan
2771.000000	nan
2772.000000	nan
2773.000000	nan
2774.000000	nan
2775.000000	nan
2776.000000	nan
2777.000000	nan
2778.000000	nan
2779.000000	nan
2780.000000	nan
2781.000000	nan
2782.000000	nan
2783.000000	nan
2784.000000	nan
2785.000000	nan
2786.000000	nan
2787.000000	nan
2788.000000	nan
2789.000000	nan
2790.000000	nan
2791.000000	nan
2792.000000	nan
2793.000000	nan
2794.000000	nan
2795.000000	nan
2796.000000	nan
2797.000000	nan
2798.000000	nan
2799.000000	nan
2800.000000	nan
2801.000000	nan
2802.000000	nan
2803.000000	nan
2804.000000	nan
2805.000000	nan
2806.000000	nan
2807.000000	nan
2808.000000	nan
2809.000000	nan
2810.000000	nan
2811.000000	nan
2812.000000	nan
2813.000000	nan
2814.000000	nan
2815.000000	nan
2816.000000	nan
2817.000000	nan
2818.000000	nan
2819.000000	nan
2820.000000	nan
2821.000000	nan
2822.000000	nan
2823.000000	nan
2824.000000	nan
2825.000000	nan
2826.000000	nan
2827.000000	nan
2828.000000	nan
2829.000000	nan
2830.000000	nan
2831.000000	nan
2832.000000	nan
2833.000000	nan
2834.000000	nan
2835.000000	nan
2836.000000	nan
2837.000000	nan
2838.000000	nan
2839.000000	nan
2840.000000	nan
2841.000000	nan
2842.000000	nan
2843.000000	nan
2844.000000	nan
2845.000000	nan
2846.000000	nan
2847.000000	nan
2848.000000	nan
2849.000000	nan
2850.000000	nan
2851.000000	nan
2852.000000	nan
2853.000000	nan
2854.000000	nan
2855.000000	nan
2856.000000	nan
2857.000000	nan
2858.000000	nan
2859.000000	nan
2860.000000	nan
2861.000000	nan
2862.000000	nan
2863.000000	nan
2864.000000	nan
2865.000000	nan
2866.000000	nan
2867.000000	nan
2868.000000	nan
2869.000000	nan
2870.000000	nan
2871.000000	nan
2872.000000	nan
2873.000000	nan
2874.000000	nan
2875.000000	nan
2876.000000	nan
2877.000000	nan
2878.000000	nan
2879.000000	nan
2880.000000	nan
2881.000000	nan
2882.000000	nan
2883.000000	nan
2884.000000	nan
2885.000000	nan
2886.000000	nan
2887.000000	nan
2888.000000	nan
2889.000000	nan
2890.000000	nan
2891.000000	nan
2892.000000	nan
2893.000000	nan
2894.000000	nan
2895.000000	nan
2896.000000	nan
2897.000000	nan
2898.000000	nan
2899.000000	nan
2900.000000	nan
2901.000000	nan
2902.000000	nan
2903.000000	nan
2904.000000	nan
2905.000000	nan
2906.000000	nan
2907.000000	nan
2908.000000	nan
2909.000000	nan
2910.000000	nan
2911.000000	nan
2912.000000	nan
2913.000000	nan
2914.000000	nan
2915.000000	nan
2916.000000	nan
2917.000000	nan
2918.000000	nan
2919.000000	nan
2920.000000	nan
2921.000000	nan
2922.000000	nan
2923.000000	nan
2924.000000	nan
2925.000000	nan
2926.000000	nan
2927.000000	nan
2928.000000	nan
2929.000000	nan
2930.000000	nan
2931.000000	nan
2932.000000	nan
2933.000000	nan
2934.000000	nan
2935.000000	nan
2936.000000	nan
2937.000000	nan
2938.000000	nan
2939.000000	nan
2940.000000	nan
2941.000000	nan
2942.000000	nan
2943.000000	nan
2944.000000	nan
2945.000000	nan
2946.000000	nan
2947.000000	nan
2948.000000	nan
2949.000000	nan
2950.000000	nan
2951.000000	nan
2952.000000	nan
2953.000000	nan
2954.000000	nan
2955.000000	nan
2956.000000	nan
2957.000000	nan
2958.000000	nan
2959.000000	nan
2960.000000	nan
2961.000000	nan
2962.000000	nan
2963.000000	nan
2964.000000	nan
2965.000000	nan
2966.000000	nan
2967.000000	nan
2968.000000	nan
2969.000000	nan
2970.000000	nan
2971.000000	nan
2972.000000	nan
2973.000000	nan
2974.000000	nan
2975.000000	nan
2976.000000	nan
2977.000000	nan
2978.000000	nan
2979.000000	nan
2980.000000	nan
2981.000000	nan
2982.000000	nan
2983.000000	nan
2984.000000	nan
2985.000000	nan
2986.000000	nan
2987.000000	nan
2988.000000	nan
2989.000000	nan
2990.000000	nan
2991.000000	nan
2992.000000	nan
2993.000000	nan
2994.000000	nan
2995.000000	nan
2996.000000	nan
2997.000000	nan
2998.000000	nan
2999.000000	nan
3000.000000	nan
