PE UV       SUBTECH     SPECTRUM    ASCII       PEDS        4.00        
   -1
INBUCR0314-4.Sample.ASC
24/02/08
16:46:19.00
24/02/08
16:46:19.00
Vinicio Soto Monge
Estac. Pitilla, 700 m. 9 km S Santa Cecilia Guanacaste.  Pr. COSTA RICA 21 MAR -  21 APR 1989. GNP Blod Sur. 330200, 380200. INBIOCRI001036310. Sin élitro derecho
250,000000
1
Lambda 1050
1050L1511233
PerkinElmer UV WinLab 6.3.2.0749 / 2.02.05 Lambda 900 UV/VIS/NIR, Aug  7 2015 09:38:08

0
0
3350/servo 860,8/2
0
0
UV/VIS
1
1
1
DoubleDePol,CommonBeamDepol,RBeamAtt,SBeamAtt,60mm sphere, WB InGaAs Detector
0
0
0
0
Program
Program
3350/servo 860,8/2
3350/0,2 860,8/0,2
3350/0,2 860,8/0,2
0
15.00
 
 
 
0
 
860,8
319,2
860,8
Front
100
on
S:100 R:100
0
0
0
0
 
0
 
 
 
0
 
 
0
0
0
0
0
 
 
 
 
0
0


0
0
#HDR
-1
-1
#GR
nm
%R
1.0
0.0
2500,000000
-1,000000
2251
8
8,449500
0,592800
#DATA

250.000000	3.422068
251.000000	3.451416
252.000000	3.422298
253.000000	3.383657
254.000000	3.383617
255.000000	3.379150
256.000000	3.379633
257.000000	3.362222
258.000000	3.360613
259.000000	3.300574
260.000000	3.262953
261.000000	3.274605
262.000000	3.279929
263.000000	3.240176
264.000000	3.209725
265.000000	3.210154
266.000000	3.218483
267.000000	3.198924
268.000000	3.160539
269.000000	3.166346
270.000000	3.144910
271.000000	3.135207
272.000000	3.140784
273.000000	3.115968
274.000000	3.104981
275.000000	3.119745
276.000000	3.094753
277.000000	3.097397
278.000000	3.080848
279.000000	3.059105
280.000000	3.080020
281.000000	3.096866
282.000000	3.070607
283.000000	3.074877
284.000000	3.065662
285.000000	3.086928
286.000000	3.073770
287.000000	3.106953
288.000000	3.131643
289.000000	3.137508
290.000000	3.142734
291.000000	3.124771
292.000000	3.153274
293.000000	3.156245
294.000000	3.178937
295.000000	3.183275
296.000000	3.192717
297.000000	3.216037
298.000000	3.240597
299.000000	3.227222
300.000000	3.262400
301.000000	3.277938
302.000000	3.278801
303.000000	3.285662
304.000000	3.290804
305.000000	3.267010
306.000000	3.272211
307.000000	3.316240
308.000000	3.347181
309.000000	3.349063
310.000000	3.318887
311.000000	3.356731
312.000000	3.355350
313.000000	3.368960
314.000000	3.358043
315.000000	3.372582
316.000000	3.357147
317.000000	3.414760
318.000000	3.467250
319.000000	3.527904
320.000000	3.505703
321.000000	3.454952
322.000000	3.352310
323.000000	3.294871
324.000000	3.426810
325.000000	3.401251
326.000000	3.434318
327.000000	3.353266
328.000000	3.404912
329.000000	3.377010
330.000000	3.398415
331.000000	3.226901
332.000000	3.280909
333.000000	3.360896
334.000000	3.301698
335.000000	3.298643
336.000000	3.334560
337.000000	3.362754
338.000000	3.315723
339.000000	3.267101
340.000000	3.205985
341.000000	3.224100
342.000000	3.244772
343.000000	3.222152
344.000000	3.272431
345.000000	3.263532
346.000000	3.268112
347.000000	3.248130
348.000000	3.278788
349.000000	3.280374
350.000000	3.275338
351.000000	3.210367
352.000000	3.234401
353.000000	3.259512
354.000000	3.226675
355.000000	3.234295
356.000000	3.195735
357.000000	3.222802
358.000000	3.220557
359.000000	3.234764
360.000000	3.230629
361.000000	3.217114
362.000000	3.226804
363.000000	3.209883
364.000000	3.228274
365.000000	3.203889
366.000000	3.220397
367.000000	3.231791
368.000000	3.223613
369.000000	3.259800
370.000000	3.260994
371.000000	3.244015
372.000000	3.229505
373.000000	3.239299
374.000000	3.254476
375.000000	3.308159
376.000000	3.259306
377.000000	3.219747
378.000000	3.215820
379.000000	3.203167
380.000000	3.197795
381.000000	3.189813
382.000000	3.186297
383.000000	3.188523
384.000000	3.183580
385.000000	3.178020
386.000000	3.172145
387.000000	3.165432
388.000000	3.161813
389.000000	3.158224
390.000000	3.152730
391.000000	3.143245
392.000000	3.139710
393.000000	3.139029
394.000000	3.126430
395.000000	3.119610
396.000000	3.117043
397.000000	3.112769
398.000000	3.104991
399.000000	3.102501
400.000000	3.104715
401.000000	3.105900
402.000000	3.100139
403.000000	3.092302
404.000000	3.087921
405.000000	3.085379
406.000000	3.081026
407.000000	3.074081
408.000000	3.074325
409.000000	3.070062
410.000000	3.068618
411.000000	3.065566
412.000000	3.057983
413.000000	3.056364
414.000000	3.055571
415.000000	3.055141
416.000000	3.052950
417.000000	3.048939
418.000000	3.049093
419.000000	3.047330
420.000000	3.044174
421.000000	3.039542
422.000000	3.035171
423.000000	3.032852
424.000000	3.030665
425.000000	3.029570
426.000000	3.027763
427.000000	3.025573
428.000000	3.022522
429.000000	3.015114
430.000000	3.018137
431.000000	3.021634
432.000000	3.023721
433.000000	3.019506
434.000000	3.015840
435.000000	3.012253
436.000000	3.009144
437.000000	3.011075
438.000000	3.009712
439.000000	3.006575
440.000000	3.006271
441.000000	3.001383
442.000000	2.998613
443.000000	2.999748
444.000000	3.000211
445.000000	2.996436
446.000000	2.989629
447.000000	2.993868
448.000000	2.995753
449.000000	2.991928
450.000000	2.991863
451.000000	2.989465
452.000000	2.989193
453.000000	2.988141
454.000000	2.987329
455.000000	2.991623
456.000000	2.991095
457.000000	2.991064
458.000000	2.987641
459.000000	2.987541
460.000000	2.985881
461.000000	2.991033
462.000000	2.995202
463.000000	2.991770
464.000000	2.991507
465.000000	2.992845
466.000000	2.998241
467.000000	3.000166
468.000000	3.003953
469.000000	3.004743
470.000000	3.008772
471.000000	3.009213
472.000000	3.012459
473.000000	3.020302
474.000000	3.026444
475.000000	3.031734
476.000000	3.036061
477.000000	3.041775
478.000000	3.046528
479.000000	3.054562
480.000000	3.067631
481.000000	3.079310
482.000000	3.093952
483.000000	3.103279
484.000000	3.109714
485.000000	3.118731
486.000000	3.126686
487.000000	3.141673
488.000000	3.149685
489.000000	3.162846
490.000000	3.170677
491.000000	3.182335
492.000000	3.203763
493.000000	3.220771
494.000000	3.244648
495.000000	3.272300
496.000000	3.294837
497.000000	3.323840
498.000000	3.350775
499.000000	3.384703
500.000000	3.427487
501.000000	3.464540
502.000000	3.505621
503.000000	3.558748
504.000000	3.610243
505.000000	3.667910
506.000000	3.728849
507.000000	3.794147
508.000000	3.869530
509.000000	3.949992
510.000000	4.041411
511.000000	4.130139
512.000000	4.232895
513.000000	4.352015
514.000000	4.470317
515.000000	4.591700
516.000000	4.729534
517.000000	4.866809
518.000000	5.015268
519.000000	5.172097
520.000000	5.335952
521.000000	5.508850
522.000000	5.689500
523.000000	5.872595
524.000000	6.059098
525.000000	6.253318
526.000000	6.436150
527.000000	6.628792
528.000000	6.816421
529.000000	7.011940
530.000000	7.200128
531.000000	7.393604
532.000000	7.577825
533.000000	7.757112
534.000000	7.933876
535.000000	8.102271
536.000000	8.266763
537.000000	8.413004
538.000000	8.548881
539.000000	8.682083
540.000000	8.787079
541.000000	8.897666
542.000000	8.989653
543.000000	9.063274
544.000000	9.138569
545.000000	9.205096
546.000000	9.241190
547.000000	9.277286
548.000000	9.286886
549.000000	9.294346
550.000000	9.268349
551.000000	9.211919
552.000000	9.135162
553.000000	9.039819
554.000000	8.896074
555.000000	8.730303
556.000000	8.548123
557.000000	8.342883
558.000000	8.106160
559.000000	7.871633
560.000000	7.624566
561.000000	7.363576
562.000000	7.093620
563.000000	6.815297
564.000000	6.549254
565.000000	6.296824
566.000000	6.048115
567.000000	5.821610
568.000000	5.596853
569.000000	5.406001
570.000000	5.224073
571.000000	5.070570
572.000000	4.930444
573.000000	4.804945
574.000000	4.707652
575.000000	4.617802
576.000000	4.551933
577.000000	4.493541
578.000000	4.439272
579.000000	4.397477
580.000000	4.357020
581.000000	4.328678
582.000000	4.294542
583.000000	4.277545
584.000000	4.255030
585.000000	4.228597
586.000000	4.211721
587.000000	4.189416
588.000000	4.166289
589.000000	4.152489
590.000000	4.134253
591.000000	4.111623
592.000000	4.092269
593.000000	4.082476
594.000000	4.064838
595.000000	4.060564
596.000000	4.050125
597.000000	4.050352
598.000000	4.043772
599.000000	4.035906
600.000000	4.037328
601.000000	4.030977
602.000000	4.034554
603.000000	4.031666
604.000000	4.022970
605.000000	4.023094
606.000000	4.022487
607.000000	4.014343
608.000000	4.024799
609.000000	4.016843
610.000000	4.006725
611.000000	4.014327
612.000000	4.008386
613.000000	4.008279
614.000000	4.007386
615.000000	4.004400
616.000000	4.004471
617.000000	4.004179
618.000000	4.003192
619.000000	3.998035
620.000000	4.002053
621.000000	4.000156
622.000000	4.000727
623.000000	3.996362
624.000000	3.999544
625.000000	4.005256
626.000000	4.012523
627.000000	4.018716
628.000000	4.018416
629.000000	4.026096
630.000000	4.040692
631.000000	4.056721
632.000000	4.072554
633.000000	4.091258
634.000000	4.118715
635.000000	4.146369
636.000000	4.181268
637.000000	4.215846
638.000000	4.259692
639.000000	4.310132
640.000000	4.366603
641.000000	4.427007
642.000000	4.499769
643.000000	4.575518
644.000000	4.644961
645.000000	4.744700
646.000000	4.846460
647.000000	4.946930
648.000000	5.052843
649.000000	5.174643
650.000000	5.310718
651.000000	5.438664
652.000000	5.581204
653.000000	5.738864
654.000000	5.898943
655.000000	6.056808
656.000000	6.209962
657.000000	6.375372
658.000000	6.556197
659.000000	6.733690
660.000000	6.904363
661.000000	7.091144
662.000000	7.287690
663.000000	7.471598
664.000000	7.654562
665.000000	7.849783
666.000000	8.035310
667.000000	8.213695
668.000000	8.399756
669.000000	8.582417
670.000000	8.763016
671.000000	8.931712
672.000000	9.116303
673.000000	9.285376
674.000000	9.447427
675.000000	9.602505
676.000000	9.754076
677.000000	9.919998
678.000000	10.083891
679.000000	10.243722
680.000000	10.397742
681.000000	10.536990
682.000000	10.682988
683.000000	10.832780
684.000000	10.964681
685.000000	11.111599
686.000000	11.245315
687.000000	11.376376
688.000000	11.513694
689.000000	11.660681
690.000000	11.787530
691.000000	11.914748
692.000000	12.044173
693.000000	12.171011
694.000000	12.296662
695.000000	12.419165
696.000000	12.541095
697.000000	12.672879
698.000000	12.779866
699.000000	12.895663
700.000000	13.013091
701.000000	13.136830
702.000000	13.255774
703.000000	13.375153
704.000000	13.501240
705.000000	13.618145
706.000000	13.737492
707.000000	13.842496
708.000000	13.950464
709.000000	14.058320
710.000000	14.179726
711.000000	14.308018
712.000000	14.431871
713.000000	14.523669
714.000000	14.626889
715.000000	14.733946
716.000000	14.835310
717.000000	14.954280
718.000000	15.060562
719.000000	15.172895
720.000000	15.290782
721.000000	15.390881
722.000000	15.488222
723.000000	15.596254
724.000000	15.703734
725.000000	15.809972
726.000000	15.921511
727.000000	16.019518
728.000000	16.104850
729.000000	16.202387
730.000000	16.326235
731.000000	16.445938
732.000000	16.514825
733.000000	16.605051
734.000000	16.734535
735.000000	16.842110
736.000000	16.953701
737.000000	17.057698
738.000000	17.138708
739.000000	17.220852
740.000000	17.318160
741.000000	17.428421
742.000000	17.516387
743.000000	17.606447
744.000000	17.718960
745.000000	17.812763
746.000000	17.914108
747.000000	17.991484
748.000000	18.075774
749.000000	18.216204
750.000000	18.318926
751.000000	18.416273
752.000000	18.521894
753.000000	18.594108
754.000000	18.721064
755.000000	18.784957
756.000000	18.855083
757.000000	18.979550
758.000000	19.047250
759.000000	19.169421
760.000000	19.250540
761.000000	19.315302
762.000000	19.414984
763.000000	19.532389
764.000000	19.630721
765.000000	19.716144
766.000000	19.775579
767.000000	19.884615
768.000000	19.945955
769.000000	20.035619
770.000000	20.150328
771.000000	20.221774
772.000000	20.320334
773.000000	20.417361
774.000000	20.505971
775.000000	20.573788
776.000000	20.713468
777.000000	20.769226
778.000000	20.867474
779.000000	20.964984
780.000000	21.044099
781.000000	21.106424
782.000000	21.187323
783.000000	21.300579
784.000000	21.357700
785.000000	21.481997
786.000000	21.560549
787.000000	21.650846
788.000000	21.739115
789.000000	21.833561
790.000000	21.888653
791.000000	21.954195
792.000000	22.047048
793.000000	22.114685
794.000000	22.255605
795.000000	22.355166
796.000000	22.423454
797.000000	22.425822
798.000000	22.560781
799.000000	22.656889
800.000000	22.670282
801.000000	22.782243
802.000000	22.831764
803.000000	22.925836
804.000000	23.052641
805.000000	23.066940
806.000000	23.144694
807.000000	23.196690
808.000000	23.305981
809.000000	23.379124
810.000000	23.482533
811.000000	23.587800
812.000000	23.626583
813.000000	23.691998
814.000000	23.786010
815.000000	23.886898
816.000000	23.901455
817.000000	23.942353
818.000000	24.095558
819.000000	24.120648
820.000000	24.166826
821.000000	24.311432
822.000000	24.319364
823.000000	24.352576
824.000000	24.491715
825.000000	24.570656
826.000000	24.591582
827.000000	24.671463
828.000000	24.716342
829.000000	24.851906
830.000000	24.850051
831.000000	24.926592
832.000000	24.891969
833.000000	25.006308
834.000000	25.143046
835.000000	25.204495
836.000000	25.203121
837.000000	25.235675
838.000000	25.379198
839.000000	25.364587
840.000000	25.545697
841.000000	25.600946
842.000000	25.460902
843.000000	25.576929
844.000000	25.689154
845.000000	25.800230
846.000000	25.844350
847.000000	25.835806
848.000000	26.074915
849.000000	26.139469
850.000000	25.771565
851.000000	26.057218
852.000000	25.836388
853.000000	26.029452
854.000000	26.370290
855.000000	26.352744
856.000000	26.160021
857.000000	26.481650
858.000000	29.702779
859.000000	27.369218
860.000000	26.921435
861.000000	27.054042
862.000000	27.554850
863.000000	27.058636
864.000000	26.847026
865.000000	26.975701
866.000000	26.962736
867.000000	27.035919
868.000000	26.664432
869.000000	26.335091
870.000000	26.288254
871.000000	26.371445
872.000000	26.458317
873.000000	26.620158
874.000000	26.643224
875.000000	26.757334
876.000000	26.296052
877.000000	26.196939
878.000000	26.641246
879.000000	26.388326
880.000000	26.322100
881.000000	26.286337
882.000000	26.276966
883.000000	26.213266
884.000000	26.174601
885.000000	26.078028
886.000000	26.240513
887.000000	26.191716
888.000000	26.188817
889.000000	26.403871
890.000000	26.034292
891.000000	26.203115
892.000000	26.247310
893.000000	26.073976
894.000000	25.916720
895.000000	26.122426
896.000000	26.160922
897.000000	26.192260
898.000000	26.246670
899.000000	26.021271
900.000000	26.110598
901.000000	26.105738
902.000000	26.045150
903.000000	26.066873
904.000000	26.010441
905.000000	26.156558
906.000000	26.043800
907.000000	25.923100
908.000000	25.988186
909.000000	26.082591
910.000000	26.060767
911.000000	26.046004
912.000000	26.088559
913.000000	26.018644
914.000000	26.106790
915.000000	26.197002
916.000000	26.136832
917.000000	26.010975
918.000000	25.972486
919.000000	26.115573
920.000000	26.021717
921.000000	26.053333
922.000000	26.061726
923.000000	26.043423
924.000000	26.113301
925.000000	26.097350
926.000000	26.032809
927.000000	26.102881
928.000000	26.121044
929.000000	26.159133
930.000000	26.194466
931.000000	26.187761
932.000000	26.290063
933.000000	26.196921
934.000000	26.222954
935.000000	26.169733
936.000000	26.164150
937.000000	26.214494
938.000000	26.230031
939.000000	26.220051
940.000000	26.265306
941.000000	26.236106
942.000000	26.247946
943.000000	26.251927
944.000000	26.274050
945.000000	26.296011
946.000000	26.313215
947.000000	26.363138
948.000000	26.277238
949.000000	26.336182
950.000000	26.341061
951.000000	26.350768
952.000000	26.374657
953.000000	26.367101
954.000000	26.408459
955.000000	26.410746
956.000000	26.405066
957.000000	26.457690
958.000000	26.471430
959.000000	26.462992
960.000000	26.444952
961.000000	26.475105
962.000000	26.540194
963.000000	26.501306
964.000000	26.516581
965.000000	26.524680
966.000000	26.494454
967.000000	26.505374
968.000000	26.563618
969.000000	26.598603
970.000000	26.639491
971.000000	26.696539
972.000000	26.717194
973.000000	26.706482
974.000000	26.691780
975.000000	26.662570
976.000000	26.647781
977.000000	26.677830
978.000000	26.717681
979.000000	26.741688
980.000000	26.763425
981.000000	26.771642
982.000000	26.769794
983.000000	26.815021
984.000000	26.893484
985.000000	26.883587
986.000000	26.842845
987.000000	26.863074
988.000000	26.900756
989.000000	26.902046
990.000000	26.896563
991.000000	26.913456
992.000000	26.922565
993.000000	26.933481
994.000000	26.948340
995.000000	26.983521
996.000000	27.010847
997.000000	27.033181
998.000000	27.045649
999.000000	27.048741
1000.000000	27.072356
1001.000000	27.113991
1002.000000	27.129623
1003.000000	27.114975
1004.000000	27.115751
1005.000000	27.132548
1006.000000	27.154094
1007.000000	27.176066
1008.000000	27.202013
1009.000000	27.245490
1010.000000	27.250722
1011.000000	27.235912
1012.000000	27.241181
1013.000000	27.259037
1014.000000	27.295134
1015.000000	27.305207
1016.000000	27.293815
1017.000000	27.335172
1018.000000	27.371915
1019.000000	27.390370
1020.000000	27.425847
1021.000000	27.446783
1022.000000	27.455523
1023.000000	27.471270
1024.000000	27.483763
1025.000000	27.520343
1026.000000	27.554092
1027.000000	27.552823
1028.000000	27.569862
1029.000000	27.605001
1030.000000	27.627631
1031.000000	27.634736
1032.000000	27.657992
1033.000000	27.678572
1034.000000	27.680947
1035.000000	27.721886
1036.000000	27.738785
1037.000000	27.770596
1038.000000	27.788459
1039.000000	27.806031
1040.000000	27.806674
1041.000000	27.829654
1042.000000	27.859085
1043.000000	27.876155
1044.000000	27.909849
1045.000000	27.929748
1046.000000	27.956423
1047.000000	27.975748
1048.000000	27.986350
1049.000000	28.005700
1050.000000	28.020974
1051.000000	28.055829
1052.000000	28.089128
1053.000000	28.116469
1054.000000	28.143217
1055.000000	28.159891
1056.000000	28.172512
1057.000000	28.173234
1058.000000	28.194120
1059.000000	28.216379
1060.000000	28.242565
1061.000000	28.251958
1062.000000	28.273361
1063.000000	28.307862
1064.000000	28.329730
1065.000000	28.349132
1066.000000	28.386557
1067.000000	28.416144
1068.000000	28.447599
1069.000000	28.457551
1070.000000	28.488022
1071.000000	28.499370
1072.000000	28.515291
1073.000000	28.555974
1074.000000	28.571736
1075.000000	28.615368
1076.000000	28.624936
1077.000000	28.642538
1078.000000	28.668461
1079.000000	28.680866
1080.000000	28.697911
1081.000000	28.724665
1082.000000	28.752060
1083.000000	28.777336
1084.000000	28.803011
1085.000000	28.831715
1086.000000	28.849579
1087.000000	28.842469
1088.000000	28.866139
1089.000000	28.872321
1090.000000	28.881090
1091.000000	28.915345
1092.000000	28.960683
1093.000000	28.982422
1094.000000	28.995167
1095.000000	29.030221
1096.000000	29.040775
1097.000000	29.050942
1098.000000	29.066779
1099.000000	29.077276
1100.000000	29.114158
1101.000000	29.147080
1102.000000	29.153665
1103.000000	29.170130
1104.000000	29.188581
1105.000000	29.192720
1106.000000	29.213118
1107.000000	29.230652
1108.000000	29.276172
1109.000000	29.286322
1110.000000	29.299831
1111.000000	29.329799
1112.000000	29.371928
1113.000000	29.388827
1114.000000	29.395525
1115.000000	29.419009
1116.000000	29.437164
1117.000000	29.464066
1118.000000	29.470227
1119.000000	29.496258
1120.000000	29.488506
1121.000000	29.498671
1122.000000	29.518520
1123.000000	29.533512
1124.000000	29.545366
1125.000000	29.530539
1126.000000	29.539333
1127.000000	29.537654
1128.000000	29.555749
1129.000000	29.574680
1130.000000	29.543910
1131.000000	29.576130
1132.000000	29.605529
1133.000000	29.585120
1134.000000	29.553162
1135.000000	29.528380
1136.000000	29.530063
1137.000000	29.530969
1138.000000	29.516362
1139.000000	29.509216
1140.000000	29.503294
1141.000000	29.517950
1142.000000	29.520266
1143.000000	29.518980
1144.000000	29.505326
1145.000000	29.495485
1146.000000	29.492214
1147.000000	29.466562
1148.000000	29.510007
1149.000000	29.490636
1150.000000	29.476111
1151.000000	29.472081
1152.000000	29.455738
1153.000000	29.451168
1154.000000	29.430007
1155.000000	29.397716
1156.000000	29.392411
1157.000000	29.380535
1158.000000	29.365839
1159.000000	29.323632
1160.000000	29.322289
1161.000000	29.304328
1162.000000	29.273745
1163.000000	29.268998
1164.000000	29.231196
1165.000000	29.220402
1166.000000	29.181895
1167.000000	29.172008
1168.000000	29.151342
1169.000000	29.143008
1170.000000	29.122326
1171.000000	29.112996
1172.000000	29.087804
1173.000000	29.095759
1174.000000	29.097723
1175.000000	29.067398
1176.000000	29.056691
1177.000000	29.048113
1178.000000	29.057984
1179.000000	29.036505
1180.000000	29.037898
1181.000000	29.047035
1182.000000	29.046674
1183.000000	29.065178
1184.000000	29.067727
1185.000000	29.067460
1186.000000	29.087634
1187.000000	29.118878
1188.000000	29.152082
1189.000000	29.173630
1190.000000	29.208732
1191.000000	29.257626
1192.000000	29.274062
1193.000000	29.307007
1194.000000	29.346960
1195.000000	29.382983
1196.000000	29.420691
1197.000000	29.439190
1198.000000	29.480465
1199.000000	29.498104
1200.000000	29.539060
1201.000000	29.594676
1202.000000	29.634946
1203.000000	29.675935
1204.000000	29.706545
1205.000000	29.736416
1206.000000	29.767254
1207.000000	29.795434
1208.000000	29.826406
1209.000000	29.850784
1210.000000	29.876169
1211.000000	29.899310
1212.000000	29.926772
1213.000000	29.950825
1214.000000	29.987035
1215.000000	30.015096
1216.000000	30.051201
1217.000000	30.079516
1218.000000	30.106402
1219.000000	30.133046
1220.000000	30.158087
1221.000000	30.177483
1222.000000	30.198171
1223.000000	30.225676
1224.000000	30.238154
1225.000000	30.284835
1226.000000	30.327907
1227.000000	30.342938
1228.000000	30.363366
1229.000000	30.406245
1230.000000	30.438017
1231.000000	30.460162
1232.000000	30.490222
1233.000000	30.510699
1234.000000	30.526914
1235.000000	30.541336
1236.000000	30.580348
1237.000000	30.593366
1238.000000	30.608351
1239.000000	30.635362
1240.000000	30.662380
1241.000000	30.686121
1242.000000	30.723305
1243.000000	30.740631
1244.000000	30.762182
1245.000000	30.806558
1246.000000	30.827691
1247.000000	30.858065
1248.000000	30.872976
1249.000000	30.887208
1250.000000	30.913963
1251.000000	30.929053
1252.000000	30.943771
1253.000000	30.960574
1254.000000	30.980044
1255.000000	30.994848
1256.000000	31.023679
1257.000000	31.045557
1258.000000	31.064928
1259.000000	31.087127
1260.000000	31.098908
1261.000000	31.114687
1262.000000	31.124786
1263.000000	31.144841
1264.000000	31.150116
1265.000000	31.154263
1266.000000	31.175045
1267.000000	31.196575
1268.000000	31.206313
1269.000000	31.224018
1270.000000	31.242012
1271.000000	31.258664
1272.000000	31.281958
1273.000000	31.292853
1274.000000	31.298380
1275.000000	31.312187
1276.000000	31.338932
1277.000000	31.358721
1278.000000	31.370613
1279.000000	31.390337
1280.000000	31.412330
1281.000000	31.432292
1282.000000	31.464646
1283.000000	31.488848
1284.000000	31.503860
1285.000000	31.522075
1286.000000	31.541939
1287.000000	31.556032
1288.000000	31.568273
1289.000000	31.594081
1290.000000	31.613587
1291.000000	31.632346
1292.000000	31.647542
1293.000000	31.664296
1294.000000	31.676105
1295.000000	31.686786
1296.000000	31.694705
1297.000000	31.716414
1298.000000	31.727970
1299.000000	31.728974
1300.000000	31.743268
1301.000000	31.753306
1302.000000	31.752214
1303.000000	31.767244
1304.000000	31.776824
1305.000000	31.772816
1306.000000	31.779229
1307.000000	31.794303
1308.000000	31.797112
1309.000000	31.800259
1310.000000	31.805842
1311.000000	31.806734
1312.000000	31.810570
1313.000000	31.803048
1314.000000	31.799648
1315.000000	31.802594
1316.000000	31.803475
1317.000000	31.800836
1318.000000	31.797668
1319.000000	31.800753
1320.000000	31.788587
1321.000000	31.781618
1322.000000	31.766817
1323.000000	31.755063
1324.000000	31.743415
1325.000000	31.723820
1326.000000	31.710243
1327.000000	31.706593
1328.000000	31.685892
1329.000000	31.664908
1330.000000	31.630593
1331.000000	31.609097
1332.000000	31.585026
1333.000000	31.554810
1334.000000	31.529274
1335.000000	31.493019
1336.000000	31.444445
1337.000000	31.402016
1338.000000	31.369424
1339.000000	31.326187
1340.000000	31.278590
1341.000000	31.236610
1342.000000	31.197710
1343.000000	31.149460
1344.000000	31.106753
1345.000000	31.047268
1346.000000	31.001739
1347.000000	30.942293
1348.000000	30.894556
1349.000000	30.834836
1350.000000	30.777908
1351.000000	30.741667
1352.000000	30.725337
1353.000000	30.672603
1354.000000	30.595590
1355.000000	30.543793
1356.000000	30.518140
1357.000000	30.484430
1358.000000	30.489101
1359.000000	30.488907
1360.000000	30.419652
1361.000000	30.310917
1362.000000	30.292895
1363.000000	30.253380
1364.000000	30.205714
1365.000000	30.180351
1366.000000	30.149565
1367.000000	30.077139
1368.000000	30.001550
1369.000000	29.949656
1370.000000	29.859611
1371.000000	29.735597
1372.000000	29.651969
1373.000000	29.534804
1374.000000	29.413700
1375.000000	29.302092
1376.000000	29.213826
1377.000000	29.117583
1378.000000	29.051480
1379.000000	28.956396
1380.000000	28.857338
1381.000000	28.726274
1382.000000	28.604341
1383.000000	28.499175
1384.000000	28.436764
1385.000000	28.371182
1386.000000	28.287299
1387.000000	28.205764
1388.000000	28.098857
1389.000000	28.041966
1390.000000	28.003295
1391.000000	27.893112
1392.000000	27.811162
1393.000000	27.748387
1394.000000	27.669974
1395.000000	27.484388
1396.000000	27.374976
1397.000000	27.343321
1398.000000	27.298234
1399.000000	27.135443
1400.000000	26.916681
1401.000000	26.810372
1402.000000	26.747754
1403.000000	26.615089
1404.000000	26.464191
1405.000000	26.321958
1406.000000	26.188298
1407.000000	26.035656
1408.000000	25.906794
1409.000000	25.722197
1410.000000	25.600298
1411.000000	25.491376
1412.000000	25.373101
1413.000000	25.198945
1414.000000	25.023800
1415.000000	24.936365
1416.000000	24.847380
1417.000000	24.726900
1418.000000	24.582898
1419.000000	24.453089
1420.000000	24.347792
1421.000000	24.253760
1422.000000	24.139110
1423.000000	24.027359
1424.000000	23.944842
1425.000000	23.853853
1426.000000	23.763937
1427.000000	23.674170
1428.000000	23.590159
1429.000000	23.494170
1430.000000	23.436012
1431.000000	23.374079
1432.000000	23.298568
1433.000000	23.239314
1434.000000	23.167953
1435.000000	23.103814
1436.000000	23.031472
1437.000000	22.960549
1438.000000	22.922377
1439.000000	22.877107
1440.000000	22.814346
1441.000000	22.764952
1442.000000	22.732539
1443.000000	22.686891
1444.000000	22.624664
1445.000000	22.577024
1446.000000	22.513415
1447.000000	22.485654
1448.000000	22.436825
1449.000000	22.401722
1450.000000	22.349730
1451.000000	22.290461
1452.000000	22.266785
1453.000000	22.222684
1454.000000	22.150826
1455.000000	22.106634
1456.000000	22.068528
1457.000000	22.026237
1458.000000	21.992858
1459.000000	21.951074
1460.000000	21.901598
1461.000000	21.842711
1462.000000	21.803342
1463.000000	21.773523
1464.000000	21.731707
1465.000000	21.691441
1466.000000	21.658095
1467.000000	21.628981
1468.000000	21.589280
1469.000000	21.557600
1470.000000	21.514046
1471.000000	21.471427
1472.000000	21.441185
1473.000000	21.404851
1474.000000	21.361310
1475.000000	21.339789
1476.000000	21.321434
1477.000000	21.294559
1478.000000	21.278989
1479.000000	21.253747
1480.000000	21.204876
1481.000000	21.176061
1482.000000	21.154496
1483.000000	21.148705
1484.000000	21.127490
1485.000000	21.112876
1486.000000	21.091262
1487.000000	21.090194
1488.000000	21.073163
1489.000000	21.056201
1490.000000	21.038487
1491.000000	21.035281
1492.000000	21.036802
1493.000000	21.026295
1494.000000	21.027804
1495.000000	21.032670
1496.000000	21.041726
1497.000000	21.042997
1498.000000	21.054629
1499.000000	21.073147
1500.000000	21.089448
1501.000000	21.115316
1502.000000	21.122880
1503.000000	21.148451
1504.000000	21.183454
1505.000000	21.216746
1506.000000	21.255731
1507.000000	21.292084
1508.000000	21.321344
1509.000000	21.350539
1510.000000	21.380980
1511.000000	21.416519
1512.000000	21.458467
1513.000000	21.497478
1514.000000	21.530313
1515.000000	21.562987
1516.000000	21.597410
1517.000000	21.641343
1518.000000	21.664878
1519.000000	21.695154
1520.000000	21.741528
1521.000000	21.777816
1522.000000	21.820288
1523.000000	21.858365
1524.000000	21.883646
1525.000000	21.915323
1526.000000	21.937781
1527.000000	21.973266
1528.000000	22.004909
1529.000000	22.037988
1530.000000	22.074665
1531.000000	22.117819
1532.000000	22.149219
1533.000000	22.165876
1534.000000	22.198967
1535.000000	22.230927
1536.000000	22.263993
1537.000000	22.290454
1538.000000	22.305718
1539.000000	22.341192
1540.000000	22.372572
1541.000000	22.401661
1542.000000	22.431005
1543.000000	22.448285
1544.000000	22.476494
1545.000000	22.515348
1546.000000	22.556546
1547.000000	22.588268
1548.000000	22.629616
1549.000000	22.682165
1550.000000	22.725023
1551.000000	22.769507
1552.000000	22.801974
1553.000000	22.822815
1554.000000	22.855960
1555.000000	22.875431
1556.000000	22.889365
1557.000000	22.907743
1558.000000	22.930290
1559.000000	22.947631
1560.000000	22.968059
1561.000000	22.991732
1562.000000	22.998591
1563.000000	22.989468
1564.000000	22.985924
1565.000000	22.996496
1566.000000	22.991702
1567.000000	22.980259
1568.000000	22.989521
1569.000000	23.002921
1570.000000	22.992129
1571.000000	23.002039
1572.000000	23.012717
1573.000000	23.012138
1574.000000	23.016408
1575.000000	23.019862
1576.000000	23.012318
1577.000000	23.021151
1578.000000	23.056070
1579.000000	23.080774
1580.000000	23.082123
1581.000000	23.095251
1582.000000	23.117376
1583.000000	23.130488
1584.000000	23.154990
1585.000000	23.177451
1586.000000	23.199832
1587.000000	23.233889
1588.000000	23.259894
1589.000000	23.291077
1590.000000	23.314883
1591.000000	23.367160
1592.000000	23.389007
1593.000000	23.429972
1594.000000	23.445246
1595.000000	23.477785
1596.000000	23.528671
1597.000000	23.566050
1598.000000	23.588109
1599.000000	23.637613
1600.000000	23.674998
1601.000000	23.714515
1602.000000	23.767813
1603.000000	23.811311
1604.000000	23.852406
1605.000000	23.882245
1606.000000	23.906011
1607.000000	23.943008
1608.000000	23.978117
1609.000000	24.022302
1610.000000	24.080076
1611.000000	24.115559
1612.000000	24.120498
1613.000000	24.159008
1614.000000	24.175657
1615.000000	24.216139
1616.000000	24.227241
1617.000000	24.286157
1618.000000	24.311458
1619.000000	24.326049
1620.000000	24.349247
1621.000000	24.369989
1622.000000	24.397186
1623.000000	24.404329
1624.000000	24.436533
1625.000000	24.466989
1626.000000	24.489032
1627.000000	24.501237
1628.000000	24.532142
1629.000000	24.560657
1630.000000	24.585640
1631.000000	24.621914
1632.000000	24.637474
1633.000000	24.660249
1634.000000	24.662698
1635.000000	24.674088
1636.000000	24.712811
1637.000000	24.741125
1638.000000	24.755368
1639.000000	24.763513
1640.000000	24.775033
1641.000000	24.810708
1642.000000	24.795170
1643.000000	24.822550
1644.000000	24.847093
1645.000000	24.855884
1646.000000	24.835255
1647.000000	24.856758
1648.000000	24.851879
1649.000000	24.864769
1650.000000	24.858414
1651.000000	24.851458
1652.000000	24.830312
1653.000000	24.829796
1654.000000	24.799634
1655.000000	24.801826
1656.000000	24.770922
1657.000000	24.740348
1658.000000	24.716056
1659.000000	24.637604
1660.000000	24.602066
1661.000000	24.571184
1662.000000	24.515519
1663.000000	24.459631
1664.000000	24.372178
1665.000000	24.307494
1666.000000	24.244798
1667.000000	24.177221
1668.000000	24.078361
1669.000000	24.032969
1670.000000	23.906122
1671.000000	23.817179
1672.000000	23.729486
1673.000000	23.636964
1674.000000	23.527516
1675.000000	23.427549
1676.000000	23.313748
1677.000000	23.205881
1678.000000	23.106057
1679.000000	22.996053
1680.000000	22.886087
1681.000000	22.752157
1682.000000	22.651343
1683.000000	22.554747
1684.000000	22.456806
1685.000000	22.383088
1686.000000	22.340032
1687.000000	22.271627
1688.000000	22.193615
1689.000000	22.191181
1690.000000	22.163847
1691.000000	22.174114
1692.000000	22.144092
1693.000000	22.168206
1694.000000	22.177544
1695.000000	22.169561
1696.000000	22.139622
1697.000000	22.105350
1698.000000	22.137303
1699.000000	22.149648
1700.000000	22.155256
1701.000000	22.097476
1702.000000	22.098750
1703.000000	22.086985
1704.000000	22.052585
1705.000000	22.021198
1706.000000	21.971316
1707.000000	21.944978
1708.000000	21.859491
1709.000000	21.819490
1710.000000	21.775633
1711.000000	21.700415
1712.000000	21.644086
1713.000000	21.535285
1714.000000	21.445979
1715.000000	21.369202
1716.000000	21.291612
1717.000000	21.218736
1718.000000	21.114170
1719.000000	21.051013
1720.000000	20.994272
1721.000000	20.946975
1722.000000	20.883448
1723.000000	20.876348
1724.000000	20.859619
1725.000000	20.831586
1726.000000	20.819540
1727.000000	20.805292
1728.000000	20.820049
1729.000000	20.856821
1730.000000	20.866963
1731.000000	20.865737
1732.000000	20.877827
1733.000000	20.915563
1734.000000	20.967763
1735.000000	21.006011
1736.000000	21.030113
1737.000000	21.074602
1738.000000	21.117847
1739.000000	21.173014
1740.000000	21.191122
1741.000000	21.242519
1742.000000	21.301718
1743.000000	21.366037
1744.000000	21.392513
1745.000000	21.438861
1746.000000	21.477940
1747.000000	21.517982
1748.000000	21.547404
1749.000000	21.587799
1750.000000	21.607729
1751.000000	21.630526
1752.000000	21.660685
1753.000000	21.683706
1754.000000	21.710809
1755.000000	21.719787
1756.000000	21.738054
1757.000000	21.744752
1758.000000	21.776349
1759.000000	21.784275
1760.000000	21.801883
1761.000000	21.844900
1762.000000	21.834501
1763.000000	21.868572
1764.000000	21.898459
1765.000000	21.911402
1766.000000	21.932446
1767.000000	21.964407
1768.000000	22.002576
1769.000000	22.017087
1770.000000	22.024590
1771.000000	22.031711
1772.000000	22.085199
1773.000000	22.117769
1774.000000	22.151490
1775.000000	22.183255
1776.000000	22.182766
1777.000000	22.200980
1778.000000	22.214916
1779.000000	22.226108
1780.000000	22.246188
1781.000000	22.266314
1782.000000	22.264765
1783.000000	22.278147
1784.000000	22.298392
1785.000000	22.310317
1786.000000	22.334053
1787.000000	22.336731
1788.000000	22.351074
1789.000000	22.361360
1790.000000	22.373538
1791.000000	22.379265
1792.000000	22.382843
1793.000000	22.397684
1794.000000	22.413283
1795.000000	22.435011
1796.000000	22.433314
1797.000000	22.450369
1798.000000	22.479403
1799.000000	22.491912
1800.000000	22.519498
1801.000000	22.527342
1802.000000	22.550766
1803.000000	22.579537
1804.000000	22.581702
1805.000000	22.584143
1806.000000	22.595517
1807.000000	22.632040
1808.000000	22.687112
1809.000000	22.709738
1810.000000	22.698513
1811.000000	22.703395
1812.000000	22.739610
1813.000000	22.755635
1814.000000	22.770919
1815.000000	22.770029
1816.000000	22.777740
1817.000000	22.850565
1818.000000	22.896012
1819.000000	22.885210
1820.000000	22.808329
1821.000000	22.763381
1822.000000	22.813035
1823.000000	22.912393
1824.000000	22.979959
1825.000000	22.994825
1826.000000	22.986332
1827.000000	22.983993
1828.000000	22.993607
1829.000000	23.000952
1830.000000	22.988925
1831.000000	23.023197
1832.000000	23.118037
1833.000000	23.200489
1834.000000	23.217660
1835.000000	23.219375
1836.000000	23.245153
1837.000000	23.233725
1838.000000	23.249321
1839.000000	23.242756
1840.000000	23.205228
1841.000000	23.174731
1842.000000	23.201365
1843.000000	23.291295
1844.000000	23.421684
1845.000000	23.469478
1846.000000	23.412320
1847.000000	23.309304
1848.000000	23.199443
1849.000000	23.206753
1850.000000	23.290567
1851.000000	23.336024
1852.000000	23.327069
1853.000000	23.311579
1854.000000	23.269225
1855.000000	23.299088
1856.000000	23.323155
1857.000000	23.321119
1858.000000	23.247017
1859.000000	23.212883
1860.000000	23.131100
1861.000000	23.043471
1862.000000	23.065896
1863.000000	23.136356
1864.000000	23.095226
1865.000000	23.098475
1866.000000	23.088916
1867.000000	23.017862
1868.000000	22.920144
1869.000000	22.722957
1870.000000	22.562697
1871.000000	22.415902
1872.000000	22.251669
1873.000000	22.091887
1874.000000	21.939526
1875.000000	21.769869
1876.000000	21.607336
1877.000000	21.458375
1878.000000	21.317717
1879.000000	21.172444
1880.000000	21.049656
1881.000000	20.844423
1882.000000	20.636595
1883.000000	20.454371
1884.000000	20.200308
1885.000000	19.930569
1886.000000	19.728848
1887.000000	19.574610
1888.000000	19.358460
1889.000000	19.076448
1890.000000	18.809870
1891.000000	18.536350
1892.000000	18.277621
1893.000000	18.029871
1894.000000	17.748918
1895.000000	17.566318
1896.000000	17.351045
1897.000000	17.028484
1898.000000	16.744644
1899.000000	16.419445
1900.000000	16.172647
1901.000000	15.917215
1902.000000	15.615175
1903.000000	15.403806
1904.000000	15.183346
1905.000000	14.875882
1906.000000	14.669047
1907.000000	14.439366
1908.000000	14.297321
1909.000000	14.104528
1910.000000	13.915323
1911.000000	13.694279
1912.000000	13.511449
1913.000000	13.349359
1914.000000	13.143396
1915.000000	12.981208
1916.000000	12.885314
1917.000000	12.758041
1918.000000	12.647561
1919.000000	12.529547
1920.000000	12.382232
1921.000000	12.210868
1922.000000	12.163093
1923.000000	12.069880
1924.000000	12.049007
1925.000000	11.945041
1926.000000	11.887921
1927.000000	11.762718
1928.000000	11.741026
1929.000000	11.687336
1930.000000	11.695798
1931.000000	11.654990
1932.000000	11.628256
1933.000000	11.592323
1934.000000	11.562536
1935.000000	11.537815
1936.000000	11.486505
1937.000000	11.508914
1938.000000	11.494254
1939.000000	11.548798
1940.000000	11.589423
1941.000000	11.613742
1942.000000	11.595254
1943.000000	11.601468
1944.000000	11.582631
1945.000000	11.671026
1946.000000	11.632627
1947.000000	11.713727
1948.000000	11.799336
1949.000000	11.813085
1950.000000	11.856804
1951.000000	11.882015
1952.000000	11.895817
1953.000000	11.994159
1954.000000	12.020593
1955.000000	12.101325
1956.000000	12.105995
1957.000000	12.157395
1958.000000	12.233703
1959.000000	12.260214
1960.000000	12.257158
1961.000000	12.339698
1962.000000	12.394499
1963.000000	12.423212
1964.000000	12.541156
1965.000000	12.602892
1966.000000	12.601392
1967.000000	12.667987
1968.000000	12.724212
1969.000000	12.734026
1970.000000	12.800883
1971.000000	12.891173
1972.000000	12.915533
1973.000000	12.995389
1974.000000	13.015389
1975.000000	13.152748
1976.000000	13.202040
1977.000000	13.259628
1978.000000	13.255951
1979.000000	13.326413
1980.000000	13.355470
1981.000000	13.410314
1982.000000	13.480126
1983.000000	13.524339
1984.000000	13.548649
1985.000000	13.639786
1986.000000	13.675301
1987.000000	13.754752
1988.000000	13.821459
1989.000000	13.883957
1990.000000	13.871641
1991.000000	13.987121
1992.000000	14.017423
1993.000000	14.014654
1994.000000	14.127995
1995.000000	14.157147
1996.000000	14.151712
1997.000000	14.218154
1998.000000	14.252999
1999.000000	14.283041
2000.000000	14.350775
2001.000000	14.466008
2002.000000	14.434590
2003.000000	14.429407
2004.000000	14.443805
2005.000000	14.482081
2006.000000	14.502352
2007.000000	14.544604
2008.000000	14.522581
2009.000000	14.527817
2010.000000	14.508801
2011.000000	14.531181
2012.000000	14.508659
2013.000000	14.518657
2014.000000	14.485929
2015.000000	14.415731
2016.000000	14.431393
2017.000000	14.432537
2018.000000	14.434720
2019.000000	14.429049
2020.000000	14.425896
2021.000000	14.386392
2022.000000	14.352781
2023.000000	14.280788
2024.000000	14.221857
2025.000000	14.207186
2026.000000	14.196556
2027.000000	14.125127
2028.000000	14.099938
2029.000000	14.069587
2030.000000	13.899165
2031.000000	13.798183
2032.000000	13.795478
2033.000000	13.780795
2034.000000	13.727667
2035.000000	13.659842
2036.000000	13.648226
2037.000000	13.454370
2038.000000	13.320271
2039.000000	13.245041
2040.000000	13.183661
2041.000000	13.114269
2042.000000	13.073777
2043.000000	13.031436
2044.000000	12.935682
2045.000000	12.804853
2046.000000	12.837887
2047.000000	12.845738
2048.000000	12.723583
2049.000000	12.694664
2050.000000	12.683548
2051.000000	12.644577
2052.000000	12.595515
2053.000000	12.605649
2054.000000	12.624691
2055.000000	12.589046
2056.000000	12.555580
2057.000000	12.577511
2058.000000	12.665144
2059.000000	12.691267
2060.000000	12.720166
2061.000000	12.700566
2062.000000	12.697256
2063.000000	12.765438
2064.000000	12.870026
2065.000000	12.986105
2066.000000	13.090340
2067.000000	13.160929
2068.000000	13.217555
2069.000000	13.233920
2070.000000	13.271143
2071.000000	13.333248
2072.000000	13.388692
2073.000000	13.486471
2074.000000	13.530376
2075.000000	13.557548
2076.000000	13.622867
2077.000000	13.718220
2078.000000	13.754696
2079.000000	13.793034
2080.000000	13.864186
2081.000000	13.858853
2082.000000	13.866589
2083.000000	13.958169
2084.000000	13.947085
2085.000000	13.955015
2086.000000	14.034211
2087.000000	14.052768
2088.000000	14.103119
2089.000000	14.067600
2090.000000	14.015862
2091.000000	14.043943
2092.000000	14.202414
2093.000000	14.223629
2094.000000	14.192168
2095.000000	14.115995
2096.000000	14.137421
2097.000000	14.197424
2098.000000	14.209354
2099.000000	14.192931
2100.000000	14.242137
2101.000000	14.289925
2102.000000	14.223604
2103.000000	14.234212
2104.000000	14.281977
2105.000000	14.120947
2106.000000	14.032667
2107.000000	14.104790
2108.000000	14.254978
2109.000000	14.338532
2110.000000	14.300498
2111.000000	14.344339
2112.000000	14.367925
2113.000000	14.273731
2114.000000	14.186734
2115.000000	14.304237
2116.000000	14.318570
2117.000000	14.192608
2118.000000	14.199644
2119.000000	14.148752
2120.000000	14.283873
2121.000000	14.246121
2122.000000	14.303224
2123.000000	14.430178
2124.000000	14.159408
2125.000000	14.134397
2126.000000	14.096426
2127.000000	13.943043
2128.000000	14.037446
2129.000000	14.035630
2130.000000	13.964171
2131.000000	13.909038
2132.000000	13.977828
2133.000000	14.004035
2134.000000	13.883119
2135.000000	13.750384
2136.000000	13.692616
2137.000000	13.760424
2138.000000	13.559600
2139.000000	13.719389
2140.000000	13.562653
2141.000000	13.346026
2142.000000	13.369998
2143.000000	13.493944
2144.000000	13.415779
2145.000000	13.256377
2146.000000	13.296044
2147.000000	13.102695
2148.000000	12.895500
2149.000000	13.153472
2150.000000	12.999558
2151.000000	12.959682
2152.000000	12.729798
2153.000000	12.630995
2154.000000	12.585993
2155.000000	12.582305
2156.000000	12.448629
2157.000000	12.441771
2158.000000	12.480912
2159.000000	12.308710
2160.000000	12.333814
2161.000000	12.370816
2162.000000	12.298231
2163.000000	12.442632
2164.000000	12.475537
2165.000000	12.181411
2166.000000	12.077595
2167.000000	12.208938
2168.000000	12.257588
2169.000000	12.262954
2170.000000	12.138025
2171.000000	12.055021
2172.000000	12.068549
2173.000000	11.966668
2174.000000	12.180642
2175.000000	11.935193
2176.000000	11.939320
2177.000000	12.155935
2178.000000	12.094527
2179.000000	11.937422
2180.000000	12.088534
2181.000000	12.181114
2182.000000	12.101558
2183.000000	12.108096
2184.000000	12.012570
2185.000000	12.215608
2186.000000	12.041206
2187.000000	12.199930
2188.000000	11.898622
2189.000000	12.097402
2190.000000	12.091684
2191.000000	12.225757
2192.000000	12.074811
2193.000000	12.486123
2194.000000	12.335747
2195.000000	12.076687
2196.000000	12.063095
2197.000000	12.128155
2198.000000	12.174760
2199.000000	12.279725
2200.000000	12.330051
2201.000000	12.367397
2202.000000	12.224301
2203.000000	12.213769
2204.000000	12.207496
2205.000000	12.414322
2206.000000	12.403887
2207.000000	12.438232
2208.000000	12.597567
2209.000000	12.647572
2210.000000	12.486720
2211.000000	12.421532
2212.000000	12.518407
2213.000000	12.604792
2214.000000	12.613729
2215.000000	12.831901
2216.000000	12.779803
2217.000000	12.654245
2218.000000	12.780983
2219.000000	12.637447
2220.000000	12.783847
2221.000000	12.923374
2222.000000	13.004271
2223.000000	13.010604
2224.000000	13.140249
2225.000000	13.109544
2226.000000	12.911992
2227.000000	12.979863
2228.000000	12.940552
2229.000000	12.946819
2230.000000	13.092599
2231.000000	13.065354
2232.000000	13.223077
2233.000000	13.288537
2234.000000	13.107796
2235.000000	13.262215
2236.000000	13.121566
2237.000000	13.032857
2238.000000	12.987219
2239.000000	12.996146
2240.000000	12.912275
2241.000000	12.832179
2242.000000	13.153546
2243.000000	12.866511
2244.000000	12.797483
2245.000000	12.563757
2246.000000	12.723932
2247.000000	12.744750
2248.000000	12.589516
2249.000000	12.411545
2250.000000	12.560651
2251.000000	12.677889
2252.000000	12.517846
2253.000000	12.413957
2254.000000	12.337902
2255.000000	12.367099
2256.000000	12.087412
2257.000000	12.210402
2258.000000	12.008956
2259.000000	11.963951
2260.000000	11.904268
2261.000000	11.815998
2262.000000	11.743645
2263.000000	11.819372
2264.000000	11.892637
2265.000000	11.642373
2266.000000	11.516466
2267.000000	11.588599
2268.000000	11.739412
2269.000000	11.743080
2270.000000	11.729583
2271.000000	11.408957
2272.000000	11.564494
2273.000000	11.612563
2274.000000	11.548369
2275.000000	11.579013
2276.000000	11.591683
2277.000000	11.381838
2278.000000	11.363051
2279.000000	11.279180
2280.000000	11.225525
2281.000000	11.395479
2282.000000	11.524503
2283.000000	11.559247
2284.000000	11.541865
2285.000000	11.588145
2286.000000	11.622917
2287.000000	11.437449
2288.000000	11.376653
2289.000000	11.382231
2290.000000	11.276205
2291.000000	11.259469
2292.000000	11.153913
2293.000000	11.189230
2294.000000	11.537667
2295.000000	11.336475
2296.000000	11.342427
2297.000000	11.298260
2298.000000	11.424313
2299.000000	11.577172
2300.000000	11.614490
2301.000000	11.572814
2302.000000	11.578261
2303.000000	11.501457
2304.000000	11.527791
2305.000000	11.701533
2306.000000	11.409546
2307.000000	11.325225
2308.000000	11.425410
2309.000000	11.539924
2310.000000	11.712262
2311.000000	11.895284
2312.000000	11.792204
2313.000000	11.701225
2314.000000	11.746943
2315.000000	11.746407
2316.000000	11.623196
2317.000000	11.631441
2318.000000	11.892257
2319.000000	11.872092
2320.000000	11.703457
2321.000000	11.795776
2322.000000	11.920172
2323.000000	11.841366
2324.000000	11.931946
2325.000000	12.282029
2326.000000	12.170310
2327.000000	11.920094
2328.000000	11.927009
2329.000000	11.974695
2330.000000	12.024448
2331.000000	12.136918
2332.000000	12.010684
2333.000000	12.097263
2334.000000	12.188727
2335.000000	12.102673
2336.000000	12.205825
2337.000000	12.582980
2338.000000	12.729639
2339.000000	12.366454
2340.000000	12.262098
2341.000000	12.283031
2342.000000	12.354839
2343.000000	12.617506
2344.000000	12.421086
2345.000000	12.386219
2346.000000	12.487289
2347.000000	12.549602
2348.000000	12.632441
2349.000000	12.444980
2350.000000	12.609712
2351.000000	13.042430
2352.000000	12.970072
2353.000000	12.793352
2354.000000	12.732662
2355.000000	12.946793
2356.000000	12.903796
2357.000000	12.957915
2358.000000	12.894174
2359.000000	12.817577
2360.000000	12.934833
2361.000000	12.693509
2362.000000	12.977659
2363.000000	13.259331
2364.000000	13.203808
2365.000000	13.078208
2366.000000	13.214444
2367.000000	13.085768
2368.000000	13.251390
2369.000000	13.206306
2370.000000	13.084923
2371.000000	13.245178
2372.000000	12.983701
2373.000000	12.859283
2374.000000	13.090885
2375.000000	13.228693
2376.000000	13.502457
2377.000000	13.375825
2378.000000	13.239292
2379.000000	13.045697
2380.000000	13.499081
2381.000000	13.650170
2382.000000	13.442851
2383.000000	13.075165
2384.000000	13.368281
2385.000000	13.528002
2386.000000	13.298950
2387.000000	13.563873
2388.000000	13.879478
2389.000000	13.501900
2390.000000	13.537950
2391.000000	13.756686
2392.000000	13.832243
2393.000000	13.718406
2394.000000	13.972225
2395.000000	13.602237
2396.000000	13.741144
2397.000000	13.805573
2398.000000	13.452101
2399.000000	13.600272
2400.000000	13.854260
2401.000000	13.615615
2402.000000	13.474206
2403.000000	13.761136
2404.000000	13.814401
2405.000000	13.466627
2406.000000	14.069543
2407.000000	13.862195
2408.000000	13.782791
2409.000000	14.338852
2410.000000	13.981895
2411.000000	14.041819
2412.000000	13.936190
2413.000000	13.550916
2414.000000	14.158484
2415.000000	14.127332
2416.000000	13.755951
2417.000000	13.690460
2418.000000	14.162394
2419.000000	14.224759
2420.000000	14.036405
2421.000000	13.385395
2422.000000	13.918539
2423.000000	14.036605
2424.000000	14.321867
2425.000000	13.993100
2426.000000	14.070541
2427.000000	14.537648
2428.000000	14.790622
2429.000000	14.319396
2430.000000	14.066175
2431.000000	14.161224
2432.000000	12.999513
2433.000000	13.366715
2434.000000	13.553902
2435.000000	13.436549
2436.000000	13.641688
2437.000000	13.959335
2438.000000	14.068603
2439.000000	13.501769
2440.000000	13.608774
2441.000000	15.117890
2442.000000	14.303238
2443.000000	14.043632
2444.000000	13.705117
2445.000000	14.157204
2446.000000	14.380394
2447.000000	14.177659
2448.000000	14.543868
2449.000000	15.167190
2450.000000	14.623948
2451.000000	14.229926
2452.000000	14.996873
2453.000000	15.087993
2454.000000	14.592034
2455.000000	15.139110
2456.000000	15.007696
2457.000000	15.339330
2458.000000	14.990087
2459.000000	16.197558
2460.000000	16.274277
2461.000000	15.697986
2462.000000	15.972123
2463.000000	16.431741
2464.000000	16.009027
2465.000000	16.113174
2466.000000	17.415153
2467.000000	17.493127
2468.000000	17.144977
2469.000000	17.201234
2470.000000	17.615440
2471.000000	17.770874
2472.000000	17.786785
2473.000000	18.452590
2474.000000	18.339131
2475.000000	17.517208
2476.000000	19.339011
2477.000000	18.366939
2478.000000	18.815724
2479.000000	19.800314
2480.000000	20.295652
2481.000000	19.979063
2482.000000	20.370457
2483.000000	20.888481
2484.000000	19.063782
2485.000000	20.646344
2486.000000	21.183501
2487.000000	21.671451
2488.000000	22.801536
2489.000000	22.062424
2490.000000	22.932683
2491.000000	24.249451
2492.000000	25.738097
2493.000000	23.119571
2494.000000	24.007092
2495.000000	24.518483
2496.000000	25.188274
2497.000000	23.334234
2498.000000	25.838989
2499.000000	26.453692
2500.000000	26.129810
2501.000000	nan
2502.000000	nan
2503.000000	nan
2504.000000	nan
2505.000000	nan
2506.000000	nan
2507.000000	nan
2508.000000	nan
2509.000000	nan
2510.000000	nan
2511.000000	nan
2512.000000	nan
2513.000000	nan
2514.000000	nan
2515.000000	nan
2516.000000	nan
2517.000000	nan
2518.000000	nan
2519.000000	nan
2520.000000	nan
2521.000000	nan
2522.000000	nan
2523.000000	nan
2524.000000	nan
2525.000000	nan
2526.000000	nan
2527.000000	nan
2528.000000	nan
2529.000000	nan
2530.000000	nan
2531.000000	nan
2532.000000	nan
2533.000000	nan
2534.000000	nan
2535.000000	nan
2536.000000	nan
2537.000000	nan
2538.000000	nan
2539.000000	nan
2540.000000	nan
2541.000000	nan
2542.000000	nan
2543.000000	nan
2544.000000	nan
2545.000000	nan
2546.000000	nan
2547.000000	nan
2548.000000	nan
2549.000000	nan
2550.000000	nan
2551.000000	nan
2552.000000	nan
2553.000000	nan
2554.000000	nan
2555.000000	nan
2556.000000	nan
2557.000000	nan
2558.000000	nan
2559.000000	nan
2560.000000	nan
2561.000000	nan
2562.000000	nan
2563.000000	nan
2564.000000	nan
2565.000000	nan
2566.000000	nan
2567.000000	nan
2568.000000	nan
2569.000000	nan
2570.000000	nan
2571.000000	nan
2572.000000	nan
2573.000000	nan
2574.000000	nan
2575.000000	nan
2576.000000	nan
2577.000000	nan
2578.000000	nan
2579.000000	nan
2580.000000	nan
2581.000000	nan
2582.000000	nan
2583.000000	nan
2584.000000	nan
2585.000000	nan
2586.000000	nan
2587.000000	nan
2588.000000	nan
2589.000000	nan
2590.000000	nan
2591.000000	nan
2592.000000	nan
2593.000000	nan
2594.000000	nan
2595.000000	nan
2596.000000	nan
2597.000000	nan
2598.000000	nan
2599.000000	nan
2600.000000	nan
2601.000000	nan
2602.000000	nan
2603.000000	nan
2604.000000	nan
2605.000000	nan
2606.000000	nan
2607.000000	nan
2608.000000	nan
2609.000000	nan
2610.000000	nan
2611.000000	nan
2612.000000	nan
2613.000000	nan
2614.000000	nan
2615.000000	nan
2616.000000	nan
2617.000000	nan
2618.000000	nan
2619.000000	nan
2620.000000	nan
2621.000000	nan
2622.000000	nan
2623.000000	nan
2624.000000	nan
2625.000000	nan
2626.000000	nan
2627.000000	nan
2628.000000	nan
2629.000000	nan
2630.000000	nan
2631.000000	nan
2632.000000	nan
2633.000000	nan
2634.000000	nan
2635.000000	nan
2636.000000	nan
2637.000000	nan
2638.000000	nan
2639.000000	nan
2640.000000	nan
2641.000000	nan
2642.000000	nan
2643.000000	nan
2644.000000	nan
2645.000000	nan
2646.000000	nan
2647.000000	nan
2648.000000	nan
2649.000000	nan
2650.000000	nan
2651.000000	nan
2652.000000	nan
2653.000000	nan
2654.000000	nan
2655.000000	nan
2656.000000	nan
2657.000000	nan
2658.000000	nan
2659.000000	nan
2660.000000	nan
2661.000000	nan
2662.000000	nan
2663.000000	nan
2664.000000	nan
2665.000000	nan
2666.000000	nan
2667.000000	nan
2668.000000	nan
2669.000000	nan
2670.000000	nan
2671.000000	nan
2672.000000	nan
2673.000000	nan
2674.000000	nan
2675.000000	nan
2676.000000	nan
2677.000000	nan
2678.000000	nan
2679.000000	nan
2680.000000	nan
2681.000000	nan
2682.000000	nan
2683.000000	nan
2684.000000	nan
2685.000000	nan
2686.000000	nan
2687.000000	nan
2688.000000	nan
2689.000000	nan
2690.000000	nan
2691.000000	nan
2692.000000	nan
2693.000000	nan
2694.000000	nan
2695.000000	nan
2696.000000	nan
2697.000000	nan
2698.000000	nan
2699.000000	nan
2700.000000	nan
2701.000000	nan
2702.000000	nan
2703.000000	nan
2704.000000	nan
2705.000000	nan
2706.000000	nan
2707.000000	nan
2708.000000	nan
2709.000000	nan
2710.000000	nan
2711.000000	nan
2712.000000	nan
2713.000000	nan
2714.000000	nan
2715.000000	nan
2716.000000	nan
2717.000000	nan
2718.000000	nan
2719.000000	nan
2720.000000	nan
2721.000000	nan
2722.000000	nan
2723.000000	nan
2724.000000	nan
2725.000000	nan
2726.000000	nan
2727.000000	nan
2728.000000	nan
2729.000000	nan
2730.000000	nan
2731.000000	nan
2732.000000	nan
2733.000000	nan
2734.000000	nan
2735.000000	nan
2736.000000	nan
2737.000000	nan
2738.000000	nan
2739.000000	nan
2740.000000	nan
2741.000000	nan
2742.000000	nan
2743.000000	nan
2744.000000	nan
2745.000000	nan
2746.000000	nan
2747.000000	nan
2748.000000	nan
2749.000000	nan
2750.000000	nan
2751.000000	nan
2752.000000	nan
2753.000000	nan
2754.000000	nan
2755.000000	nan
2756.000000	nan
2757.000000	nan
2758.000000	nan
2759.000000	nan
2760.000000	nan
2761.000000	nan
2762.000000	nan
2763.000000	nan
2764.000000	nan
2765.000000	nan
2766.000000	nan
2767.000000	nan
2768.000000	nan
2769.000000	nan
2770.000000	nan
2771.000000	nan
2772.000000	nan
2773.000000	nan
2774.000000	nan
2775.000000	nan
2776.000000	nan
2777.000000	nan
2778.000000	nan
2779.000000	nan
2780.000000	nan
2781.000000	nan
2782.000000	nan
2783.000000	nan
2784.000000	nan
2785.000000	nan
2786.000000	nan
2787.000000	nan
2788.000000	nan
2789.000000	nan
2790.000000	nan
2791.000000	nan
2792.000000	nan
2793.000000	nan
2794.000000	nan
2795.000000	nan
2796.000000	nan
2797.000000	nan
2798.000000	nan
2799.000000	nan
2800.000000	nan
2801.000000	nan
2802.000000	nan
2803.000000	nan
2804.000000	nan
2805.000000	nan
2806.000000	nan
2807.000000	nan
2808.000000	nan
2809.000000	nan
2810.000000	nan
2811.000000	nan
2812.000000	nan
2813.000000	nan
2814.000000	nan
2815.000000	nan
2816.000000	nan
2817.000000	nan
2818.000000	nan
2819.000000	nan
2820.000000	nan
2821.000000	nan
2822.000000	nan
2823.000000	nan
2824.000000	nan
2825.000000	nan
2826.000000	nan
2827.000000	nan
2828.000000	nan
2829.000000	nan
2830.000000	nan
2831.000000	nan
2832.000000	nan
2833.000000	nan
2834.000000	nan
2835.000000	nan
2836.000000	nan
2837.000000	nan
2838.000000	nan
2839.000000	nan
2840.000000	nan
2841.000000	nan
2842.000000	nan
2843.000000	nan
2844.000000	nan
2845.000000	nan
2846.000000	nan
2847.000000	nan
2848.000000	nan
2849.000000	nan
2850.000000	nan
2851.000000	nan
2852.000000	nan
2853.000000	nan
2854.000000	nan
2855.000000	nan
2856.000000	nan
2857.000000	nan
2858.000000	nan
2859.000000	nan
2860.000000	nan
2861.000000	nan
2862.000000	nan
2863.000000	nan
2864.000000	nan
2865.000000	nan
2866.000000	nan
2867.000000	nan
2868.000000	nan
2869.000000	nan
2870.000000	nan
2871.000000	nan
2872.000000	nan
2873.000000	nan
2874.000000	nan
2875.000000	nan
2876.000000	nan
2877.000000	nan
2878.000000	nan
2879.000000	nan
2880.000000	nan
2881.000000	nan
2882.000000	nan
2883.000000	nan
2884.000000	nan
2885.000000	nan
2886.000000	nan
2887.000000	nan
2888.000000	nan
2889.000000	nan
2890.000000	nan
2891.000000	nan
2892.000000	nan
2893.000000	nan
2894.000000	nan
2895.000000	nan
2896.000000	nan
2897.000000	nan
2898.000000	nan
2899.000000	nan
2900.000000	nan
2901.000000	nan
2902.000000	nan
2903.000000	nan
2904.000000	nan
2905.000000	nan
2906.000000	nan
2907.000000	nan
2908.000000	nan
2909.000000	nan
2910.000000	nan
2911.000000	nan
2912.000000	nan
2913.000000	nan
2914.000000	nan
2915.000000	nan
2916.000000	nan
2917.000000	nan
2918.000000	nan
2919.000000	nan
2920.000000	nan
2921.000000	nan
2922.000000	nan
2923.000000	nan
2924.000000	nan
2925.000000	nan
2926.000000	nan
2927.000000	nan
2928.000000	nan
2929.000000	nan
2930.000000	nan
2931.000000	nan
2932.000000	nan
2933.000000	nan
2934.000000	nan
2935.000000	nan
2936.000000	nan
2937.000000	nan
2938.000000	nan
2939.000000	nan
2940.000000	nan
2941.000000	nan
2942.000000	nan
2943.000000	nan
2944.000000	nan
2945.000000	nan
2946.000000	nan
2947.000000	nan
2948.000000	nan
2949.000000	nan
2950.000000	nan
2951.000000	nan
2952.000000	nan
2953.000000	nan
2954.000000	nan
2955.000000	nan
2956.000000	nan
2957.000000	nan
2958.000000	nan
2959.000000	nan
2960.000000	nan
2961.000000	nan
2962.000000	nan
2963.000000	nan
2964.000000	nan
2965.000000	nan
2966.000000	nan
2967.000000	nan
2968.000000	nan
2969.000000	nan
2970.000000	nan
2971.000000	nan
2972.000000	nan
2973.000000	nan
2974.000000	nan
2975.000000	nan
2976.000000	nan
2977.000000	nan
2978.000000	nan
2979.000000	nan
2980.000000	nan
2981.000000	nan
2982.000000	nan
2983.000000	nan
2984.000000	nan
2985.000000	nan
2986.000000	nan
2987.000000	nan
2988.000000	nan
2989.000000	nan
2990.000000	nan
2991.000000	nan
2992.000000	nan
2993.000000	nan
2994.000000	nan
2995.000000	nan
2996.000000	nan
2997.000000	nan
2998.000000	nan
2999.000000	nan
3000.000000	nan
