PE UV       SUBTECH     SPECTRUM    ASCII       PEDS        4.00        
   -1
INBUCR0235-4.Sample.ASC
24/02/08
15:15:41.00
24/02/08
15:15:41.00
Vinicio Soto Monge
C. boucardi. Det A. Solís. COSTA RICA. Prov Limón. PI. La Amistad. Caribe. Camp 3: Fila Bugu, orilla campamento. 1500-1600m 25-26 FEB 2007 B. Gamboa M. Moraga Tp. Luz L_S_375729_551282 #90732. INB0004065423 
250,000000
1
Lambda 1050
1050L1511233
PerkinElmer UV WinLab 6.3.2.0749 / 2.02.05 Lambda 900 UV/VIS/NIR, Aug  7 2015 09:38:08

0
0
3350/servo 860,8/2
0
0
UV/VIS
1
1
1
DoubleDePol,CommonBeamDepol,RBeamAtt,SBeamAtt,60mm sphere, WB InGaAs Detector
0
0
0
0
Program
Program
3350/servo 860,8/2
3350/0,2 860,8/0,2
3350/0,2 860,8/0,2
0
15.00
 
 
 
0
 
860,8
319,2
860,8
Front
100
on
S:100 R:100
0
0
0
0
 
0
 
 
 
0
 
 
0
0
0
0
0
 
 
 
 
0
0


0
0
#HDR
-1
-1
#GR
nm
%R
1.0
0.0
2500,000000
-1,000000
2251
8
8,716100
0,646100
#DATA

250.000000	3.089424
251.000000	3.086377
252.000000	3.090213
253.000000	3.081976
254.000000	3.073591
255.000000	3.061353
256.000000	3.073472
257.000000	3.033761
258.000000	3.026491
259.000000	3.021786
260.000000	3.007800
261.000000	2.995563
262.000000	2.987038
263.000000	2.992117
264.000000	2.969468
265.000000	2.935363
266.000000	2.943295
267.000000	2.940772
268.000000	2.893208
269.000000	2.915004
270.000000	2.894140
271.000000	2.879483
272.000000	2.877400
273.000000	2.869262
274.000000	2.871444
275.000000	2.882646
276.000000	2.857655
277.000000	2.845885
278.000000	2.867710
279.000000	2.868031
280.000000	2.855213
281.000000	2.850064
282.000000	2.820485
283.000000	2.848048
284.000000	2.843315
285.000000	2.836162
286.000000	2.849787
287.000000	2.825299
288.000000	2.827987
289.000000	2.839196
290.000000	2.807221
291.000000	2.805513
292.000000	2.807486
293.000000	2.834228
294.000000	2.796262
295.000000	2.795833
296.000000	2.789429
297.000000	2.772672
298.000000	2.803431
299.000000	2.781659
300.000000	2.809660
301.000000	2.794548
302.000000	2.792403
303.000000	2.789565
304.000000	2.765540
305.000000	2.789587
306.000000	2.745076
307.000000	2.774819
308.000000	2.782574
309.000000	2.760553
310.000000	2.761505
311.000000	2.780852
312.000000	2.764933
313.000000	2.734701
314.000000	2.742150
315.000000	2.751030
316.000000	2.756189
317.000000	2.793262
318.000000	2.665487
319.000000	2.636486
320.000000	2.809779
321.000000	2.775412
322.000000	2.725754
323.000000	2.773854
324.000000	2.707690
325.000000	2.803097
326.000000	2.661360
327.000000	2.702414
328.000000	2.789357
329.000000	2.693327
330.000000	2.711226
331.000000	2.644477
332.000000	2.718087
333.000000	2.754271
334.000000	2.789982
335.000000	2.781444
336.000000	2.758140
337.000000	2.729335
338.000000	2.692011
339.000000	2.718217
340.000000	2.706395
341.000000	2.721407
342.000000	2.680384
343.000000	2.684681
344.000000	2.731312
345.000000	2.676585
346.000000	2.680804
347.000000	2.694887
348.000000	2.721335
349.000000	2.724365
350.000000	2.710330
351.000000	2.698292
352.000000	2.691173
353.000000	2.661401
354.000000	2.663271
355.000000	2.667568
356.000000	2.694672
357.000000	2.708238
358.000000	2.679651
359.000000	2.691567
360.000000	2.695353
361.000000	2.685963
362.000000	2.712215
363.000000	2.683214
364.000000	2.688276
365.000000	2.694710
366.000000	2.711106
367.000000	2.676437
368.000000	2.678747
369.000000	2.684588
370.000000	2.702193
371.000000	2.703246
372.000000	2.701801
373.000000	2.723191
374.000000	2.673583
375.000000	2.709316
376.000000	2.756756
377.000000	2.731949
378.000000	2.737147
379.000000	2.737419
380.000000	2.735488
381.000000	2.744581
382.000000	2.745854
383.000000	2.752715
384.000000	2.765027
385.000000	2.772072
386.000000	2.771465
387.000000	2.781262
388.000000	2.783548
389.000000	2.793717
390.000000	2.802712
391.000000	2.807893
392.000000	2.808546
393.000000	2.813725
394.000000	2.825381
395.000000	2.829261
396.000000	2.840328
397.000000	2.852200
398.000000	2.864044
399.000000	2.871902
400.000000	2.879881
401.000000	2.894673
402.000000	2.907901
403.000000	2.918770
404.000000	2.932314
405.000000	2.949083
406.000000	2.964007
407.000000	2.980000
408.000000	2.994895
409.000000	3.018418
410.000000	3.038306
411.000000	3.054381
412.000000	3.070588
413.000000	3.094986
414.000000	3.121464
415.000000	3.142520
416.000000	3.164739
417.000000	3.185793
418.000000	3.210269
419.000000	3.237441
420.000000	3.256502
421.000000	3.280264
422.000000	3.306666
423.000000	3.333279
424.000000	3.367066
425.000000	3.394466
426.000000	3.420189
427.000000	3.449061
428.000000	3.482012
429.000000	3.512968
430.000000	3.540992
431.000000	3.572182
432.000000	3.608669
433.000000	3.641942
434.000000	3.672957
435.000000	3.705276
436.000000	3.739851
437.000000	3.773216
438.000000	3.805332
439.000000	3.838747
440.000000	3.873759
441.000000	3.910332
442.000000	3.943730
443.000000	3.979228
444.000000	4.020514
445.000000	4.052105
446.000000	4.081348
447.000000	4.118710
448.000000	4.153909
449.000000	4.187567
450.000000	4.222508
451.000000	4.257480
452.000000	4.294202
453.000000	4.330968
454.000000	4.361551
455.000000	4.392645
456.000000	4.428661
457.000000	4.462470
458.000000	4.495507
459.000000	4.527842
460.000000	4.559048
461.000000	4.589575
462.000000	4.623428
463.000000	4.659710
464.000000	4.688848
465.000000	4.716285
466.000000	4.747028
467.000000	4.776632
468.000000	4.805869
469.000000	4.833112
470.000000	4.860699
471.000000	4.889909
472.000000	4.920027
473.000000	4.949582
474.000000	4.976379
475.000000	4.999035
476.000000	5.022746
477.000000	5.044784
478.000000	5.068703
479.000000	5.093814
480.000000	5.120408
481.000000	5.147626
482.000000	5.168880
483.000000	5.183939
484.000000	5.194794
485.000000	5.199505
486.000000	5.208954
487.000000	5.216267
488.000000	5.216679
489.000000	5.221216
490.000000	5.224649
491.000000	5.225674
492.000000	5.228476
493.000000	5.229970
494.000000	5.230113
495.000000	5.226780
496.000000	5.231287
497.000000	5.233997
498.000000	5.235245
499.000000	5.237887
500.000000	5.241036
501.000000	5.249373
502.000000	5.248172
503.000000	5.255508
504.000000	5.265216
505.000000	5.273307
506.000000	5.277670
507.000000	5.286671
508.000000	5.301587
509.000000	5.315832
510.000000	5.329540
511.000000	5.339813
512.000000	5.360496
513.000000	5.381875
514.000000	5.403564
515.000000	5.425605
516.000000	5.452208
517.000000	5.479453
518.000000	5.502900
519.000000	5.531131
520.000000	5.562165
521.000000	5.593004
522.000000	5.623044
523.000000	5.653472
524.000000	5.687553
525.000000	5.721852
526.000000	5.754945
527.000000	5.794045
528.000000	5.826043
529.000000	5.862357
530.000000	5.901310
531.000000	5.936992
532.000000	5.974829
533.000000	6.011959
534.000000	6.048462
535.000000	6.085837
536.000000	6.127040
537.000000	6.168920
538.000000	6.204252
539.000000	6.242103
540.000000	6.282981
541.000000	6.323262
542.000000	6.365679
543.000000	6.410398
544.000000	6.447715
545.000000	6.493685
546.000000	6.533896
547.000000	6.580072
548.000000	6.627393
549.000000	6.666523
550.000000	6.707355
551.000000	6.755361
552.000000	6.805581
553.000000	6.851833
554.000000	6.899436
555.000000	6.950479
556.000000	7.000773
557.000000	7.051277
558.000000	7.104505
559.000000	7.153984
560.000000	7.243958
561.000000	7.307441
562.000000	7.361096
563.000000	7.422050
564.000000	7.486838
565.000000	7.542389
566.000000	7.606620
567.000000	7.661911
568.000000	7.723663
569.000000	7.780434
570.000000	7.849699
571.000000	7.901646
572.000000	7.972442
573.000000	8.037256
574.000000	8.100058
575.000000	8.166393
576.000000	8.230694
577.000000	8.298424
578.000000	8.354418
579.000000	8.420627
580.000000	8.484846
581.000000	8.554815
582.000000	8.614311
583.000000	8.682915
584.000000	8.747308
585.000000	8.811452
586.000000	8.877412
587.000000	8.938693
588.000000	8.997001
589.000000	9.057321
590.000000	9.129228
591.000000	9.185576
592.000000	9.242671
593.000000	9.293168
594.000000	9.346087
595.000000	9.409114
596.000000	9.465195
597.000000	9.511267
598.000000	9.564016
599.000000	9.606845
600.000000	9.657485
601.000000	9.705760
602.000000	9.750696
603.000000	9.795547
604.000000	9.841230
605.000000	9.888919
606.000000	9.924179
607.000000	9.964553
608.000000	9.992629
609.000000	10.030475
610.000000	10.063106
611.000000	10.083479
612.000000	10.105116
613.000000	10.140674
614.000000	10.163576
615.000000	10.182995
616.000000	10.180453
617.000000	10.218289
618.000000	10.243282
619.000000	10.262089
620.000000	10.275821
621.000000	10.296987
622.000000	10.304945
623.000000	10.327190
624.000000	10.333091
625.000000	10.337789
626.000000	10.355031
627.000000	10.378873
628.000000	10.387426
629.000000	10.400348
630.000000	10.412840
631.000000	10.428554
632.000000	10.430704
633.000000	10.441325
634.000000	10.453216
635.000000	10.452652
636.000000	10.461252
637.000000	10.469518
638.000000	10.470626
639.000000	10.478809
640.000000	10.494337
641.000000	10.498194
642.000000	10.509341
643.000000	10.514940
644.000000	10.527563
645.000000	10.535603
646.000000	10.550423
647.000000	10.571174
648.000000	10.584193
649.000000	10.599528
650.000000	10.614730
651.000000	10.639387
652.000000	10.647711
653.000000	10.674222
654.000000	10.698493
655.000000	10.718806
656.000000	10.742297
657.000000	10.779165
658.000000	10.815926
659.000000	10.848237
660.000000	10.882599
661.000000	10.923237
662.000000	10.959138
663.000000	10.994963
664.000000	11.033135
665.000000	11.076503
666.000000	11.121477
667.000000	11.170083
668.000000	11.220162
669.000000	11.283692
670.000000	11.340177
671.000000	11.395635
672.000000	11.468338
673.000000	11.543086
674.000000	11.614458
675.000000	11.692507
676.000000	11.781223
677.000000	11.872101
678.000000	11.964921
679.000000	12.065342
680.000000	12.181708
681.000000	12.300845
682.000000	12.433196
683.000000	12.563090
684.000000	12.702972
685.000000	12.856745
686.000000	13.025346
687.000000	13.192882
688.000000	13.390066
689.000000	13.596102
690.000000	13.805054
691.000000	14.036431
692.000000	14.278428
693.000000	14.545675
694.000000	14.830484
695.000000	15.112012
696.000000	15.399996
697.000000	15.704350
698.000000	16.015853
699.000000	16.358166
700.000000	16.703314
701.000000	17.046032
702.000000	17.409576
703.000000	17.780017
704.000000	18.160577
705.000000	18.538860
706.000000	18.911183
707.000000	19.285470
708.000000	19.650411
709.000000	20.002789
710.000000	20.367144
711.000000	20.722401
712.000000	21.055034
713.000000	21.375378
714.000000	21.690800
715.000000	21.978319
716.000000	22.235143
717.000000	22.486546
718.000000	22.748150
719.000000	22.968330
720.000000	23.175547
721.000000	23.375495
722.000000	23.567542
723.000000	23.738269
724.000000	23.880080
725.000000	24.012778
726.000000	24.126428
727.000000	24.248069
728.000000	24.340999
729.000000	24.417035
730.000000	24.511366
731.000000	24.600766
732.000000	24.651094
733.000000	24.667910
734.000000	24.727959
735.000000	24.792821
736.000000	24.839390
737.000000	24.881890
738.000000	24.913221
739.000000	24.951032
740.000000	25.006497
741.000000	25.034292
742.000000	25.063131
743.000000	25.103186
744.000000	25.120013
745.000000	25.132470
746.000000	25.183249
747.000000	25.219714
748.000000	25.239165
749.000000	25.259459
750.000000	25.273546
751.000000	25.279094
752.000000	25.316566
753.000000	25.338598
754.000000	25.389388
755.000000	25.400796
756.000000	25.398164
757.000000	25.437929
758.000000	25.456559
759.000000	25.495051
760.000000	25.510593
761.000000	25.516694
762.000000	25.548142
763.000000	25.552542
764.000000	25.564408
765.000000	25.570496
766.000000	25.586999
767.000000	25.621006
768.000000	25.643622
769.000000	25.638978
770.000000	25.642797
771.000000	25.663118
772.000000	25.633482
773.000000	25.629094
774.000000	25.652769
775.000000	25.657531
776.000000	25.653631
777.000000	25.684841
778.000000	25.693339
779.000000	25.677679
780.000000	25.700310
781.000000	25.726886
782.000000	25.728488
783.000000	25.715042
784.000000	25.706889
785.000000	25.745534
786.000000	25.696509
787.000000	25.700755
788.000000	25.688538
789.000000	25.723582
790.000000	25.704952
791.000000	25.676443
792.000000	25.672437
793.000000	25.675970
794.000000	25.622980
795.000000	25.617281
796.000000	25.606596
797.000000	25.610129
798.000000	25.611794
799.000000	25.559847
800.000000	25.606548
801.000000	25.564138
802.000000	25.558136
803.000000	25.537380
804.000000	25.542928
805.000000	25.566036
806.000000	25.538029
807.000000	25.542999
808.000000	25.506660
809.000000	25.522922
810.000000	25.541948
811.000000	25.572970
812.000000	25.543336
813.000000	25.537561
814.000000	25.558302
815.000000	25.605705
816.000000	25.630526
817.000000	25.629449
818.000000	25.728080
819.000000	25.769816
820.000000	25.734550
821.000000	25.793008
822.000000	25.809565
823.000000	25.896581
824.000000	25.941400
825.000000	25.974207
826.000000	25.928128
827.000000	25.970262
828.000000	26.080697
829.000000	26.048063
830.000000	26.098981
831.000000	26.166119
832.000000	26.139495
833.000000	26.157504
834.000000	26.193600
835.000000	26.220681
836.000000	26.191001
837.000000	26.137071
838.000000	26.105728
839.000000	26.096937
840.000000	26.185322
841.000000	26.081989
842.000000	26.082299
843.000000	26.080259
844.000000	26.075677
845.000000	26.058808
846.000000	26.012593
847.000000	25.857367
848.000000	26.058058
849.000000	26.091579
850.000000	26.105964
851.000000	26.006297
852.000000	26.002897
853.000000	25.851369
854.000000	25.900627
855.000000	25.880968
856.000000	25.717779
857.000000	25.780697
858.000000	24.538235
859.000000	26.270844
860.000000	26.337247
861.000000	26.144975
862.000000	25.992375
863.000000	25.849889
864.000000	25.918240
865.000000	25.898671
866.000000	25.845759
867.000000	25.808660
868.000000	25.662823
869.000000	25.283714
870.000000	25.582207
871.000000	25.423395
872.000000	25.342494
873.000000	25.087868
874.000000	25.072859
875.000000	25.085659
876.000000	25.027545
877.000000	24.837631
878.000000	24.735720
879.000000	24.860514
880.000000	24.613715
881.000000	24.620268
882.000000	24.677343
883.000000	24.591591
884.000000	24.343002
885.000000	24.228778
886.000000	24.419036
887.000000	24.267569
888.000000	24.272137
889.000000	24.136635
890.000000	24.131897
891.000000	23.994088
892.000000	23.896337
893.000000	23.979027
894.000000	23.957204
895.000000	23.849551
896.000000	23.789439
897.000000	23.723527
898.000000	23.663243
899.000000	23.762823
900.000000	23.584263
901.000000	23.531798
902.000000	23.533855
903.000000	23.389609
904.000000	23.361892
905.000000	23.286074
906.000000	23.348031
907.000000	23.248856
908.000000	23.172685
909.000000	23.204188
910.000000	23.104963
911.000000	23.159364
912.000000	23.098889
913.000000	23.015663
914.000000	22.948129
915.000000	22.954218
916.000000	22.878430
917.000000	22.803652
918.000000	22.770296
919.000000	22.745778
920.000000	22.724882
921.000000	22.752727
922.000000	22.717763
923.000000	22.651282
924.000000	22.672308
925.000000	22.707830
926.000000	22.662872
927.000000	22.617136
928.000000	22.629880
929.000000	22.627287
930.000000	22.550167
931.000000	22.536726
932.000000	22.546176
933.000000	22.500316
934.000000	22.480986
935.000000	22.453294
936.000000	22.410815
937.000000	22.420762
938.000000	22.411206
939.000000	22.372842
940.000000	22.398338
941.000000	22.363570
942.000000	22.352366
943.000000	22.389377
944.000000	22.390972
945.000000	22.329376
946.000000	22.334929
947.000000	22.296235
948.000000	22.312938
949.000000	22.371968
950.000000	22.363882
951.000000	22.351173
952.000000	22.357020
953.000000	22.387899
954.000000	22.420914
955.000000	22.415574
956.000000	22.372050
957.000000	22.393317
958.000000	22.426024
959.000000	22.445953
960.000000	22.455648
961.000000	22.456043
962.000000	22.468558
963.000000	22.488501
964.000000	22.500574
965.000000	22.540189
966.000000	22.574842
967.000000	22.587160
968.000000	22.606717
969.000000	22.611756
970.000000	22.652933
971.000000	22.680332
972.000000	22.721187
973.000000	22.722561
974.000000	22.734779
975.000000	22.762967
976.000000	22.801405
977.000000	22.828991
978.000000	22.846354
979.000000	22.871977
980.000000	22.931933
981.000000	22.966305
982.000000	22.997970
983.000000	23.015623
984.000000	23.046414
985.000000	23.067873
986.000000	23.099299
987.000000	23.138847
988.000000	23.178956
989.000000	23.241351
990.000000	23.283005
991.000000	23.315764
992.000000	23.356314
993.000000	23.397009
994.000000	23.431935
995.000000	23.466025
996.000000	23.505820
997.000000	23.553445
998.000000	23.593943
999.000000	23.638176
1000.000000	23.673594
1001.000000	23.709677
1002.000000	23.749082
1003.000000	23.784335
1004.000000	23.833238
1005.000000	23.871904
1006.000000	23.904351
1007.000000	23.955753
1008.000000	24.001293
1009.000000	24.047336
1010.000000	24.109516
1011.000000	24.148384
1012.000000	24.183990
1013.000000	24.234195
1014.000000	24.286448
1015.000000	24.334371
1016.000000	24.377220
1017.000000	24.413950
1018.000000	24.452705
1019.000000	24.506176
1020.000000	24.551416
1021.000000	24.602627
1022.000000	24.665713
1023.000000	24.720720
1024.000000	24.768518
1025.000000	24.816825
1026.000000	24.869502
1027.000000	24.911911
1028.000000	24.963815
1029.000000	25.013728
1030.000000	25.064240
1031.000000	25.107428
1032.000000	25.149852
1033.000000	25.200210
1034.000000	25.247767
1035.000000	25.299434
1036.000000	25.350776
1037.000000	25.392653
1038.000000	25.450801
1039.000000	25.494232
1040.000000	25.539792
1041.000000	25.592897
1042.000000	25.653960
1043.000000	25.699763
1044.000000	25.746283
1045.000000	25.804620
1046.000000	25.853458
1047.000000	25.895159
1048.000000	25.945165
1049.000000	25.996510
1050.000000	26.047590
1051.000000	26.085730
1052.000000	26.132202
1053.000000	26.179186
1054.000000	26.232416
1055.000000	26.280186
1056.000000	26.328544
1057.000000	26.386569
1058.000000	26.444957
1059.000000	26.502416
1060.000000	26.555697
1061.000000	26.608221
1062.000000	26.641612
1063.000000	26.687808
1064.000000	26.736547
1065.000000	26.805737
1066.000000	26.858348
1067.000000	26.896017
1068.000000	26.941443
1069.000000	26.987090
1070.000000	27.036131
1071.000000	27.072101
1072.000000	27.121694
1073.000000	27.172244
1074.000000	27.231959
1075.000000	27.274756
1076.000000	27.312071
1077.000000	27.357294
1078.000000	27.405565
1079.000000	27.451474
1080.000000	27.493743
1081.000000	27.544645
1082.000000	27.582559
1083.000000	27.626477
1084.000000	27.670018
1085.000000	27.697819
1086.000000	27.758259
1087.000000	27.804192
1088.000000	27.842187
1089.000000	27.884747
1090.000000	27.927747
1091.000000	27.977697
1092.000000	28.020726
1093.000000	28.060159
1094.000000	28.111105
1095.000000	28.157715
1096.000000	28.189009
1097.000000	28.225676
1098.000000	28.266974
1099.000000	28.314368
1100.000000	28.361509
1101.000000	28.414683
1102.000000	28.454626
1103.000000	28.504405
1104.000000	28.526469
1105.000000	28.574831
1106.000000	28.616257
1107.000000	28.658651
1108.000000	28.698957
1109.000000	28.728098
1110.000000	28.767016
1111.000000	28.808944
1112.000000	28.851197
1113.000000	28.889848
1114.000000	28.927680
1115.000000	28.966564
1116.000000	29.000263
1117.000000	29.038215
1118.000000	29.070314
1119.000000	29.106497
1120.000000	29.124798
1121.000000	29.161041
1122.000000	29.167768
1123.000000	29.184983
1124.000000	29.210144
1125.000000	29.226672
1126.000000	29.240331
1127.000000	29.251083
1128.000000	29.257944
1129.000000	29.260236
1130.000000	29.270749
1131.000000	29.302519
1132.000000	29.341451
1133.000000	29.333946
1134.000000	29.317559
1135.000000	29.296111
1136.000000	29.315854
1137.000000	29.315242
1138.000000	29.315955
1139.000000	29.317191
1140.000000	29.333266
1141.000000	29.352921
1142.000000	29.367453
1143.000000	29.369281
1144.000000	29.372314
1145.000000	29.375193
1146.000000	29.377716
1147.000000	29.377080
1148.000000	29.366275
1149.000000	29.371394
1150.000000	29.363775
1151.000000	29.366408
1152.000000	29.364221
1153.000000	29.359966
1154.000000	29.343535
1155.000000	29.340573
1156.000000	29.324612
1157.000000	29.293762
1158.000000	29.277290
1159.000000	29.253475
1160.000000	29.249233
1161.000000	29.240669
1162.000000	29.214418
1163.000000	29.202699
1164.000000	29.167659
1165.000000	29.164816
1166.000000	29.137844
1167.000000	29.117092
1168.000000	29.113126
1169.000000	29.085486
1170.000000	29.078776
1171.000000	29.083405
1172.000000	29.063816
1173.000000	29.054435
1174.000000	29.058756
1175.000000	29.068042
1176.000000	29.078697
1177.000000	29.073451
1178.000000	29.078908
1179.000000	29.086810
1180.000000	29.091871
1181.000000	29.084983
1182.000000	29.086290
1183.000000	29.106436
1184.000000	29.128430
1185.000000	29.149833
1186.000000	29.172232
1187.000000	29.200555
1188.000000	29.243817
1189.000000	29.284197
1190.000000	29.334124
1191.000000	29.381696
1192.000000	29.418718
1193.000000	29.452691
1194.000000	29.487293
1195.000000	29.539333
1196.000000	29.579565
1197.000000	29.619520
1198.000000	29.653122
1199.000000	29.686047
1200.000000	29.732244
1201.000000	29.773389
1202.000000	29.802727
1203.000000	29.828622
1204.000000	29.863806
1205.000000	29.898984
1206.000000	29.931492
1207.000000	29.954679
1208.000000	29.995396
1209.000000	30.028199
1210.000000	30.058387
1211.000000	30.095076
1212.000000	30.135644
1213.000000	30.172462
1214.000000	30.204382
1215.000000	30.250346
1216.000000	30.295817
1217.000000	30.343462
1218.000000	30.375102
1219.000000	30.396011
1220.000000	30.430548
1221.000000	30.479582
1222.000000	30.525032
1223.000000	30.565684
1224.000000	30.599430
1225.000000	30.636662
1226.000000	30.676756
1227.000000	30.717097
1228.000000	30.755223
1229.000000	30.793442
1230.000000	30.826659
1231.000000	30.847980
1232.000000	30.871053
1233.000000	30.897395
1234.000000	30.922695
1235.000000	30.948257
1236.000000	30.978189
1237.000000	31.009797
1238.000000	31.037915
1239.000000	31.054994
1240.000000	31.080861
1241.000000	31.105572
1242.000000	31.137926
1243.000000	31.164797
1244.000000	31.199279
1245.000000	31.228781
1246.000000	31.247983
1247.000000	31.275844
1248.000000	31.305528
1249.000000	31.322772
1250.000000	31.347915
1251.000000	31.379488
1252.000000	31.411893
1253.000000	31.441973
1254.000000	31.461708
1255.000000	31.473910
1256.000000	31.490423
1257.000000	31.512837
1258.000000	31.546069
1259.000000	31.570311
1260.000000	31.593363
1261.000000	31.611763
1262.000000	31.636695
1263.000000	31.662290
1264.000000	31.685843
1265.000000	31.714048
1266.000000	31.735465
1267.000000	31.756307
1268.000000	31.781792
1269.000000	31.790315
1270.000000	31.813547
1271.000000	31.844789
1272.000000	31.869881
1273.000000	31.884103
1274.000000	31.896086
1275.000000	31.907677
1276.000000	31.925908
1277.000000	31.938548
1278.000000	31.956007
1279.000000	31.984996
1280.000000	32.011086
1281.000000	32.030860
1282.000000	32.044648
1283.000000	32.067254
1284.000000	32.100832
1285.000000	32.122708
1286.000000	32.131403
1287.000000	32.145573
1288.000000	32.172763
1289.000000	32.188730
1290.000000	32.200833
1291.000000	32.223582
1292.000000	32.245813
1293.000000	32.253216
1294.000000	32.259723
1295.000000	32.277454
1296.000000	32.294295
1297.000000	32.308875
1298.000000	32.319675
1299.000000	32.328627
1300.000000	32.338344
1301.000000	32.347462
1302.000000	32.366996
1303.000000	32.381461
1304.000000	32.389194
1305.000000	32.397490
1306.000000	32.396792
1307.000000	32.398798
1308.000000	32.414443
1309.000000	32.430085
1310.000000	32.438368
1311.000000	32.439727
1312.000000	32.440001
1313.000000	32.439604
1314.000000	32.429871
1315.000000	32.420863
1316.000000	32.417849
1317.000000	32.420840
1318.000000	32.416734
1319.000000	32.404820
1320.000000	32.379531
1321.000000	32.364066
1322.000000	32.352643
1323.000000	32.335174
1324.000000	32.317638
1325.000000	32.298980
1326.000000	32.282754
1327.000000	32.251983
1328.000000	32.225143
1329.000000	32.194352
1330.000000	32.150657
1331.000000	32.111206
1332.000000	32.076983
1333.000000	32.044920
1334.000000	32.010684
1335.000000	31.954441
1336.000000	31.912271
1337.000000	31.862633
1338.000000	31.814435
1339.000000	31.764871
1340.000000	31.722727
1341.000000	31.672816
1342.000000	31.622149
1343.000000	31.566298
1344.000000	31.500622
1345.000000	31.455990
1346.000000	31.402119
1347.000000	31.345769
1348.000000	31.286083
1349.000000	31.238882
1350.000000	31.182240
1351.000000	31.129703
1352.000000	31.091342
1353.000000	31.035446
1354.000000	30.933096
1355.000000	30.859348
1356.000000	30.825930
1357.000000	30.781653
1358.000000	30.747916
1359.000000	30.736883
1360.000000	30.637915
1361.000000	30.524701
1362.000000	30.454148
1363.000000	30.418604
1364.000000	30.347652
1365.000000	30.279357
1366.000000	30.238271
1367.000000	30.157822
1368.000000	30.079421
1369.000000	30.018045
1370.000000	29.914701
1371.000000	29.788710
1372.000000	29.691512
1373.000000	29.602958
1374.000000	29.482691
1375.000000	29.358288
1376.000000	29.252047
1377.000000	29.158387
1378.000000	29.072530
1379.000000	28.969960
1380.000000	28.878350
1381.000000	28.695853
1382.000000	28.546777
1383.000000	28.423330
1384.000000	28.343497
1385.000000	28.247362
1386.000000	28.173689
1387.000000	28.044106
1388.000000	27.922303
1389.000000	27.858889
1390.000000	27.785596
1391.000000	27.674053
1392.000000	27.561581
1393.000000	27.497881
1394.000000	27.362980
1395.000000	27.169180
1396.000000	27.037553
1397.000000	26.976939
1398.000000	26.917207
1399.000000	26.734993
1400.000000	26.515275
1401.000000	26.367825
1402.000000	26.286013
1403.000000	26.139002
1404.000000	25.969962
1405.000000	25.770411
1406.000000	25.612925
1407.000000	25.447177
1408.000000	25.276619
1409.000000	25.075765
1410.000000	24.916935
1411.000000	24.783383
1412.000000	24.637897
1413.000000	24.459307
1414.000000	24.261169
1415.000000	24.120409
1416.000000	23.993987
1417.000000	23.870538
1418.000000	23.709364
1419.000000	23.571540
1420.000000	23.438891
1421.000000	23.330262
1422.000000	23.198184
1423.000000	23.071819
1424.000000	22.968823
1425.000000	22.872541
1426.000000	22.778299
1427.000000	22.673147
1428.000000	22.571749
1429.000000	22.492554
1430.000000	22.407822
1431.000000	22.311504
1432.000000	22.236325
1433.000000	22.162557
1434.000000	22.084259
1435.000000	22.008148
1436.000000	21.927165
1437.000000	21.860850
1438.000000	21.801979
1439.000000	21.743327
1440.000000	21.677708
1441.000000	21.606305
1442.000000	21.550734
1443.000000	21.502507
1444.000000	21.420347
1445.000000	21.356941
1446.000000	21.297166
1447.000000	21.257553
1448.000000	21.224503
1449.000000	21.152305
1450.000000	21.106784
1451.000000	21.059521
1452.000000	21.015450
1453.000000	20.956283
1454.000000	20.909116
1455.000000	20.852214
1456.000000	20.814681
1457.000000	20.762612
1458.000000	20.714435
1459.000000	20.667527
1460.000000	20.610354
1461.000000	20.560779
1462.000000	20.519469
1463.000000	20.460706
1464.000000	20.430176
1465.000000	20.381859
1466.000000	20.336097
1467.000000	20.303602
1468.000000	20.261770
1469.000000	20.214399
1470.000000	20.163451
1471.000000	20.138539
1472.000000	20.092452
1473.000000	20.053217
1474.000000	20.023088
1475.000000	19.996993
1476.000000	19.961457
1477.000000	19.935438
1478.000000	19.918623
1479.000000	19.890057
1480.000000	19.868752
1481.000000	19.861870
1482.000000	19.854137
1483.000000	19.840128
1484.000000	19.822940
1485.000000	19.818231
1486.000000	19.806655
1487.000000	19.800799
1488.000000	19.809956
1489.000000	19.800615
1490.000000	19.802299
1491.000000	19.797286
1492.000000	19.797742
1493.000000	19.794033
1494.000000	19.811182
1495.000000	19.815622
1496.000000	19.831916
1497.000000	19.854067
1498.000000	19.875846
1499.000000	19.893830
1500.000000	19.915924
1501.000000	19.946169
1502.000000	19.974152
1503.000000	20.001721
1504.000000	20.038976
1505.000000	20.085965
1506.000000	20.118146
1507.000000	20.161192
1508.000000	20.204841
1509.000000	20.237917
1510.000000	20.281019
1511.000000	20.327175
1512.000000	20.363282
1513.000000	20.410850
1514.000000	20.451732
1515.000000	20.503169
1516.000000	20.549209
1517.000000	20.588085
1518.000000	20.626860
1519.000000	20.669436
1520.000000	20.714349
1521.000000	20.754581
1522.000000	20.780127
1523.000000	20.818625
1524.000000	20.856593
1525.000000	20.895193
1526.000000	20.935429
1527.000000	20.971507
1528.000000	21.004203
1529.000000	21.033680
1530.000000	21.070489
1531.000000	21.103135
1532.000000	21.134792
1533.000000	21.162453
1534.000000	21.199800
1535.000000	21.226190
1536.000000	21.253187
1537.000000	21.282337
1538.000000	21.310097
1539.000000	21.337355
1540.000000	21.359348
1541.000000	21.389866
1542.000000	21.419906
1543.000000	21.441360
1544.000000	21.469028
1545.000000	21.501941
1546.000000	21.540491
1547.000000	21.573513
1548.000000	21.604385
1549.000000	21.641130
1550.000000	21.676750
1551.000000	21.703043
1552.000000	21.745719
1553.000000	21.780438
1554.000000	21.801552
1555.000000	21.821782
1556.000000	21.850999
1557.000000	21.868975
1558.000000	21.878581
1559.000000	21.888254
1560.000000	21.892303
1561.000000	21.905521
1562.000000	21.911890
1563.000000	21.916533
1564.000000	21.914869
1565.000000	21.912496
1566.000000	21.905528
1567.000000	21.893211
1568.000000	21.879325
1569.000000	21.881233
1570.000000	21.885985
1571.000000	21.886148
1572.000000	21.879737
1573.000000	21.880901
1574.000000	21.889845
1575.000000	21.894693
1576.000000	21.897129
1577.000000	21.902446
1578.000000	21.922839
1579.000000	21.935788
1580.000000	21.935933
1581.000000	21.951299
1582.000000	21.972885
1583.000000	21.992277
1584.000000	22.016967
1585.000000	22.042164
1586.000000	22.065513
1587.000000	22.089210
1588.000000	22.108656
1589.000000	22.136402
1590.000000	22.162664
1591.000000	22.197261
1592.000000	22.229336
1593.000000	22.269583
1594.000000	22.297413
1595.000000	22.335996
1596.000000	22.375283
1597.000000	22.407060
1598.000000	22.435487
1599.000000	22.490454
1600.000000	22.534911
1601.000000	22.567186
1602.000000	22.620194
1603.000000	22.653067
1604.000000	22.688713
1605.000000	22.732486
1606.000000	22.775793
1607.000000	22.826720
1608.000000	22.867698
1609.000000	22.906337
1610.000000	22.925140
1611.000000	22.957628
1612.000000	22.983147
1613.000000	23.021176
1614.000000	23.053071
1615.000000	23.080489
1616.000000	23.103394
1617.000000	23.121634
1618.000000	23.150751
1619.000000	23.179915
1620.000000	23.219652
1621.000000	23.250527
1622.000000	23.257450
1623.000000	23.285333
1624.000000	23.316417
1625.000000	23.338064
1626.000000	23.360526
1627.000000	23.388391
1628.000000	23.411311
1629.000000	23.414558
1630.000000	23.429109
1631.000000	23.455378
1632.000000	23.471884
1633.000000	23.479169
1634.000000	23.509583
1635.000000	23.525353
1636.000000	23.532000
1637.000000	23.535805
1638.000000	23.540257
1639.000000	23.567311
1640.000000	23.573740
1641.000000	23.570155
1642.000000	23.572866
1643.000000	23.588291
1644.000000	23.575794
1645.000000	23.580816
1646.000000	23.572844
1647.000000	23.578275
1648.000000	23.563817
1649.000000	23.560843
1650.000000	23.555663
1651.000000	23.544649
1652.000000	23.522998
1653.000000	23.502297
1654.000000	23.487646
1655.000000	23.440996
1656.000000	23.392479
1657.000000	23.339758
1658.000000	23.300020
1659.000000	23.253410
1660.000000	23.183961
1661.000000	23.125314
1662.000000	23.055474
1663.000000	22.991564
1664.000000	22.923431
1665.000000	22.838370
1666.000000	22.761157
1667.000000	22.669700
1668.000000	22.599993
1669.000000	22.501261
1670.000000	22.401531
1671.000000	22.323060
1672.000000	22.226956
1673.000000	22.134831
1674.000000	22.032817
1675.000000	21.942735
1676.000000	21.856532
1677.000000	21.752255
1678.000000	21.638271
1679.000000	21.556024
1680.000000	21.448924
1681.000000	21.363493
1682.000000	21.256401
1683.000000	21.182154
1684.000000	21.080745
1685.000000	21.019774
1686.000000	20.976006
1687.000000	20.928391
1688.000000	20.906314
1689.000000	20.908611
1690.000000	20.885587
1691.000000	20.861749
1692.000000	20.896131
1693.000000	20.925570
1694.000000	20.932148
1695.000000	20.957475
1696.000000	20.941329
1697.000000	20.947842
1698.000000	20.919352
1699.000000	20.915698
1700.000000	20.904583
1701.000000	20.885480
1702.000000	20.877019
1703.000000	20.847361
1704.000000	20.788989
1705.000000	20.758925
1706.000000	20.703369
1707.000000	20.644843
1708.000000	20.581778
1709.000000	20.519758
1710.000000	20.448473
1711.000000	20.366617
1712.000000	20.273021
1713.000000	20.202774
1714.000000	20.101828
1715.000000	20.002810
1716.000000	19.907138
1717.000000	19.804861
1718.000000	19.709470
1719.000000	19.626946
1720.000000	19.548820
1721.000000	19.502727
1722.000000	19.453875
1723.000000	19.421562
1724.000000	19.397126
1725.000000	19.399212
1726.000000	19.383354
1727.000000	19.396465
1728.000000	19.406603
1729.000000	19.451924
1730.000000	19.465186
1731.000000	19.503042
1732.000000	19.522942
1733.000000	19.580558
1734.000000	19.628461
1735.000000	19.653170
1736.000000	19.697257
1737.000000	19.752136
1738.000000	19.797992
1739.000000	19.848325
1740.000000	19.913324
1741.000000	19.965717
1742.000000	20.013013
1743.000000	20.056910
1744.000000	20.112061
1745.000000	20.152518
1746.000000	20.169720
1747.000000	20.203909
1748.000000	20.235379
1749.000000	20.267473
1750.000000	20.274154
1751.000000	20.294938
1752.000000	20.317828
1753.000000	20.322694
1754.000000	20.328841
1755.000000	20.348096
1756.000000	20.355218
1757.000000	20.348693
1758.000000	20.353485
1759.000000	20.358707
1760.000000	20.377178
1761.000000	20.400068
1762.000000	20.397062
1763.000000	20.410550
1764.000000	20.441063
1765.000000	20.465623
1766.000000	20.475127
1767.000000	20.509243
1768.000000	20.540517
1769.000000	20.568355
1770.000000	20.599457
1771.000000	20.613334
1772.000000	20.633995
1773.000000	20.649535
1774.000000	20.679006
1775.000000	20.706049
1776.000000	20.728148
1777.000000	20.750774
1778.000000	20.770452
1779.000000	20.775821
1780.000000	20.798872
1781.000000	20.822127
1782.000000	20.830183
1783.000000	20.844100
1784.000000	20.852983
1785.000000	20.857830
1786.000000	20.871257
1787.000000	20.880149
1788.000000	20.891505
1789.000000	20.902874
1790.000000	20.915292
1791.000000	20.927620
1792.000000	20.945574
1793.000000	20.961209
1794.000000	20.979885
1795.000000	20.998887
1796.000000	21.013304
1797.000000	21.040309
1798.000000	21.064719
1799.000000	21.071174
1800.000000	21.077397
1801.000000	21.087793
1802.000000	21.106576
1803.000000	21.132916
1804.000000	21.158704
1805.000000	21.179802
1806.000000	21.192108
1807.000000	21.212693
1808.000000	21.257115
1809.000000	21.282298
1810.000000	21.290640
1811.000000	21.284098
1812.000000	21.287252
1813.000000	21.314690
1814.000000	21.339599
1815.000000	21.342244
1816.000000	21.358481
1817.000000	21.424993
1818.000000	21.465781
1819.000000	21.436010
1820.000000	21.365790
1821.000000	21.325771
1822.000000	21.363864
1823.000000	21.435810
1824.000000	21.479994
1825.000000	21.490194
1826.000000	21.490907
1827.000000	21.507296
1828.000000	21.529859
1829.000000	21.529419
1830.000000	21.513974
1831.000000	21.543075
1832.000000	21.622718
1833.000000	21.683946
1834.000000	21.713730
1835.000000	21.718857
1836.000000	21.689521
1837.000000	21.694241
1838.000000	21.730579
1839.000000	21.730549
1840.000000	21.699583
1841.000000	21.654669
1842.000000	21.660255
1843.000000	21.738986
1844.000000	21.860927
1845.000000	21.943236
1846.000000	21.880346
1847.000000	21.745795
1848.000000	21.671956
1849.000000	21.700688
1850.000000	21.766076
1851.000000	21.787441
1852.000000	21.793118
1853.000000	21.800331
1854.000000	21.764496
1855.000000	21.753287
1856.000000	21.764317
1857.000000	21.779425
1858.000000	21.735529
1859.000000	21.674893
1860.000000	21.620169
1861.000000	21.587335
1862.000000	21.605541
1863.000000	21.604599
1864.000000	21.618129
1865.000000	21.601088
1866.000000	21.553735
1867.000000	21.469652
1868.000000	21.376650
1869.000000	21.203273
1870.000000	21.036996
1871.000000	20.883159
1872.000000	20.688069
1873.000000	20.525295
1874.000000	20.413429
1875.000000	20.258517
1876.000000	20.110592
1877.000000	19.976692
1878.000000	19.801138
1879.000000	19.679784
1880.000000	19.534503
1881.000000	19.340044
1882.000000	19.142218
1883.000000	18.927219
1884.000000	18.708756
1885.000000	18.488616
1886.000000	18.284272
1887.000000	18.093498
1888.000000	17.868864
1889.000000	17.639634
1890.000000	17.381744
1891.000000	17.047901
1892.000000	16.731176
1893.000000	16.493344
1894.000000	16.249750
1895.000000	16.020492
1896.000000	15.801083
1897.000000	15.499933
1898.000000	15.167199
1899.000000	14.836981
1900.000000	14.526812
1901.000000	14.233635
1902.000000	13.991294
1903.000000	13.728141
1904.000000	13.456626
1905.000000	13.140013
1906.000000	12.903093
1907.000000	12.643612
1908.000000	12.540984
1909.000000	12.354226
1910.000000	12.163678
1911.000000	11.916995
1912.000000	11.712842
1913.000000	11.513954
1914.000000	11.364902
1915.000000	11.235381
1916.000000	11.155483
1917.000000	11.054901
1918.000000	10.943350
1919.000000	10.829419
1920.000000	10.699072
1921.000000	10.578728
1922.000000	10.504355
1923.000000	10.452302
1924.000000	10.376581
1925.000000	10.312494
1926.000000	10.254745
1927.000000	10.201228
1928.000000	10.149992
1929.000000	10.076893
1930.000000	10.035599
1931.000000	10.065679
1932.000000	10.087195
1933.000000	10.055743
1934.000000	10.062116
1935.000000	10.078782
1936.000000	10.073759
1937.000000	10.075666
1938.000000	10.057027
1939.000000	10.064665
1940.000000	10.103095
1941.000000	10.141044
1942.000000	10.173137
1943.000000	10.217067
1944.000000	10.219658
1945.000000	10.273618
1946.000000	10.323785
1947.000000	10.328954
1948.000000	10.373457
1949.000000	10.441172
1950.000000	10.517571
1951.000000	10.536502
1952.000000	10.582147
1953.000000	10.667122
1954.000000	10.692942
1955.000000	10.728755
1956.000000	10.752293
1957.000000	10.813019
1958.000000	10.885314
1959.000000	10.903256
1960.000000	10.987919
1961.000000	11.072482
1962.000000	11.117503
1963.000000	11.170452
1964.000000	11.221219
1965.000000	11.270404
1966.000000	11.310005
1967.000000	11.364838
1968.000000	11.423860
1969.000000	11.478481
1970.000000	11.516631
1971.000000	11.612154
1972.000000	11.640837
1973.000000	11.664305
1974.000000	11.719621
1975.000000	11.790095
1976.000000	11.812974
1977.000000	11.884623
1978.000000	11.967487
1979.000000	12.029799
1980.000000	12.093316
1981.000000	12.110740
1982.000000	12.175898
1983.000000	12.250832
1984.000000	12.305073
1985.000000	12.357017
1986.000000	12.406330
1987.000000	12.458801
1988.000000	12.504355
1989.000000	12.557157
1990.000000	12.602671
1991.000000	12.648037
1992.000000	12.686678
1993.000000	12.715893
1994.000000	12.772685
1995.000000	12.812274
1996.000000	12.845895
1997.000000	12.892899
1998.000000	12.951256
1999.000000	12.973254
2000.000000	12.978077
2001.000000	13.023709
2002.000000	13.080197
2003.000000	13.102044
2004.000000	13.123200
2005.000000	13.163858
2006.000000	13.166660
2007.000000	13.175974
2008.000000	13.201685
2009.000000	13.218292
2010.000000	13.209283
2011.000000	13.217156
2012.000000	13.196576
2013.000000	13.180558
2014.000000	13.158892
2015.000000	13.142663
2016.000000	13.139880
2017.000000	13.081944
2018.000000	13.056067
2019.000000	13.064866
2020.000000	13.014640
2021.000000	13.003747
2022.000000	12.964097
2023.000000	12.926078
2024.000000	12.898669
2025.000000	12.826173
2026.000000	12.776125
2027.000000	12.726399
2028.000000	12.692313
2029.000000	12.649363
2030.000000	12.560920
2031.000000	12.510601
2032.000000	12.430309
2033.000000	12.341727
2034.000000	12.279987
2035.000000	12.170403
2036.000000	12.102257
2037.000000	12.093535
2038.000000	12.015711
2039.000000	11.902600
2040.000000	11.808452
2041.000000	11.728373
2042.000000	11.650530
2043.000000	11.585784
2044.000000	11.521230
2045.000000	11.468448
2046.000000	11.391767
2047.000000	11.321812
2048.000000	11.242964
2049.000000	11.155931
2050.000000	11.148942
2051.000000	11.123843
2052.000000	11.082953
2053.000000	11.108344
2054.000000	11.093495
2055.000000	11.079547
2056.000000	11.100106
2057.000000	11.116781
2058.000000	11.166564
2059.000000	11.204112
2060.000000	11.198866
2061.000000	11.196375
2062.000000	11.259637
2063.000000	11.362447
2064.000000	11.466974
2065.000000	11.498427
2066.000000	11.498910
2067.000000	11.567099
2068.000000	11.632094
2069.000000	11.659932
2070.000000	11.693514
2071.000000	11.749831
2072.000000	11.813061
2073.000000	11.887913
2074.000000	11.942724
2075.000000	11.961252
2076.000000	12.003935
2077.000000	12.060054
2078.000000	12.078786
2079.000000	12.108327
2080.000000	12.166260
2081.000000	12.188092
2082.000000	12.190359
2083.000000	12.160572
2084.000000	12.170794
2085.000000	12.202480
2086.000000	12.179375
2087.000000	12.222441
2088.000000	12.276443
2089.000000	12.256164
2090.000000	12.246616
2091.000000	12.216117
2092.000000	12.215776
2093.000000	12.216002
2094.000000	12.223117
2095.000000	12.229593
2096.000000	12.150936
2097.000000	12.152908
2098.000000	12.177966
2099.000000	12.179892
2100.000000	12.176300
2101.000000	12.155640
2102.000000	12.174088
2103.000000	12.181135
2104.000000	12.240039
2105.000000	12.215610
2106.000000	12.222226
2107.000000	12.183740
2108.000000	12.182266
2109.000000	12.262451
2110.000000	12.304416
2111.000000	12.309061
2112.000000	12.291347
2113.000000	12.264115
2114.000000	12.201137
2115.000000	12.165693
2116.000000	12.170356
2117.000000	12.319571
2118.000000	12.233645
2119.000000	12.269449
2120.000000	12.421278
2121.000000	12.372453
2122.000000	12.234294
2123.000000	12.228118
2124.000000	12.190143
2125.000000	12.227670
2126.000000	12.165061
2127.000000	12.137184
2128.000000	12.111332
2129.000000	12.144631
2130.000000	12.048778
2131.000000	11.962933
2132.000000	11.884726
2133.000000	11.964422
2134.000000	11.851881
2135.000000	11.892794
2136.000000	11.866749
2137.000000	11.759151
2138.000000	11.649143
2139.000000	11.655889
2140.000000	11.572782
2141.000000	11.638266
2142.000000	11.461803
2143.000000	11.418996
2144.000000	11.353402
2145.000000	11.251749
2146.000000	11.208587
2147.000000	11.176172
2148.000000	11.212831
2149.000000	11.247802
2150.000000	11.141831
2151.000000	11.112723
2152.000000	11.139488
2153.000000	10.923120
2154.000000	10.886813
2155.000000	10.834916
2156.000000	10.758995
2157.000000	10.666981
2158.000000	10.701493
2159.000000	10.668024
2160.000000	10.653185
2161.000000	10.554684
2162.000000	10.607229
2163.000000	10.556357
2164.000000	10.417660
2165.000000	10.517956
2166.000000	10.531319
2167.000000	10.407137
2168.000000	10.394855
2169.000000	10.370737
2170.000000	10.327921
2171.000000	10.270982
2172.000000	10.305797
2173.000000	10.221542
2174.000000	10.316816
2175.000000	10.228369
2176.000000	10.400511
2177.000000	10.289847
2178.000000	10.344027
2179.000000	10.318851
2180.000000	10.433686
2181.000000	10.273650
2182.000000	10.243982
2183.000000	10.277355
2184.000000	10.209029
2185.000000	10.129019
2186.000000	10.229969
2187.000000	10.244643
2188.000000	10.360407
2189.000000	10.222816
2190.000000	10.278874
2191.000000	10.356313
2192.000000	10.379748
2193.000000	10.315032
2194.000000	10.207112
2195.000000	10.276194
2196.000000	10.210000
2197.000000	10.398906
2198.000000	10.370420
2199.000000	10.482319
2200.000000	10.448874
2201.000000	10.510927
2202.000000	10.494502
2203.000000	10.469619
2204.000000	10.446821
2205.000000	10.441215
2206.000000	10.718069
2207.000000	10.495751
2208.000000	10.480572
2209.000000	10.524432
2210.000000	10.537039
2211.000000	10.730872
2212.000000	10.755999
2213.000000	10.659468
2214.000000	10.711433
2215.000000	10.656074
2216.000000	10.859277
2217.000000	10.980727
2218.000000	10.788421
2219.000000	10.886665
2220.000000	10.822488
2221.000000	10.991428
2222.000000	11.056843
2223.000000	11.100454
2224.000000	11.076388
2225.000000	11.189170
2226.000000	11.079276
2227.000000	11.082948
2228.000000	11.104839
2229.000000	11.140666
2230.000000	11.166517
2231.000000	11.254127
2232.000000	11.158783
2233.000000	11.200097
2234.000000	11.150806
2235.000000	11.167168
2236.000000	11.159385
2237.000000	11.133832
2238.000000	11.178157
2239.000000	11.123146
2240.000000	10.999930
2241.000000	10.917135
2242.000000	10.884191
2243.000000	10.972543
2244.000000	10.987641
2245.000000	11.100991
2246.000000	10.797383
2247.000000	10.685831
2248.000000	10.678318
2249.000000	10.809463
2250.000000	10.682147
2251.000000	10.534415
2252.000000	10.370895
2253.000000	10.409177
2254.000000	10.299366
2255.000000	10.262488
2256.000000	10.289110
2257.000000	10.170156
2258.000000	10.145550
2259.000000	10.006142
2260.000000	9.744898
2261.000000	9.727407
2262.000000	9.842120
2263.000000	9.827969
2264.000000	9.769216
2265.000000	9.734813
2266.000000	9.595754
2267.000000	9.583231
2268.000000	9.612691
2269.000000	9.453781
2270.000000	9.456597
2271.000000	9.661842
2272.000000	9.703999
2273.000000	9.594210
2274.000000	9.532437
2275.000000	9.616141
2276.000000	9.618198
2277.000000	9.672956
2278.000000	9.682336
2279.000000	9.478688
2280.000000	9.471673
2281.000000	9.635717
2282.000000	9.528491
2283.000000	9.319496
2284.000000	9.324328
2285.000000	9.415541
2286.000000	9.529304
2287.000000	9.437594
2288.000000	9.423870
2289.000000	9.479204
2290.000000	9.530087
2291.000000	9.526543
2292.000000	9.475927
2293.000000	9.497162
2294.000000	9.420249
2295.000000	9.476677
2296.000000	9.497845
2297.000000	9.580912
2298.000000	9.675042
2299.000000	9.678662
2300.000000	9.466618
2301.000000	9.411750
2302.000000	9.443059
2303.000000	9.603592
2304.000000	9.659719
2305.000000	9.666142
2306.000000	9.711730
2307.000000	9.570187
2308.000000	9.572815
2309.000000	9.732012
2310.000000	9.728308
2311.000000	9.600948
2312.000000	9.785218
2313.000000	9.990917
2314.000000	9.850636
2315.000000	9.763967
2316.000000	9.778804
2317.000000	9.721151
2318.000000	9.831675
2319.000000	9.928807
2320.000000	9.928009
2321.000000	9.956465
2322.000000	9.816070
2323.000000	9.873833
2324.000000	9.872465
2325.000000	9.994369
2326.000000	10.024020
2327.000000	10.090782
2328.000000	10.142356
2329.000000	9.942057
2330.000000	10.048465
2331.000000	10.207616
2332.000000	10.272192
2333.000000	10.439955
2334.000000	10.319179
2335.000000	10.107901
2336.000000	10.213996
2337.000000	10.299188
2338.000000	10.335436
2339.000000	10.336894
2340.000000	10.299286
2341.000000	10.203513
2342.000000	10.455950
2343.000000	10.598786
2344.000000	10.510275
2345.000000	10.514069
2346.000000	10.393976
2347.000000	10.482881
2348.000000	10.491579
2349.000000	10.497007
2350.000000	10.536052
2351.000000	10.600849
2352.000000	10.729602
2353.000000	10.553930
2354.000000	10.549641
2355.000000	10.620053
2356.000000	10.691539
2357.000000	10.780739
2358.000000	10.711223
2359.000000	10.712526
2360.000000	10.615952
2361.000000	10.587909
2362.000000	10.572760
2363.000000	10.808985
2364.000000	10.822126
2365.000000	10.729649
2366.000000	10.617514
2367.000000	10.849221
2368.000000	10.776028
2369.000000	10.858169
2370.000000	10.898879
2371.000000	10.999355
2372.000000	10.854445
2373.000000	11.156036
2374.000000	10.997979
2375.000000	10.840170
2376.000000	10.949785
2377.000000	11.047321
2378.000000	10.999940
2379.000000	11.275854
2380.000000	11.321734
2381.000000	11.153596
2382.000000	11.139680
2383.000000	11.036324
2384.000000	11.107444
2385.000000	11.257375
2386.000000	11.350519
2387.000000	11.172264
2388.000000	11.189626
2389.000000	11.230679
2390.000000	11.387646
2391.000000	11.479671
2392.000000	11.447493
2393.000000	11.331234
2394.000000	11.261900
2395.000000	11.289343
2396.000000	11.180650
2397.000000	11.495401
2398.000000	11.768243
2399.000000	11.775487
2400.000000	11.584180
2401.000000	11.572017
2402.000000	11.617197
2403.000000	11.396078
2404.000000	11.366132
2405.000000	11.417871
2406.000000	11.473619
2407.000000	11.447498
2408.000000	11.565299
2409.000000	11.414704
2410.000000	11.604721
2411.000000	11.374631
2412.000000	11.787200
2413.000000	11.681135
2414.000000	11.720205
2415.000000	11.445858
2416.000000	11.599989
2417.000000	11.514521
2418.000000	11.463643
2419.000000	11.447680
2420.000000	12.081100
2421.000000	11.754403
2422.000000	11.951515
2423.000000	11.761313
2424.000000	11.554437
2425.000000	11.467893
2426.000000	11.511678
2427.000000	11.826764
2428.000000	11.853693
2429.000000	11.632759
2430.000000	11.775141
2431.000000	11.431002
2432.000000	11.682177
2433.000000	11.811779
2434.000000	11.684155
2435.000000	11.658741
2436.000000	10.810082
2437.000000	11.578720
2438.000000	11.462221
2439.000000	11.588997
2440.000000	11.989113
2441.000000	11.624011
2442.000000	11.647381
2443.000000	11.532395
2444.000000	11.625363
2445.000000	11.712120
2446.000000	11.544335
2447.000000	12.168432
2448.000000	11.476733
2449.000000	11.604771
2450.000000	11.903784
2451.000000	11.792766
2452.000000	12.403364
2453.000000	12.073199
2454.000000	11.900543
2455.000000	12.240647
2456.000000	12.916489
2457.000000	12.293072
2458.000000	11.833159
2459.000000	12.507193
2460.000000	12.106602
2461.000000	12.482650
2462.000000	13.087137
2463.000000	13.783764
2464.000000	12.382490
2465.000000	13.609065
2466.000000	13.162613
2467.000000	13.644819
2468.000000	13.968606
2469.000000	13.265696
2470.000000	13.666295
2471.000000	13.566096
2472.000000	14.940198
2473.000000	14.806727
2474.000000	15.794559
2475.000000	14.786983
2476.000000	16.553186
2477.000000	15.418544
2478.000000	16.720370
2479.000000	16.050209
2480.000000	15.592361
2481.000000	15.871124
2482.000000	16.920557
2483.000000	17.337928
2484.000000	16.829571
2485.000000	18.285227
2486.000000	18.087406
2487.000000	17.482232
2488.000000	18.327143
2489.000000	18.919346
2490.000000	18.831425
2491.000000	18.475796
2492.000000	19.865154
2493.000000	21.143863
2494.000000	21.125257
2495.000000	20.313902
2496.000000	21.008941
2497.000000	21.264075
2498.000000	21.755872
2499.000000	22.887496
2500.000000	22.028124
2501.000000	nan
2502.000000	nan
2503.000000	nan
2504.000000	nan
2505.000000	nan
2506.000000	nan
2507.000000	nan
2508.000000	nan
2509.000000	nan
2510.000000	nan
2511.000000	nan
2512.000000	nan
2513.000000	nan
2514.000000	nan
2515.000000	nan
2516.000000	nan
2517.000000	nan
2518.000000	nan
2519.000000	nan
2520.000000	nan
2521.000000	nan
2522.000000	nan
2523.000000	nan
2524.000000	nan
2525.000000	nan
2526.000000	nan
2527.000000	nan
2528.000000	nan
2529.000000	nan
2530.000000	nan
2531.000000	nan
2532.000000	nan
2533.000000	nan
2534.000000	nan
2535.000000	nan
2536.000000	nan
2537.000000	nan
2538.000000	nan
2539.000000	nan
2540.000000	nan
2541.000000	nan
2542.000000	nan
2543.000000	nan
2544.000000	nan
2545.000000	nan
2546.000000	nan
2547.000000	nan
2548.000000	nan
2549.000000	nan
2550.000000	nan
2551.000000	nan
2552.000000	nan
2553.000000	nan
2554.000000	nan
2555.000000	nan
2556.000000	nan
2557.000000	nan
2558.000000	nan
2559.000000	nan
2560.000000	nan
2561.000000	nan
2562.000000	nan
2563.000000	nan
2564.000000	nan
2565.000000	nan
2566.000000	nan
2567.000000	nan
2568.000000	nan
2569.000000	nan
2570.000000	nan
2571.000000	nan
2572.000000	nan
2573.000000	nan
2574.000000	nan
2575.000000	nan
2576.000000	nan
2577.000000	nan
2578.000000	nan
2579.000000	nan
2580.000000	nan
2581.000000	nan
2582.000000	nan
2583.000000	nan
2584.000000	nan
2585.000000	nan
2586.000000	nan
2587.000000	nan
2588.000000	nan
2589.000000	nan
2590.000000	nan
2591.000000	nan
2592.000000	nan
2593.000000	nan
2594.000000	nan
2595.000000	nan
2596.000000	nan
2597.000000	nan
2598.000000	nan
2599.000000	nan
2600.000000	nan
2601.000000	nan
2602.000000	nan
2603.000000	nan
2604.000000	nan
2605.000000	nan
2606.000000	nan
2607.000000	nan
2608.000000	nan
2609.000000	nan
2610.000000	nan
2611.000000	nan
2612.000000	nan
2613.000000	nan
2614.000000	nan
2615.000000	nan
2616.000000	nan
2617.000000	nan
2618.000000	nan
2619.000000	nan
2620.000000	nan
2621.000000	nan
2622.000000	nan
2623.000000	nan
2624.000000	nan
2625.000000	nan
2626.000000	nan
2627.000000	nan
2628.000000	nan
2629.000000	nan
2630.000000	nan
2631.000000	nan
2632.000000	nan
2633.000000	nan
2634.000000	nan
2635.000000	nan
2636.000000	nan
2637.000000	nan
2638.000000	nan
2639.000000	nan
2640.000000	nan
2641.000000	nan
2642.000000	nan
2643.000000	nan
2644.000000	nan
2645.000000	nan
2646.000000	nan
2647.000000	nan
2648.000000	nan
2649.000000	nan
2650.000000	nan
2651.000000	nan
2652.000000	nan
2653.000000	nan
2654.000000	nan
2655.000000	nan
2656.000000	nan
2657.000000	nan
2658.000000	nan
2659.000000	nan
2660.000000	nan
2661.000000	nan
2662.000000	nan
2663.000000	nan
2664.000000	nan
2665.000000	nan
2666.000000	nan
2667.000000	nan
2668.000000	nan
2669.000000	nan
2670.000000	nan
2671.000000	nan
2672.000000	nan
2673.000000	nan
2674.000000	nan
2675.000000	nan
2676.000000	nan
2677.000000	nan
2678.000000	nan
2679.000000	nan
2680.000000	nan
2681.000000	nan
2682.000000	nan
2683.000000	nan
2684.000000	nan
2685.000000	nan
2686.000000	nan
2687.000000	nan
2688.000000	nan
2689.000000	nan
2690.000000	nan
2691.000000	nan
2692.000000	nan
2693.000000	nan
2694.000000	nan
2695.000000	nan
2696.000000	nan
2697.000000	nan
2698.000000	nan
2699.000000	nan
2700.000000	nan
2701.000000	nan
2702.000000	nan
2703.000000	nan
2704.000000	nan
2705.000000	nan
2706.000000	nan
2707.000000	nan
2708.000000	nan
2709.000000	nan
2710.000000	nan
2711.000000	nan
2712.000000	nan
2713.000000	nan
2714.000000	nan
2715.000000	nan
2716.000000	nan
2717.000000	nan
2718.000000	nan
2719.000000	nan
2720.000000	nan
2721.000000	nan
2722.000000	nan
2723.000000	nan
2724.000000	nan
2725.000000	nan
2726.000000	nan
2727.000000	nan
2728.000000	nan
2729.000000	nan
2730.000000	nan
2731.000000	nan
2732.000000	nan
2733.000000	nan
2734.000000	nan
2735.000000	nan
2736.000000	nan
2737.000000	nan
2738.000000	nan
2739.000000	nan
2740.000000	nan
2741.000000	nan
2742.000000	nan
2743.000000	nan
2744.000000	nan
2745.000000	nan
2746.000000	nan
2747.000000	nan
2748.000000	nan
2749.000000	nan
2750.000000	nan
2751.000000	nan
2752.000000	nan
2753.000000	nan
2754.000000	nan
2755.000000	nan
2756.000000	nan
2757.000000	nan
2758.000000	nan
2759.000000	nan
2760.000000	nan
2761.000000	nan
2762.000000	nan
2763.000000	nan
2764.000000	nan
2765.000000	nan
2766.000000	nan
2767.000000	nan
2768.000000	nan
2769.000000	nan
2770.000000	nan
2771.000000	nan
2772.000000	nan
2773.000000	nan
2774.000000	nan
2775.000000	nan
2776.000000	nan
2777.000000	nan
2778.000000	nan
2779.000000	nan
2780.000000	nan
2781.000000	nan
2782.000000	nan
2783.000000	nan
2784.000000	nan
2785.000000	nan
2786.000000	nan
2787.000000	nan
2788.000000	nan
2789.000000	nan
2790.000000	nan
2791.000000	nan
2792.000000	nan
2793.000000	nan
2794.000000	nan
2795.000000	nan
2796.000000	nan
2797.000000	nan
2798.000000	nan
2799.000000	nan
2800.000000	nan
2801.000000	nan
2802.000000	nan
2803.000000	nan
2804.000000	nan
2805.000000	nan
2806.000000	nan
2807.000000	nan
2808.000000	nan
2809.000000	nan
2810.000000	nan
2811.000000	nan
2812.000000	nan
2813.000000	nan
2814.000000	nan
2815.000000	nan
2816.000000	nan
2817.000000	nan
2818.000000	nan
2819.000000	nan
2820.000000	nan
2821.000000	nan
2822.000000	nan
2823.000000	nan
2824.000000	nan
2825.000000	nan
2826.000000	nan
2827.000000	nan
2828.000000	nan
2829.000000	nan
2830.000000	nan
2831.000000	nan
2832.000000	nan
2833.000000	nan
2834.000000	nan
2835.000000	nan
2836.000000	nan
2837.000000	nan
2838.000000	nan
2839.000000	nan
2840.000000	nan
2841.000000	nan
2842.000000	nan
2843.000000	nan
2844.000000	nan
2845.000000	nan
2846.000000	nan
2847.000000	nan
2848.000000	nan
2849.000000	nan
2850.000000	nan
2851.000000	nan
2852.000000	nan
2853.000000	nan
2854.000000	nan
2855.000000	nan
2856.000000	nan
2857.000000	nan
2858.000000	nan
2859.000000	nan
2860.000000	nan
2861.000000	nan
2862.000000	nan
2863.000000	nan
2864.000000	nan
2865.000000	nan
2866.000000	nan
2867.000000	nan
2868.000000	nan
2869.000000	nan
2870.000000	nan
2871.000000	nan
2872.000000	nan
2873.000000	nan
2874.000000	nan
2875.000000	nan
2876.000000	nan
2877.000000	nan
2878.000000	nan
2879.000000	nan
2880.000000	nan
2881.000000	nan
2882.000000	nan
2883.000000	nan
2884.000000	nan
2885.000000	nan
2886.000000	nan
2887.000000	nan
2888.000000	nan
2889.000000	nan
2890.000000	nan
2891.000000	nan
2892.000000	nan
2893.000000	nan
2894.000000	nan
2895.000000	nan
2896.000000	nan
2897.000000	nan
2898.000000	nan
2899.000000	nan
2900.000000	nan
2901.000000	nan
2902.000000	nan
2903.000000	nan
2904.000000	nan
2905.000000	nan
2906.000000	nan
2907.000000	nan
2908.000000	nan
2909.000000	nan
2910.000000	nan
2911.000000	nan
2912.000000	nan
2913.000000	nan
2914.000000	nan
2915.000000	nan
2916.000000	nan
2917.000000	nan
2918.000000	nan
2919.000000	nan
2920.000000	nan
2921.000000	nan
2922.000000	nan
2923.000000	nan
2924.000000	nan
2925.000000	nan
2926.000000	nan
2927.000000	nan
2928.000000	nan
2929.000000	nan
2930.000000	nan
2931.000000	nan
2932.000000	nan
2933.000000	nan
2934.000000	nan
2935.000000	nan
2936.000000	nan
2937.000000	nan
2938.000000	nan
2939.000000	nan
2940.000000	nan
2941.000000	nan
2942.000000	nan
2943.000000	nan
2944.000000	nan
2945.000000	nan
2946.000000	nan
2947.000000	nan
2948.000000	nan
2949.000000	nan
2950.000000	nan
2951.000000	nan
2952.000000	nan
2953.000000	nan
2954.000000	nan
2955.000000	nan
2956.000000	nan
2957.000000	nan
2958.000000	nan
2959.000000	nan
2960.000000	nan
2961.000000	nan
2962.000000	nan
2963.000000	nan
2964.000000	nan
2965.000000	nan
2966.000000	nan
2967.000000	nan
2968.000000	nan
2969.000000	nan
2970.000000	nan
2971.000000	nan
2972.000000	nan
2973.000000	nan
2974.000000	nan
2975.000000	nan
2976.000000	nan
2977.000000	nan
2978.000000	nan
2979.000000	nan
2980.000000	nan
2981.000000	nan
2982.000000	nan
2983.000000	nan
2984.000000	nan
2985.000000	nan
2986.000000	nan
2987.000000	nan
2988.000000	nan
2989.000000	nan
2990.000000	nan
2991.000000	nan
2992.000000	nan
2993.000000	nan
2994.000000	nan
2995.000000	nan
2996.000000	nan
2997.000000	nan
2998.000000	nan
2999.000000	nan
3000.000000	nan
