PE UV       SUBTECH     SPECTRUM    ASCII       PEDS        4.00        
   -1
INBUCR0212-4.Sample.ASC
24/02/07
16:24:58.00
24/02/07
16:24:58.00
Vinicio Soto Monge
Chrysina boucardi. Escarabajo grande, falta élitro derecho, cobrizo morado.Det: A. Solís Costa Rica, Prov Limón. P.I La Amistad Caribe Camp 1: Río Lori, Transecto 2. 1800 m - 1900 m 17 Feb 2007 B Gamboa M. Moraga Tp Luz #90738. INB0004065610 
250,000000
1
Lambda 1050
1050L1511233
PerkinElmer UV WinLab 6.3.2.0749 / 2.02.05 Lambda 900 UV/VIS/NIR, Aug  7 2015 09:38:08

0
0
3350/servo 860,8/2
0
0
UV/VIS
1
1
1
DoubleDePol,CommonBeamDepol,RBeamAtt,SBeamAtt,60mm sphere, WB InGaAs Detector
0
0
0
0
Program
Program
3350/servo 860,8/2
3350/0,2 860,8/0,2
3350/0,2 860,8/0,2
0
15.00
 
 
 
0
 
860,8
319,2
860,8
Front
100
on
S:100 R:100
0
0
0
0
 
0
 
 
 
0
 
 
0
0
0
0
0
 
 
 
 
0
0


0
0
#HDR
-1
-1
#GR
nm
%R
1.0
0.0
2500,000000
-1,000000
2251
8
14,823900
1,175300
#DATA

250.000000	2.681246
251.000000	2.652179
252.000000	2.635054
253.000000	2.633248
254.000000	2.623710
255.000000	2.634710
256.000000	2.618471
257.000000	2.618009
258.000000	2.582424
259.000000	2.579834
260.000000	2.562445
261.000000	2.562205
262.000000	2.558641
263.000000	2.546592
264.000000	2.515555
265.000000	2.524349
266.000000	2.512658
267.000000	2.497584
268.000000	2.492347
269.000000	2.489334
270.000000	2.463963
271.000000	2.465361
272.000000	2.452907
273.000000	2.447790
274.000000	2.461354
275.000000	2.439964
276.000000	2.443319
277.000000	2.421320
278.000000	2.421576
279.000000	2.429250
280.000000	2.428404
281.000000	2.422047
282.000000	2.424705
283.000000	2.419514
284.000000	2.428034
285.000000	2.431520
286.000000	2.435101
287.000000	2.405435
288.000000	2.407434
289.000000	2.410498
290.000000	2.405073
291.000000	2.427382
292.000000	2.402037
293.000000	2.420835
294.000000	2.407965
295.000000	2.408857
296.000000	2.406956
297.000000	2.407471
298.000000	2.398285
299.000000	2.409215
300.000000	2.420018
301.000000	2.421852
302.000000	2.414108
303.000000	2.389120
304.000000	2.388118
305.000000	2.392394
306.000000	2.384932
307.000000	2.405307
308.000000	2.415225
309.000000	2.406712
310.000000	2.408573
311.000000	2.407961
312.000000	2.388174
313.000000	2.392670
314.000000	2.381122
315.000000	2.413273
316.000000	2.367119
317.000000	2.366450
318.000000	2.477724
319.000000	2.464056
320.000000	2.440759
321.000000	2.472079
322.000000	2.365692
323.000000	2.415756
324.000000	2.479154
325.000000	2.451204
326.000000	2.419254
327.000000	2.360856
328.000000	2.348127
329.000000	2.427364
330.000000	2.407918
331.000000	2.463168
332.000000	2.367646
333.000000	2.444358
334.000000	2.419602
335.000000	2.470072
336.000000	2.449904
337.000000	2.442250
338.000000	2.447358
339.000000	2.419955
340.000000	2.454995
341.000000	2.434312
342.000000	2.451039
343.000000	2.471121
344.000000	2.485436
345.000000	2.482672
346.000000	2.467159
347.000000	2.491793
348.000000	2.500807
349.000000	2.529955
350.000000	2.548578
351.000000	2.580902
352.000000	2.612277
353.000000	2.660591
354.000000	2.700638
355.000000	2.781490
356.000000	2.822720
357.000000	2.872086
358.000000	2.984162
359.000000	3.062366
360.000000	3.192508
361.000000	3.308529
362.000000	3.454638
363.000000	3.578926
364.000000	3.752916
365.000000	3.901310
366.000000	4.151433
367.000000	4.376401
368.000000	4.624868
369.000000	4.890097
370.000000	5.089890
371.000000	5.389624
372.000000	5.708185
373.000000	6.004722
374.000000	6.254062
375.000000	6.518929
376.000000	6.953928
377.000000	7.692028
378.000000	7.985697
379.000000	8.296318
380.000000	8.583689
381.000000	8.858663
382.000000	9.143045
383.000000	9.399440
384.000000	9.629543
385.000000	9.877171
386.000000	10.096918
387.000000	10.319780
388.000000	10.527842
389.000000	10.729065
390.000000	10.925527
391.000000	11.107708
392.000000	11.295812
393.000000	11.479186
394.000000	11.659696
395.000000	11.819522
396.000000	11.979391
397.000000	12.113638
398.000000	12.259215
399.000000	12.401498
400.000000	12.529255
401.000000	12.650100
402.000000	12.773161
403.000000	12.884836
404.000000	12.985263
405.000000	13.079986
406.000000	13.149728
407.000000	13.218811
408.000000	13.245363
409.000000	13.283411
410.000000	13.306590
411.000000	13.310259
412.000000	13.292293
413.000000	13.265765
414.000000	13.234323
415.000000	13.174292
416.000000	13.106659
417.000000	13.037224
418.000000	12.959934
419.000000	12.887182
420.000000	12.799273
421.000000	12.719083
422.000000	12.660482
423.000000	12.611861
424.000000	12.591853
425.000000	12.593741
426.000000	12.601813
427.000000	12.635369
428.000000	12.700691
429.000000	12.780469
430.000000	12.885478
431.000000	12.992441
432.000000	13.091693
433.000000	13.197483
434.000000	13.295163
435.000000	13.380272
436.000000	13.455392
437.000000	13.503188
438.000000	13.515973
439.000000	13.525615
440.000000	13.516028
441.000000	13.469304
442.000000	13.408249
443.000000	13.338798
444.000000	13.256521
445.000000	13.158649
446.000000	13.045578
447.000000	12.932432
448.000000	12.820369
449.000000	12.694713
450.000000	12.571605
451.000000	12.472550
452.000000	12.389013
453.000000	12.307775
454.000000	12.226353
455.000000	12.162748
456.000000	12.117305
457.000000	12.074512
458.000000	12.041524
459.000000	12.005833
460.000000	11.971346
461.000000	11.952189
462.000000	11.933417
463.000000	11.905193
464.000000	11.874919
465.000000	11.848558
466.000000	11.824553
467.000000	11.795890
468.000000	11.760794
469.000000	11.732702
470.000000	11.723723
471.000000	11.714484
472.000000	11.696797
473.000000	11.691411
474.000000	11.696746
475.000000	11.710787
476.000000	11.730294
477.000000	11.742417
478.000000	11.762833
479.000000	11.795459
480.000000	11.833585
481.000000	11.877045
482.000000	11.920785
483.000000	11.966030
484.000000	12.014390
485.000000	12.058339
486.000000	12.098000
487.000000	12.138643
488.000000	12.175166
489.000000	12.201095
490.000000	12.221600
491.000000	12.231063
492.000000	12.241186
493.000000	12.247823
494.000000	12.237067
495.000000	12.213655
496.000000	12.195798
497.000000	12.163354
498.000000	12.127130
499.000000	12.090903
500.000000	12.047820
501.000000	12.026413
502.000000	11.999878
503.000000	11.980690
504.000000	11.974720
505.000000	11.983492
506.000000	12.004196
507.000000	12.036205
508.000000	12.073867
509.000000	12.125417
510.000000	12.205144
511.000000	12.291764
512.000000	12.396900
513.000000	12.527150
514.000000	12.677239
515.000000	12.831115
516.000000	12.998632
517.000000	13.175282
518.000000	13.343458
519.000000	13.509533
520.000000	13.684033
521.000000	13.843633
522.000000	14.004346
523.000000	14.157152
524.000000	14.322930
525.000000	14.490449
526.000000	14.659110
527.000000	14.830066
528.000000	15.032075
529.000000	15.251446
530.000000	15.493214
531.000000	15.749602
532.000000	16.022205
533.000000	16.296787
534.000000	16.580484
535.000000	16.862804
536.000000	17.132154
537.000000	17.396521
538.000000	17.646511
539.000000	17.891836
540.000000	18.116327
541.000000	18.328085
542.000000	18.531400
543.000000	18.719661
544.000000	18.896046
545.000000	19.050232
546.000000	19.189129
547.000000	19.318013
548.000000	19.429070
549.000000	19.522488
550.000000	19.612599
551.000000	19.683390
552.000000	19.752317
553.000000	19.824530
554.000000	19.881537
555.000000	19.911100
556.000000	19.957700
557.000000	19.996066
558.000000	20.013119
559.000000	20.031912
560.000000	20.095885
561.000000	20.093893
562.000000	20.102320
563.000000	20.105063
564.000000	20.096769
565.000000	20.100341
566.000000	20.099751
567.000000	20.103473
568.000000	20.121633
569.000000	20.121215
570.000000	20.131485
571.000000	20.145665
572.000000	20.154165
573.000000	20.170260
574.000000	20.161408
575.000000	20.178086
576.000000	20.181579
577.000000	20.185410
578.000000	20.160844
579.000000	20.156603
580.000000	20.116642
581.000000	20.094724
582.000000	20.058919
583.000000	20.015045
584.000000	19.966537
585.000000	19.904635
586.000000	19.854398
587.000000	19.793812
588.000000	19.737890
589.000000	19.697775
590.000000	19.639723
591.000000	19.606630
592.000000	19.580812
593.000000	19.580010
594.000000	19.554886
595.000000	19.524318
596.000000	19.493291
597.000000	19.448241
598.000000	19.401551
599.000000	19.336863
600.000000	19.255377
601.000000	19.140259
602.000000	19.056333
603.000000	18.926837
604.000000	18.806393
605.000000	18.683552
606.000000	18.569243
607.000000	18.474910
608.000000	18.379381
609.000000	18.300792
610.000000	18.217373
611.000000	18.118378
612.000000	18.017547
613.000000	17.901440
614.000000	17.761908
615.000000	17.619706
616.000000	17.463626
617.000000	17.301045
618.000000	17.142872
619.000000	16.976491
620.000000	16.808422
621.000000	16.655396
622.000000	16.511693
623.000000	16.372638
624.000000	16.265057
625.000000	16.173649
626.000000	16.109614
627.000000	16.048221
628.000000	15.980405
629.000000	15.934475
630.000000	15.905510
631.000000	15.878914
632.000000	15.837973
633.000000	15.800986
634.000000	15.755280
635.000000	15.716170
636.000000	15.674210
637.000000	15.625412
638.000000	15.575193
639.000000	15.535322
640.000000	15.485885
641.000000	15.425737
642.000000	15.413894
643.000000	15.374426
644.000000	15.356947
645.000000	15.345640
646.000000	15.330296
647.000000	15.339332
648.000000	15.340528
649.000000	15.340556
650.000000	15.357632
651.000000	15.359253
652.000000	15.385275
653.000000	15.409914
654.000000	15.435000
655.000000	15.473644
656.000000	15.520983
657.000000	15.569187
658.000000	15.639177
659.000000	15.704318
660.000000	15.797910
661.000000	15.880590
662.000000	15.962758
663.000000	16.069761
664.000000	16.149703
665.000000	16.242442
666.000000	16.325821
667.000000	16.421045
668.000000	16.488612
669.000000	16.572934
670.000000	16.654358
671.000000	16.745164
672.000000	16.850030
673.000000	16.934334
674.000000	17.017973
675.000000	17.130433
676.000000	17.235644
677.000000	17.359058
678.000000	17.467838
679.000000	17.586375
680.000000	17.696646
681.000000	17.848832
682.000000	17.965403
683.000000	18.073435
684.000000	18.201721
685.000000	18.300864
686.000000	18.399700
687.000000	18.484996
688.000000	18.602066
689.000000	18.700839
690.000000	18.804991
691.000000	18.920212
692.000000	19.007041
693.000000	19.110485
694.000000	19.214127
695.000000	19.316228
696.000000	19.425324
697.000000	19.517555
698.000000	19.586496
699.000000	19.679541
700.000000	19.764889
701.000000	19.829506
702.000000	19.884940
703.000000	19.947012
704.000000	20.021631
705.000000	20.086347
706.000000	20.162473
707.000000	20.226982
708.000000	20.300687
709.000000	20.376024
710.000000	20.460348
711.000000	20.557901
712.000000	20.632939
713.000000	20.685547
714.000000	20.748745
715.000000	20.815132
716.000000	20.883139
717.000000	20.954510
718.000000	21.011252
719.000000	21.060346
720.000000	21.117039
721.000000	21.188516
722.000000	21.250603
723.000000	21.325382
724.000000	21.388658
725.000000	21.450494
726.000000	21.530594
727.000000	21.630498
728.000000	21.713182
729.000000	21.778888
730.000000	21.856349
731.000000	21.932411
732.000000	22.003936
733.000000	22.072120
734.000000	22.142668
735.000000	22.206307
736.000000	22.253330
737.000000	22.324198
738.000000	22.398951
739.000000	22.470674
740.000000	22.550030
741.000000	22.611297
742.000000	22.680131
743.000000	22.768884
744.000000	22.838153
745.000000	22.912501
746.000000	23.012101
747.000000	23.076546
748.000000	23.148885
749.000000	23.229099
750.000000	23.289340
751.000000	23.340928
752.000000	23.383748
753.000000	23.444615
754.000000	23.505287
755.000000	23.566925
756.000000	23.629566
757.000000	23.698799
758.000000	23.795538
759.000000	23.867410
760.000000	23.927047
761.000000	24.003655
762.000000	24.075925
763.000000	24.151578
764.000000	24.244442
765.000000	24.300328
766.000000	24.350288
767.000000	24.397008
768.000000	24.466150
769.000000	24.524078
770.000000	24.593802
771.000000	24.663355
772.000000	24.690912
773.000000	24.761264
774.000000	24.842872
775.000000	24.894576
776.000000	24.969991
777.000000	25.060344
778.000000	25.120284
779.000000	25.170375
780.000000	25.251126
781.000000	25.281705
782.000000	25.346427
783.000000	25.427451
784.000000	25.484342
785.000000	25.536314
786.000000	25.604583
787.000000	25.661969
788.000000	25.697310
789.000000	25.740353
790.000000	25.816231
791.000000	25.909739
792.000000	25.916610
793.000000	25.976776
794.000000	26.031568
795.000000	26.082037
796.000000	26.158203
797.000000	26.231953
798.000000	26.302051
799.000000	26.366379
800.000000	26.439491
801.000000	26.494988
802.000000	26.555883
803.000000	26.655783
804.000000	26.690740
805.000000	26.750647
806.000000	26.808837
807.000000	26.870440
808.000000	26.901292
809.000000	26.978512
810.000000	27.045838
811.000000	27.094377
812.000000	27.126141
813.000000	27.203499
814.000000	27.289460
815.000000	27.322416
816.000000	27.402200
817.000000	27.448194
818.000000	27.483672
819.000000	27.560001
820.000000	27.621128
821.000000	27.740967
822.000000	27.790797
823.000000	27.835712
824.000000	27.958001
825.000000	27.989813
826.000000	27.998568
827.000000	28.081321
828.000000	28.113274
829.000000	28.195653
830.000000	28.204718
831.000000	28.307355
832.000000	28.414437
833.000000	28.467638
834.000000	28.508954
835.000000	28.592825
836.000000	28.658687
837.000000	28.630199
838.000000	28.722127
839.000000	28.806683
840.000000	28.913257
841.000000	28.921693
842.000000	28.993651
843.000000	28.964549
844.000000	29.041848
845.000000	29.208397
846.000000	29.267179
847.000000	29.402800
848.000000	29.195535
849.000000	29.201887
850.000000	29.441222
851.000000	29.422937
852.000000	29.574648
853.000000	29.640108
854.000000	29.448381
855.000000	29.688071
856.000000	29.697471
857.000000	29.878611
858.000000	32.602193
859.000000	30.331441
860.000000	30.507349
861.000000	30.388241
862.000000	30.517659
863.000000	30.420531
864.000000	30.459642
865.000000	30.347719
866.000000	30.425436
867.000000	30.407124
868.000000	30.615003
869.000000	30.444054
870.000000	30.404434
871.000000	30.329028
872.000000	30.359481
873.000000	30.417222
874.000000	30.341935
875.000000	30.449340
876.000000	30.498006
877.000000	30.473287
878.000000	30.432330
879.000000	30.503139
880.000000	30.200714
881.000000	30.308898
882.000000	30.249306
883.000000	30.241116
884.000000	30.327473
885.000000	30.377401
886.000000	30.393030
887.000000	30.391290
888.000000	30.377885
889.000000	30.333277
890.000000	30.277554
891.000000	30.200445
892.000000	30.177920
893.000000	30.213014
894.000000	30.198867
895.000000	30.193371
896.000000	30.211446
897.000000	30.224384
898.000000	30.219036
899.000000	30.178233
900.000000	30.098779
901.000000	30.079879
902.000000	30.036854
903.000000	30.045707
904.000000	30.027954
905.000000	30.063776
906.000000	30.063236
907.000000	30.035916
908.000000	30.032528
909.000000	29.966327
910.000000	29.920504
911.000000	29.910263
912.000000	29.846213
913.000000	29.900557
914.000000	29.882919
915.000000	29.893351
916.000000	29.855325
917.000000	29.852255
918.000000	29.819535
919.000000	29.792609
920.000000	29.771131
921.000000	29.743717
922.000000	29.713489
923.000000	29.643666
924.000000	29.674044
925.000000	29.675027
926.000000	29.650189
927.000000	29.613716
928.000000	29.615431
929.000000	29.598257
930.000000	29.571589
931.000000	29.514197
932.000000	29.469059
933.000000	29.441731
934.000000	29.436350
935.000000	29.387855
936.000000	29.369984
937.000000	29.341474
938.000000	29.300506
939.000000	29.269038
940.000000	29.249253
941.000000	29.204852
942.000000	29.194697
943.000000	29.159630
944.000000	29.128511
945.000000	29.110506
946.000000	29.080215
947.000000	29.062125
948.000000	29.030018
949.000000	28.991205
950.000000	28.970491
951.000000	28.937313
952.000000	28.920750
953.000000	28.920693
954.000000	28.881746
955.000000	28.857323
956.000000	28.818365
957.000000	28.786159
958.000000	28.751989
959.000000	28.717255
960.000000	28.691245
961.000000	28.664299
962.000000	28.644892
963.000000	28.618479
964.000000	28.593159
965.000000	28.564050
966.000000	28.542841
967.000000	28.526915
968.000000	28.504322
969.000000	28.461348
970.000000	28.402106
971.000000	28.376820
972.000000	28.372956
973.000000	28.373000
974.000000	28.356577
975.000000	28.340971
976.000000	28.308734
977.000000	28.284749
978.000000	28.277673
979.000000	28.245151
980.000000	28.210047
981.000000	28.186149
982.000000	28.179641
983.000000	28.186252
984.000000	28.172908
985.000000	28.155604
986.000000	28.132598
987.000000	28.117407
988.000000	28.103129
989.000000	28.095666
990.000000	28.088048
991.000000	28.078692
992.000000	28.064762
993.000000	28.058894
994.000000	28.058741
995.000000	28.051625
996.000000	28.054133
997.000000	28.051539
998.000000	28.035747
999.000000	28.016605
1000.000000	28.009660
1001.000000	28.014016
1002.000000	28.011007
1003.000000	28.020122
1004.000000	28.017275
1005.000000	28.000213
1006.000000	27.991555
1007.000000	27.999819
1008.000000	27.987659
1009.000000	27.983278
1010.000000	27.979343
1011.000000	27.971534
1012.000000	27.980927
1013.000000	27.994844
1014.000000	27.996907
1015.000000	27.995686
1016.000000	27.999923
1017.000000	28.001991
1018.000000	28.010010
1019.000000	28.018776
1020.000000	28.031486
1021.000000	28.036567
1022.000000	28.043084
1023.000000	28.066025
1024.000000	28.061828
1025.000000	28.077406
1026.000000	28.089210
1027.000000	28.086814
1028.000000	28.094814
1029.000000	28.110458
1030.000000	28.130710
1031.000000	28.140334
1032.000000	28.160137
1033.000000	28.175913
1034.000000	28.181170
1035.000000	28.192701
1036.000000	28.205628
1037.000000	28.223662
1038.000000	28.244951
1039.000000	28.254188
1040.000000	28.255052
1041.000000	28.269894
1042.000000	28.282466
1043.000000	28.295464
1044.000000	28.311158
1045.000000	28.322954
1046.000000	28.334273
1047.000000	28.353730
1048.000000	28.372493
1049.000000	28.381424
1050.000000	28.396833
1051.000000	28.420756
1052.000000	28.432901
1053.000000	28.457803
1054.000000	28.475683
1055.000000	28.492949
1056.000000	28.502791
1057.000000	28.521460
1058.000000	28.543195
1059.000000	28.554159
1060.000000	28.560113
1061.000000	28.583511
1062.000000	28.601523
1063.000000	28.617721
1064.000000	28.633488
1065.000000	28.655398
1066.000000	28.671329
1067.000000	28.680555
1068.000000	28.690039
1069.000000	28.716714
1070.000000	28.730447
1071.000000	28.740553
1072.000000	28.754466
1073.000000	28.769966
1074.000000	28.794730
1075.000000	28.815849
1076.000000	28.830101
1077.000000	28.841619
1078.000000	28.856885
1079.000000	28.872350
1080.000000	28.875601
1081.000000	28.897164
1082.000000	28.919614
1083.000000	28.942767
1084.000000	28.956680
1085.000000	28.972927
1086.000000	28.990455
1087.000000	29.008513
1088.000000	29.009484
1089.000000	29.014989
1090.000000	29.039069
1091.000000	29.049391
1092.000000	29.065868
1093.000000	29.078555
1094.000000	29.086376
1095.000000	29.104648
1096.000000	29.116613
1097.000000	29.123995
1098.000000	29.137857
1099.000000	29.147934
1100.000000	29.137912
1101.000000	29.148943
1102.000000	29.149754
1103.000000	29.169851
1104.000000	29.187963
1105.000000	29.188971
1106.000000	29.224781
1107.000000	29.228404
1108.000000	29.225361
1109.000000	29.242283
1110.000000	29.231133
1111.000000	29.225773
1112.000000	29.242075
1113.000000	29.247558
1114.000000	29.245058
1115.000000	29.248243
1116.000000	29.262097
1117.000000	29.254481
1118.000000	29.249268
1119.000000	29.252378
1120.000000	29.255845
1121.000000	29.274681
1122.000000	29.250871
1123.000000	29.239858
1124.000000	29.229628
1125.000000	29.223580
1126.000000	29.199237
1127.000000	29.178648
1128.000000	29.140816
1129.000000	29.097009
1130.000000	29.070247
1131.000000	29.044907
1132.000000	29.014996
1133.000000	28.977341
1134.000000	28.931303
1135.000000	28.885768
1136.000000	28.857731
1137.000000	28.813102
1138.000000	28.773604
1139.000000	28.726621
1140.000000	28.688296
1141.000000	28.673126
1142.000000	28.641551
1143.000000	28.613216
1144.000000	28.604100
1145.000000	28.576834
1146.000000	28.528790
1147.000000	28.511610
1148.000000	28.463084
1149.000000	28.435432
1150.000000	28.400820
1151.000000	28.365752
1152.000000	28.319872
1153.000000	28.282430
1154.000000	28.237876
1155.000000	28.187097
1156.000000	28.143267
1157.000000	28.099900
1158.000000	28.048531
1159.000000	27.999238
1160.000000	27.917352
1161.000000	27.858762
1162.000000	27.797995
1163.000000	27.745074
1164.000000	27.705513
1165.000000	27.659049
1166.000000	27.598720
1167.000000	27.548917
1168.000000	27.514394
1169.000000	27.449737
1170.000000	27.404006
1171.000000	27.365604
1172.000000	27.319600
1173.000000	27.279994
1174.000000	27.264432
1175.000000	27.237245
1176.000000	27.216395
1177.000000	27.184141
1178.000000	27.165907
1179.000000	27.134679
1180.000000	27.125806
1181.000000	27.116208
1182.000000	27.094300
1183.000000	27.096203
1184.000000	27.098776
1185.000000	27.103966
1186.000000	27.120219
1187.000000	27.135639
1188.000000	27.129518
1189.000000	27.157593
1190.000000	27.188393
1191.000000	27.212538
1192.000000	27.256691
1193.000000	27.279251
1194.000000	27.305464
1195.000000	27.348732
1196.000000	27.377987
1197.000000	27.408264
1198.000000	27.448789
1199.000000	27.482701
1200.000000	27.514379
1201.000000	27.548685
1202.000000	27.588096
1203.000000	27.623089
1204.000000	27.646200
1205.000000	27.662877
1206.000000	27.704826
1207.000000	27.734328
1208.000000	27.758287
1209.000000	27.776243
1210.000000	27.799572
1211.000000	27.833168
1212.000000	27.854413
1213.000000	27.870723
1214.000000	27.881871
1215.000000	27.905584
1216.000000	27.940424
1217.000000	27.960710
1218.000000	27.980535
1219.000000	28.007559
1220.000000	28.018371
1221.000000	28.040933
1222.000000	28.062381
1223.000000	28.086037
1224.000000	28.101598
1225.000000	28.124919
1226.000000	28.149181
1227.000000	28.167754
1228.000000	28.187668
1229.000000	28.221585
1230.000000	28.253757
1231.000000	28.273291
1232.000000	28.303134
1233.000000	28.326759
1234.000000	28.347540
1235.000000	28.374949
1236.000000	28.396552
1237.000000	28.419333
1238.000000	28.449837
1239.000000	28.476424
1240.000000	28.500682
1241.000000	28.540088
1242.000000	28.566232
1243.000000	28.583410
1244.000000	28.605742
1245.000000	28.637232
1246.000000	28.670600
1247.000000	28.689692
1248.000000	28.710688
1249.000000	28.742913
1250.000000	28.750813
1251.000000	28.751981
1252.000000	28.766430
1253.000000	28.790332
1254.000000	28.794720
1255.000000	28.799506
1256.000000	28.809172
1257.000000	28.807746
1258.000000	28.816250
1259.000000	28.817104
1260.000000	28.820775
1261.000000	28.822076
1262.000000	28.826150
1263.000000	28.827687
1264.000000	28.824997
1265.000000	28.827159
1266.000000	28.835286
1267.000000	28.845881
1268.000000	28.852252
1269.000000	28.861203
1270.000000	28.863163
1271.000000	28.870676
1272.000000	28.872429
1273.000000	28.879246
1274.000000	28.879578
1275.000000	28.879137
1276.000000	28.892367
1277.000000	28.901229
1278.000000	28.915278
1279.000000	28.939377
1280.000000	28.957771
1281.000000	28.977207
1282.000000	28.992069
1283.000000	29.001592
1284.000000	29.010007
1285.000000	29.021886
1286.000000	29.040922
1287.000000	29.058565
1288.000000	29.076477
1289.000000	29.093354
1290.000000	29.097643
1291.000000	29.109453
1292.000000	29.121898
1293.000000	29.129471
1294.000000	29.130911
1295.000000	29.120735
1296.000000	29.114988
1297.000000	29.127550
1298.000000	29.131782
1299.000000	29.133565
1300.000000	29.133967
1301.000000	29.134849
1302.000000	29.129434
1303.000000	29.119637
1304.000000	29.113226
1305.000000	29.105763
1306.000000	29.095265
1307.000000	29.080455
1308.000000	29.070861
1309.000000	29.066800
1310.000000	29.051340
1311.000000	29.033490
1312.000000	29.021823
1313.000000	29.006494
1314.000000	28.996082
1315.000000	28.974682
1316.000000	28.960159
1317.000000	28.950678
1318.000000	28.927912
1319.000000	28.905124
1320.000000	28.888924
1321.000000	28.865814
1322.000000	28.845764
1323.000000	28.828901
1324.000000	28.798674
1325.000000	28.768200
1326.000000	28.730680
1327.000000	28.689085
1328.000000	28.657789
1329.000000	28.623184
1330.000000	28.573246
1331.000000	28.534407
1332.000000	28.486567
1333.000000	28.439736
1334.000000	28.386139
1335.000000	28.331051
1336.000000	28.262901
1337.000000	28.204390
1338.000000	28.143119
1339.000000	28.072668
1340.000000	28.002535
1341.000000	27.928109
1342.000000	27.847516
1343.000000	27.769544
1344.000000	27.674828
1345.000000	27.607888
1346.000000	27.524543
1347.000000	27.430419
1348.000000	27.342816
1349.000000	27.266802
1350.000000	27.185522
1351.000000	27.108015
1352.000000	27.043774
1353.000000	26.968603
1354.000000	26.893531
1355.000000	26.830045
1356.000000	26.777534
1357.000000	26.737060
1358.000000	26.713244
1359.000000	26.693341
1360.000000	26.636459
1361.000000	26.542124
1362.000000	26.481367
1363.000000	26.450232
1364.000000	26.395189
1365.000000	26.338562
1366.000000	26.293884
1367.000000	26.232387
1368.000000	26.145743
1369.000000	26.079066
1370.000000	25.995028
1371.000000	25.873893
1372.000000	25.760828
1373.000000	25.654625
1374.000000	25.538558
1375.000000	25.410086
1376.000000	25.300563
1377.000000	25.199352
1378.000000	25.125560
1379.000000	25.011037
1380.000000	24.932496
1381.000000	24.801178
1382.000000	24.657128
1383.000000	24.537253
1384.000000	24.440894
1385.000000	24.350008
1386.000000	24.260297
1387.000000	24.142371
1388.000000	24.007095
1389.000000	23.911020
1390.000000	23.834041
1391.000000	23.702550
1392.000000	23.562443
1393.000000	23.475815
1394.000000	23.353452
1395.000000	23.178053
1396.000000	23.035790
1397.000000	22.925830
1398.000000	22.835298
1399.000000	22.660199
1400.000000	22.480315
1401.000000	22.299540
1402.000000	22.194163
1403.000000	22.041276
1404.000000	21.868799
1405.000000	21.701858
1406.000000	21.545450
1407.000000	21.387661
1408.000000	21.226159
1409.000000	21.026655
1410.000000	20.888984
1411.000000	20.730008
1412.000000	20.602114
1413.000000	20.455005
1414.000000	20.285790
1415.000000	20.165535
1416.000000	20.054231
1417.000000	19.927719
1418.000000	19.795897
1419.000000	19.662434
1420.000000	19.546477
1421.000000	19.461431
1422.000000	19.354164
1423.000000	19.254973
1424.000000	19.166029
1425.000000	19.076450
1426.000000	18.997390
1427.000000	18.910871
1428.000000	18.837091
1429.000000	18.755786
1430.000000	18.691582
1431.000000	18.616922
1432.000000	18.551996
1433.000000	18.486442
1434.000000	18.430467
1435.000000	18.371585
1436.000000	18.318474
1437.000000	18.251896
1438.000000	18.191076
1439.000000	18.153599
1440.000000	18.102680
1441.000000	18.042249
1442.000000	18.008639
1443.000000	17.966739
1444.000000	17.921127
1445.000000	17.855200
1446.000000	17.789296
1447.000000	17.756747
1448.000000	17.719421
1449.000000	17.670978
1450.000000	17.616716
1451.000000	17.571403
1452.000000	17.523968
1453.000000	17.473606
1454.000000	17.456552
1455.000000	17.399130
1456.000000	17.356152
1457.000000	17.311078
1458.000000	17.269859
1459.000000	17.222490
1460.000000	17.185602
1461.000000	17.150352
1462.000000	17.103943
1463.000000	17.065740
1464.000000	17.035463
1465.000000	16.985907
1466.000000	16.960697
1467.000000	16.927175
1468.000000	16.875331
1469.000000	16.852493
1470.000000	16.811910
1471.000000	16.792550
1472.000000	16.759664
1473.000000	16.723282
1474.000000	16.701056
1475.000000	16.672628
1476.000000	16.650037
1477.000000	16.628852
1478.000000	16.597461
1479.000000	16.577564
1480.000000	16.557935
1481.000000	16.547123
1482.000000	16.533650
1483.000000	16.524730
1484.000000	16.521523
1485.000000	16.508405
1486.000000	16.501614
1487.000000	16.488243
1488.000000	16.475872
1489.000000	16.467272
1490.000000	16.459327
1491.000000	16.460658
1492.000000	16.468808
1493.000000	16.471758
1494.000000	16.468834
1495.000000	16.469509
1496.000000	16.465487
1497.000000	16.478345
1498.000000	16.507483
1499.000000	16.528754
1500.000000	16.542826
1501.000000	16.580295
1502.000000	16.596596
1503.000000	16.623027
1504.000000	16.653659
1505.000000	16.680536
1506.000000	16.713743
1507.000000	16.741947
1508.000000	16.777505
1509.000000	16.818977
1510.000000	16.855695
1511.000000	16.894690
1512.000000	16.927412
1513.000000	16.965847
1514.000000	16.993214
1515.000000	17.029798
1516.000000	17.063186
1517.000000	17.096026
1518.000000	17.132942
1519.000000	17.176264
1520.000000	17.211921
1521.000000	17.245826
1522.000000	17.273040
1523.000000	17.300434
1524.000000	17.329150
1525.000000	17.363437
1526.000000	17.400701
1527.000000	17.437794
1528.000000	17.467860
1529.000000	17.492005
1530.000000	17.516639
1531.000000	17.538464
1532.000000	17.572392
1533.000000	17.606517
1534.000000	17.627386
1535.000000	17.657071
1536.000000	17.682916
1537.000000	17.709371
1538.000000	17.738100
1539.000000	17.762941
1540.000000	17.794221
1541.000000	17.817585
1542.000000	17.836407
1543.000000	17.864007
1544.000000	17.897206
1545.000000	17.933675
1546.000000	17.966150
1547.000000	17.995657
1548.000000	18.028687
1549.000000	18.065240
1550.000000	18.093487
1551.000000	18.123292
1552.000000	18.145316
1553.000000	18.168163
1554.000000	18.199530
1555.000000	18.224726
1556.000000	18.244167
1557.000000	18.260146
1558.000000	18.274161
1559.000000	18.287415
1560.000000	18.296467
1561.000000	18.301472
1562.000000	18.302150
1563.000000	18.312563
1564.000000	18.310930
1565.000000	18.311510
1566.000000	18.308645
1567.000000	18.308695
1568.000000	18.308262
1569.000000	18.311490
1570.000000	18.307204
1571.000000	18.316040
1572.000000	18.316822
1573.000000	18.310225
1574.000000	18.314844
1575.000000	18.316806
1576.000000	18.333028
1577.000000	18.342177
1578.000000	18.358752
1579.000000	18.375732
1580.000000	18.391990
1581.000000	18.415072
1582.000000	18.424627
1583.000000	18.429023
1584.000000	18.464275
1585.000000	18.488786
1586.000000	18.503801
1587.000000	18.527383
1588.000000	18.558803
1589.000000	18.588147
1590.000000	18.616799
1591.000000	18.645432
1592.000000	18.676361
1593.000000	18.704004
1594.000000	18.749434
1595.000000	18.782180
1596.000000	18.801987
1597.000000	18.840319
1598.000000	18.880286
1599.000000	18.909921
1600.000000	18.941366
1601.000000	18.981720
1602.000000	19.020871
1603.000000	19.062155
1604.000000	19.092915
1605.000000	19.130599
1606.000000	19.166495
1607.000000	19.195640
1608.000000	19.235800
1609.000000	19.267749
1610.000000	19.294432
1611.000000	19.329876
1612.000000	19.374398
1613.000000	19.390969
1614.000000	19.417431
1615.000000	19.437478
1616.000000	19.459948
1617.000000	19.481625
1618.000000	19.503150
1619.000000	19.527314
1620.000000	19.557535
1621.000000	19.573439
1622.000000	19.601434
1623.000000	19.627503
1624.000000	19.645502
1625.000000	19.654676
1626.000000	19.664756
1627.000000	19.678869
1628.000000	19.703702
1629.000000	19.717646
1630.000000	19.737263
1631.000000	19.754116
1632.000000	19.776160
1633.000000	19.790438
1634.000000	19.813531
1635.000000	19.805210
1636.000000	19.803433
1637.000000	19.826085
1638.000000	19.833187
1639.000000	19.836746
1640.000000	19.844357
1641.000000	19.851604
1642.000000	19.845272
1643.000000	19.851666
1644.000000	19.853906
1645.000000	19.856979
1646.000000	19.836670
1647.000000	19.834671
1648.000000	19.817066
1649.000000	19.787686
1650.000000	19.784569
1651.000000	19.765064
1652.000000	19.747749
1653.000000	19.707463
1654.000000	19.661872
1655.000000	19.638371
1656.000000	19.580887
1657.000000	19.523139
1658.000000	19.466001
1659.000000	19.413330
1660.000000	19.354733
1661.000000	19.291677
1662.000000	19.219457
1663.000000	19.143765
1664.000000	19.055477
1665.000000	18.985783
1666.000000	18.915576
1667.000000	18.821131
1668.000000	18.770315
1669.000000	18.688813
1670.000000	18.606045
1671.000000	18.524409
1672.000000	18.432842
1673.000000	18.352670
1674.000000	18.273887
1675.000000	18.208392
1676.000000	18.124636
1677.000000	18.041327
1678.000000	17.950185
1679.000000	17.871127
1680.000000	17.809795
1681.000000	17.732561
1682.000000	17.653873
1683.000000	17.606405
1684.000000	17.553741
1685.000000	17.504886
1686.000000	17.471586
1687.000000	17.435675
1688.000000	17.425523
1689.000000	17.418632
1690.000000	17.419344
1691.000000	17.429959
1692.000000	17.437116
1693.000000	17.455866
1694.000000	17.474742
1695.000000	17.489525
1696.000000	17.502826
1697.000000	17.496591
1698.000000	17.489939
1699.000000	17.474427
1700.000000	17.452475
1701.000000	17.439501
1702.000000	17.413761
1703.000000	17.403187
1704.000000	17.379701
1705.000000	17.328124
1706.000000	17.279541
1707.000000	17.220321
1708.000000	17.152960
1709.000000	17.105569
1710.000000	17.028401
1711.000000	16.957625
1712.000000	16.880513
1713.000000	16.815133
1714.000000	16.745347
1715.000000	16.658263
1716.000000	16.583024
1717.000000	16.506255
1718.000000	16.430631
1719.000000	16.368936
1720.000000	16.304019
1721.000000	16.267126
1722.000000	16.243165
1723.000000	16.214266
1724.000000	16.215405
1725.000000	16.199512
1726.000000	16.213914
1727.000000	16.215491
1728.000000	16.225742
1729.000000	16.224288
1730.000000	16.261482
1731.000000	16.272436
1732.000000	16.300106
1733.000000	16.332606
1734.000000	16.363660
1735.000000	16.414019
1736.000000	16.449311
1737.000000	16.483275
1738.000000	16.516309
1739.000000	16.554892
1740.000000	16.599745
1741.000000	16.633568
1742.000000	16.662692
1743.000000	16.713636
1744.000000	16.751267
1745.000000	16.792485
1746.000000	16.822113
1747.000000	16.838188
1748.000000	16.863877
1749.000000	16.897173
1750.000000	16.924787
1751.000000	16.933949
1752.000000	16.926255
1753.000000	16.950715
1754.000000	16.977100
1755.000000	16.986498
1756.000000	16.995097
1757.000000	17.016216
1758.000000	17.022565
1759.000000	17.028798
1760.000000	17.026932
1761.000000	17.045470
1762.000000	17.053457
1763.000000	17.062141
1764.000000	17.086861
1765.000000	17.110980
1766.000000	17.132920
1767.000000	17.159609
1768.000000	17.175278
1769.000000	17.200458
1770.000000	17.230976
1771.000000	17.241642
1772.000000	17.247481
1773.000000	17.284418
1774.000000	17.302543
1775.000000	17.327735
1776.000000	17.354627
1777.000000	17.382747
1778.000000	17.399638
1779.000000	17.415474
1780.000000	17.410460
1781.000000	17.412104
1782.000000	17.434920
1783.000000	17.445727
1784.000000	17.442259
1785.000000	17.449357
1786.000000	17.465383
1787.000000	17.466695
1788.000000	17.485206
1789.000000	17.498665
1790.000000	17.491575
1791.000000	17.505633
1792.000000	17.521203
1793.000000	17.531942
1794.000000	17.538506
1795.000000	17.549212
1796.000000	17.560189
1797.000000	17.586411
1798.000000	17.623989
1799.000000	17.635913
1800.000000	17.637039
1801.000000	17.656933
1802.000000	17.669528
1803.000000	17.679818
1804.000000	17.701399
1805.000000	17.717382
1806.000000	17.720009
1807.000000	17.729259
1808.000000	17.763130
1809.000000	17.799687
1810.000000	17.817640
1811.000000	17.813482
1812.000000	17.815059
1813.000000	17.842942
1814.000000	17.856534
1815.000000	17.858025
1816.000000	17.876271
1817.000000	17.908997
1818.000000	17.926343
1819.000000	17.926274
1820.000000	17.893536
1821.000000	17.869045
1822.000000	17.901336
1823.000000	17.937533
1824.000000	17.966221
1825.000000	17.990145
1826.000000	18.001676
1827.000000	18.034370
1828.000000	18.043942
1829.000000	18.041590
1830.000000	18.046559
1831.000000	18.071030
1832.000000	18.101793
1833.000000	18.154276
1834.000000	18.188143
1835.000000	18.205447
1836.000000	18.216584
1837.000000	18.233768
1838.000000	18.273747
1839.000000	18.292699
1840.000000	18.270215
1841.000000	18.213670
1842.000000	18.214632
1843.000000	18.281770
1844.000000	18.376122
1845.000000	18.429712
1846.000000	18.404515
1847.000000	18.316490
1848.000000	18.254516
1849.000000	18.264395
1850.000000	18.308324
1851.000000	18.333817
1852.000000	18.311380
1853.000000	18.279984
1854.000000	18.262354
1855.000000	18.266200
1856.000000	18.298125
1857.000000	18.298315
1858.000000	18.228803
1859.000000	18.191590
1860.000000	18.146982
1861.000000	18.100633
1862.000000	18.084480
1863.000000	18.094345
1864.000000	18.087666
1865.000000	18.065314
1866.000000	18.064813
1867.000000	18.012078
1868.000000	17.947781
1869.000000	17.806939
1870.000000	17.706317
1871.000000	17.576306
1872.000000	17.369920
1873.000000	17.248926
1874.000000	17.097999
1875.000000	16.939393
1876.000000	16.796844
1877.000000	16.674580
1878.000000	16.523669
1879.000000	16.377606
1880.000000	16.215735
1881.000000	16.043578
1882.000000	15.861113
1883.000000	15.664876
1884.000000	15.490435
1885.000000	15.295576
1886.000000	15.103526
1887.000000	14.929270
1888.000000	14.774472
1889.000000	14.557028
1890.000000	14.330710
1891.000000	14.100610
1892.000000	13.853555
1893.000000	13.662326
1894.000000	13.459147
1895.000000	13.301493
1896.000000	13.115138
1897.000000	12.906746
1898.000000	12.646170
1899.000000	12.387811
1900.000000	12.149393
1901.000000	11.964108
1902.000000	11.746965
1903.000000	11.539988
1904.000000	11.379683
1905.000000	11.168102
1906.000000	10.995468
1907.000000	10.819763
1908.000000	10.635527
1909.000000	10.506358
1910.000000	10.333118
1911.000000	10.211867
1912.000000	10.088685
1913.000000	9.881409
1914.000000	9.807206
1915.000000	9.757261
1916.000000	9.666477
1917.000000	9.596449
1918.000000	9.557280
1919.000000	9.459737
1920.000000	9.354996
1921.000000	9.259993
1922.000000	9.182606
1923.000000	9.094572
1924.000000	9.099876
1925.000000	9.049795
1926.000000	9.018183
1927.000000	8.971227
1928.000000	8.943317
1929.000000	8.861751
1930.000000	8.813618
1931.000000	8.763221
1932.000000	8.815832
1933.000000	8.796838
1934.000000	8.785690
1935.000000	8.755823
1936.000000	8.811220
1937.000000	8.766806
1938.000000	8.808002
1939.000000	8.811953
1940.000000	8.843287
1941.000000	8.803168
1942.000000	8.821923
1943.000000	8.860763
1944.000000	8.875709
1945.000000	8.917607
1946.000000	8.956163
1947.000000	8.981751
1948.000000	9.003356
1949.000000	9.041183
1950.000000	9.074926
1951.000000	9.100521
1952.000000	9.134784
1953.000000	9.191873
1954.000000	9.261721
1955.000000	9.323837
1956.000000	9.345588
1957.000000	9.390252
1958.000000	9.445810
1959.000000	9.450615
1960.000000	9.477005
1961.000000	9.524164
1962.000000	9.532206
1963.000000	9.631142
1964.000000	9.694037
1965.000000	9.727806
1966.000000	9.765243
1967.000000	9.774707
1968.000000	9.853633
1969.000000	9.899319
1970.000000	9.905003
1971.000000	9.965962
1972.000000	10.024036
1973.000000	10.088013
1974.000000	10.115837
1975.000000	10.163208
1976.000000	10.224288
1977.000000	10.260242
1978.000000	10.304484
1979.000000	10.341026
1980.000000	10.345965
1981.000000	10.450546
1982.000000	10.468995
1983.000000	10.528809
1984.000000	10.572380
1985.000000	10.634777
1986.000000	10.648977
1987.000000	10.684698
1988.000000	10.755902
1989.000000	10.768240
1990.000000	10.825760
1991.000000	10.853302
1992.000000	10.918162
1993.000000	10.950548
1994.000000	10.970397
1995.000000	11.037827
1996.000000	11.057749
1997.000000	11.075238
1998.000000	11.070591
1999.000000	11.161880
2000.000000	11.186530
2001.000000	11.176559
2002.000000	11.204782
2003.000000	11.276092
2004.000000	11.343757
2005.000000	11.338872
2006.000000	11.297062
2007.000000	11.315953
2008.000000	11.346437
2009.000000	11.352747
2010.000000	11.371149
2011.000000	11.392506
2012.000000	11.363677
2013.000000	11.348708
2014.000000	11.341818
2015.000000	11.315504
2016.000000	11.286981
2017.000000	11.284919
2018.000000	11.297777
2019.000000	11.283314
2020.000000	11.271520
2021.000000	11.271502
2022.000000	11.240441
2023.000000	11.192016
2024.000000	11.097408
2025.000000	11.094910
2026.000000	11.036762
2027.000000	11.003219
2028.000000	11.012405
2029.000000	10.988132
2030.000000	10.946524
2031.000000	10.895847
2032.000000	10.827229
2033.000000	10.761705
2034.000000	10.696440
2035.000000	10.644538
2036.000000	10.627042
2037.000000	10.565496
2038.000000	10.555238
2039.000000	10.519925
2040.000000	10.472765
2041.000000	10.431221
2042.000000	10.343845
2043.000000	10.288789
2044.000000	10.247328
2045.000000	10.258167
2046.000000	10.226557
2047.000000	10.128489
2048.000000	10.101570
2049.000000	10.123985
2050.000000	10.093844
2051.000000	10.023982
2052.000000	10.090556
2053.000000	10.135263
2054.000000	10.094403
2055.000000	10.138096
2056.000000	10.142820
2057.000000	10.133491
2058.000000	10.156199
2059.000000	10.202157
2060.000000	10.257152
2061.000000	10.293435
2062.000000	10.305351
2063.000000	10.323941
2064.000000	10.409193
2065.000000	10.434011
2066.000000	10.412504
2067.000000	10.460961
2068.000000	10.490853
2069.000000	10.543334
2070.000000	10.591696
2071.000000	10.696247
2072.000000	10.819143
2073.000000	10.860425
2074.000000	10.888455
2075.000000	10.921671
2076.000000	10.896946
2077.000000	10.918024
2078.000000	10.972805
2079.000000	11.009513
2080.000000	11.027103
2081.000000	11.075414
2082.000000	11.123874
2083.000000	11.162266
2084.000000	11.152598
2085.000000	11.130748
2086.000000	11.144809
2087.000000	11.195759
2088.000000	11.207286
2089.000000	11.220785
2090.000000	11.288666
2091.000000	11.349439
2092.000000	11.349895
2093.000000	11.346606
2094.000000	11.277306
2095.000000	11.254074
2096.000000	11.194458
2097.000000	11.248057
2098.000000	11.348078
2099.000000	11.321972
2100.000000	11.344791
2101.000000	11.398406
2102.000000	11.424286
2103.000000	11.336905
2104.000000	11.338650
2105.000000	11.390953
2106.000000	11.480524
2107.000000	11.466980
2108.000000	11.451718
2109.000000	11.516233
2110.000000	11.465760
2111.000000	11.467795
2112.000000	11.451951
2113.000000	11.400032
2114.000000	11.402532
2115.000000	11.493816
2116.000000	11.488547
2117.000000	11.405086
2118.000000	11.504231
2119.000000	11.493308
2120.000000	11.363523
2121.000000	11.392998
2122.000000	11.392489
2123.000000	11.525489
2124.000000	11.647916
2125.000000	11.589308
2126.000000	11.512672
2127.000000	11.377495
2128.000000	11.284940
2129.000000	11.316470
2130.000000	11.229728
2131.000000	11.268245
2132.000000	11.327500
2133.000000	11.350883
2134.000000	11.253238
2135.000000	11.182744
2136.000000	11.189409
2137.000000	11.002087
2138.000000	10.978749
2139.000000	10.964566
2140.000000	10.926140
2141.000000	10.826229
2142.000000	10.821059
2143.000000	10.841051
2144.000000	10.788156
2145.000000	10.688381
2146.000000	10.649404
2147.000000	10.442358
2148.000000	10.445707
2149.000000	10.550338
2150.000000	10.489920
2151.000000	10.526300
2152.000000	10.445777
2153.000000	10.417027
2154.000000	10.202599
2155.000000	10.132852
2156.000000	10.109673
2157.000000	10.198823
2158.000000	10.148785
2159.000000	10.208144
2160.000000	10.002924
2161.000000	10.024082
2162.000000	10.016140
2163.000000	9.871970
2164.000000	9.957294
2165.000000	9.991684
2166.000000	9.871916
2167.000000	9.949854
2168.000000	9.913043
2169.000000	9.923353
2170.000000	9.716307
2171.000000	9.652519
2172.000000	9.830620
2173.000000	9.821819
2174.000000	9.581557
2175.000000	9.862560
2176.000000	9.774107
2177.000000	9.619955
2178.000000	9.797739
2179.000000	9.788818
2180.000000	9.712928
2181.000000	9.847525
2182.000000	9.733407
2183.000000	9.845551
2184.000000	9.915694
2185.000000	9.760698
2186.000000	9.818251
2187.000000	9.930079
2188.000000	9.901250
2189.000000	9.864008
2190.000000	9.921711
2191.000000	9.891410
2192.000000	10.005480
2193.000000	10.034832
2194.000000	10.125698
2195.000000	10.157731
2196.000000	10.152319
2197.000000	10.096150
2198.000000	10.096760
2199.000000	10.230032
2200.000000	10.332060
2201.000000	10.161937
2202.000000	10.300844
2203.000000	10.471271
2204.000000	10.332386
2205.000000	10.281327
2206.000000	10.365854
2207.000000	10.476727
2208.000000	10.542376
2209.000000	10.416988
2210.000000	10.590832
2211.000000	10.492377
2212.000000	10.517005
2213.000000	10.475894
2214.000000	10.769076
2215.000000	10.528716
2216.000000	10.663840
2217.000000	10.731469
2218.000000	10.786417
2219.000000	10.786564
2220.000000	10.679949
2221.000000	10.663890
2222.000000	10.682476
2223.000000	10.830006
2224.000000	10.856511
2225.000000	10.743279
2226.000000	10.971658
2227.000000	11.013275
2228.000000	10.846591
2229.000000	10.821736
2230.000000	10.757045
2231.000000	10.955655
2232.000000	10.813032
2233.000000	10.967107
2234.000000	10.969559
2235.000000	11.038334
2236.000000	10.975459
2237.000000	10.824432
2238.000000	10.824342
2239.000000	10.867409
2240.000000	10.847856
2241.000000	10.893061
2242.000000	10.882896
2243.000000	10.897115
2244.000000	10.749120
2245.000000	10.516091
2246.000000	10.509914
2247.000000	10.395954
2248.000000	10.482122
2249.000000	10.483513
2250.000000	10.518188
2251.000000	10.476676
2252.000000	10.333919
2253.000000	10.322174
2254.000000	10.193439
2255.000000	10.234917
2256.000000	10.027971
2257.000000	10.217005
2258.000000	10.080310
2259.000000	10.034066
2260.000000	10.033019
2261.000000	10.037220
2262.000000	10.064296
2263.000000	9.850615
2264.000000	9.839806
2265.000000	10.087777
2266.000000	10.010599
2267.000000	10.014804
2268.000000	9.869134
2269.000000	9.692472
2270.000000	9.649984
2271.000000	9.776160
2272.000000	9.775005
2273.000000	9.864555
2274.000000	9.809115
2275.000000	10.000246
2276.000000	9.829164
2277.000000	9.565028
2278.000000	9.449314
2279.000000	9.529915
2280.000000	9.702356
2281.000000	9.886021
2282.000000	9.793013
2283.000000	9.763135
2284.000000	9.840048
2285.000000	9.717018
2286.000000	9.593663
2287.000000	9.784843
2288.000000	9.806444
2289.000000	9.780211
2290.000000	9.905048
2291.000000	9.893796
2292.000000	9.659160
2293.000000	9.583227
2294.000000	9.523999
2295.000000	9.623772
2296.000000	9.758999
2297.000000	9.793086
2298.000000	10.047541
2299.000000	10.042143
2300.000000	9.830798
2301.000000	9.727510
2302.000000	9.697387
2303.000000	9.806247
2304.000000	9.727213
2305.000000	9.710457
2306.000000	9.836008
2307.000000	9.744911
2308.000000	9.729006
2309.000000	9.760280
2310.000000	9.698898
2311.000000	9.739865
2312.000000	10.019749
2313.000000	10.152007
2314.000000	10.158263
2315.000000	10.036986
2316.000000	9.946462
2317.000000	9.880318
2318.000000	9.958400
2319.000000	10.102044
2320.000000	10.111350
2321.000000	10.103630
2322.000000	10.274278
2323.000000	10.140007
2324.000000	9.927716
2325.000000	10.066788
2326.000000	10.367788
2327.000000	10.521840
2328.000000	10.460400
2329.000000	10.461111
2330.000000	10.419546
2331.000000	10.201215
2332.000000	10.028407
2333.000000	10.094841
2334.000000	10.248240
2335.000000	10.388413
2336.000000	10.616087
2337.000000	10.817428
2338.000000	10.745484
2339.000000	10.458831
2340.000000	10.336295
2341.000000	10.371122
2342.000000	10.497832
2343.000000	10.804149
2344.000000	10.879954
2345.000000	10.693749
2346.000000	10.618836
2347.000000	10.598912
2348.000000	10.499694
2349.000000	10.402445
2350.000000	10.491269
2351.000000	10.911224
2352.000000	11.019680
2353.000000	10.667341
2354.000000	10.484164
2355.000000	10.621394
2356.000000	10.771219
2357.000000	10.968128
2358.000000	10.892400
2359.000000	10.922228
2360.000000	10.967820
2361.000000	10.984846
2362.000000	10.714828
2363.000000	10.518238
2364.000000	10.922316
2365.000000	11.071632
2366.000000	11.144006
2367.000000	11.160650
2368.000000	11.038404
2369.000000	11.013689
2370.000000	11.202921
2371.000000	10.916656
2372.000000	11.004879
2373.000000	11.074630
2374.000000	11.128079
2375.000000	11.533262
2376.000000	11.403486
2377.000000	11.040299
2378.000000	11.050509
2379.000000	11.075227
2380.000000	11.082900
2381.000000	11.201626
2382.000000	11.453470
2383.000000	11.322774
2384.000000	11.177780
2385.000000	10.980596
2386.000000	11.010482
2387.000000	11.218222
2388.000000	11.399785
2389.000000	11.594398
2390.000000	11.543227
2391.000000	11.672292
2392.000000	11.602506
2393.000000	11.402418
2394.000000	11.403365
2395.000000	11.554619
2396.000000	11.555049
2397.000000	11.627047
2398.000000	11.594860
2399.000000	11.878624
2400.000000	12.115323
2401.000000	11.903390
2402.000000	11.330144
2403.000000	11.549495
2404.000000	11.663180
2405.000000	11.811338
2406.000000	11.720257
2407.000000	11.729948
2408.000000	11.695887
2409.000000	11.730504
2410.000000	11.646979
2411.000000	12.188967
2412.000000	11.943525
2413.000000	11.915974
2414.000000	11.708128
2415.000000	11.789311
2416.000000	11.798772
2417.000000	11.759666
2418.000000	12.066038
2419.000000	11.920420
2420.000000	11.958619
2421.000000	12.211586
2422.000000	11.744635
2423.000000	11.943294
2424.000000	11.860116
2425.000000	11.817299
2426.000000	12.182420
2427.000000	12.023263
2428.000000	12.068948
2429.000000	11.579476
2430.000000	11.696503
2431.000000	12.026157
2432.000000	11.744882
2433.000000	11.635065
2434.000000	11.617387
2435.000000	12.398966
2436.000000	12.403828
2437.000000	11.783276
2438.000000	12.059106
2439.000000	12.020992
2440.000000	12.221042
2441.000000	12.240376
2442.000000	12.255673
2443.000000	12.789479
2444.000000	12.855774
2445.000000	12.396012
2446.000000	12.478293
2447.000000	12.354556
2448.000000	12.371552
2449.000000	13.610852
2450.000000	12.874617
2451.000000	12.829882
2452.000000	12.520740
2453.000000	12.571974
2454.000000	13.026159
2455.000000	13.534958
2456.000000	13.851369
2457.000000	13.200871
2458.000000	13.827969
2459.000000	13.394621
2460.000000	13.248214
2461.000000	12.992549
2462.000000	13.931247
2463.000000	14.137299
2464.000000	13.894659
2465.000000	15.129812
2466.000000	14.391908
2467.000000	14.750084
2468.000000	13.786369
2469.000000	14.283979
2470.000000	15.623528
2471.000000	15.723276
2472.000000	16.740446
2473.000000	15.357009
2474.000000	15.420816
2475.000000	15.247157
2476.000000	16.620646
2477.000000	16.940341
2478.000000	16.652387
2479.000000	17.078426
2480.000000	17.070055
2481.000000	18.159402
2482.000000	15.871870
2483.000000	17.388786
2484.000000	18.768319
2485.000000	19.527647
2486.000000	18.770673
2487.000000	18.461350
2488.000000	20.894113
2489.000000	20.322555
2490.000000	20.410495
2491.000000	19.750338
2492.000000	20.128245
2493.000000	21.166188
2494.000000	21.980789
2495.000000	22.614876
2496.000000	23.608346
2497.000000	21.751787
2498.000000	22.040618
2499.000000	22.853324
2500.000000	24.745884
2501.000000	nan
2502.000000	nan
2503.000000	nan
2504.000000	nan
2505.000000	nan
2506.000000	nan
2507.000000	nan
2508.000000	nan
2509.000000	nan
2510.000000	nan
2511.000000	nan
2512.000000	nan
2513.000000	nan
2514.000000	nan
2515.000000	nan
2516.000000	nan
2517.000000	nan
2518.000000	nan
2519.000000	nan
2520.000000	nan
2521.000000	nan
2522.000000	nan
2523.000000	nan
2524.000000	nan
2525.000000	nan
2526.000000	nan
2527.000000	nan
2528.000000	nan
2529.000000	nan
2530.000000	nan
2531.000000	nan
2532.000000	nan
2533.000000	nan
2534.000000	nan
2535.000000	nan
2536.000000	nan
2537.000000	nan
2538.000000	nan
2539.000000	nan
2540.000000	nan
2541.000000	nan
2542.000000	nan
2543.000000	nan
2544.000000	nan
2545.000000	nan
2546.000000	nan
2547.000000	nan
2548.000000	nan
2549.000000	nan
2550.000000	nan
2551.000000	nan
2552.000000	nan
2553.000000	nan
2554.000000	nan
2555.000000	nan
2556.000000	nan
2557.000000	nan
2558.000000	nan
2559.000000	nan
2560.000000	nan
2561.000000	nan
2562.000000	nan
2563.000000	nan
2564.000000	nan
2565.000000	nan
2566.000000	nan
2567.000000	nan
2568.000000	nan
2569.000000	nan
2570.000000	nan
2571.000000	nan
2572.000000	nan
2573.000000	nan
2574.000000	nan
2575.000000	nan
2576.000000	nan
2577.000000	nan
2578.000000	nan
2579.000000	nan
2580.000000	nan
2581.000000	nan
2582.000000	nan
2583.000000	nan
2584.000000	nan
2585.000000	nan
2586.000000	nan
2587.000000	nan
2588.000000	nan
2589.000000	nan
2590.000000	nan
2591.000000	nan
2592.000000	nan
2593.000000	nan
2594.000000	nan
2595.000000	nan
2596.000000	nan
2597.000000	nan
2598.000000	nan
2599.000000	nan
2600.000000	nan
2601.000000	nan
2602.000000	nan
2603.000000	nan
2604.000000	nan
2605.000000	nan
2606.000000	nan
2607.000000	nan
2608.000000	nan
2609.000000	nan
2610.000000	nan
2611.000000	nan
2612.000000	nan
2613.000000	nan
2614.000000	nan
2615.000000	nan
2616.000000	nan
2617.000000	nan
2618.000000	nan
2619.000000	nan
2620.000000	nan
2621.000000	nan
2622.000000	nan
2623.000000	nan
2624.000000	nan
2625.000000	nan
2626.000000	nan
2627.000000	nan
2628.000000	nan
2629.000000	nan
2630.000000	nan
2631.000000	nan
2632.000000	nan
2633.000000	nan
2634.000000	nan
2635.000000	nan
2636.000000	nan
2637.000000	nan
2638.000000	nan
2639.000000	nan
2640.000000	nan
2641.000000	nan
2642.000000	nan
2643.000000	nan
2644.000000	nan
2645.000000	nan
2646.000000	nan
2647.000000	nan
2648.000000	nan
2649.000000	nan
2650.000000	nan
2651.000000	nan
2652.000000	nan
2653.000000	nan
2654.000000	nan
2655.000000	nan
2656.000000	nan
2657.000000	nan
2658.000000	nan
2659.000000	nan
2660.000000	nan
2661.000000	nan
2662.000000	nan
2663.000000	nan
2664.000000	nan
2665.000000	nan
2666.000000	nan
2667.000000	nan
2668.000000	nan
2669.000000	nan
2670.000000	nan
2671.000000	nan
2672.000000	nan
2673.000000	nan
2674.000000	nan
2675.000000	nan
2676.000000	nan
2677.000000	nan
2678.000000	nan
2679.000000	nan
2680.000000	nan
2681.000000	nan
2682.000000	nan
2683.000000	nan
2684.000000	nan
2685.000000	nan
2686.000000	nan
2687.000000	nan
2688.000000	nan
2689.000000	nan
2690.000000	nan
2691.000000	nan
2692.000000	nan
2693.000000	nan
2694.000000	nan
2695.000000	nan
2696.000000	nan
2697.000000	nan
2698.000000	nan
2699.000000	nan
2700.000000	nan
2701.000000	nan
2702.000000	nan
2703.000000	nan
2704.000000	nan
2705.000000	nan
2706.000000	nan
2707.000000	nan
2708.000000	nan
2709.000000	nan
2710.000000	nan
2711.000000	nan
2712.000000	nan
2713.000000	nan
2714.000000	nan
2715.000000	nan
2716.000000	nan
2717.000000	nan
2718.000000	nan
2719.000000	nan
2720.000000	nan
2721.000000	nan
2722.000000	nan
2723.000000	nan
2724.000000	nan
2725.000000	nan
2726.000000	nan
2727.000000	nan
2728.000000	nan
2729.000000	nan
2730.000000	nan
2731.000000	nan
2732.000000	nan
2733.000000	nan
2734.000000	nan
2735.000000	nan
2736.000000	nan
2737.000000	nan
2738.000000	nan
2739.000000	nan
2740.000000	nan
2741.000000	nan
2742.000000	nan
2743.000000	nan
2744.000000	nan
2745.000000	nan
2746.000000	nan
2747.000000	nan
2748.000000	nan
2749.000000	nan
2750.000000	nan
2751.000000	nan
2752.000000	nan
2753.000000	nan
2754.000000	nan
2755.000000	nan
2756.000000	nan
2757.000000	nan
2758.000000	nan
2759.000000	nan
2760.000000	nan
2761.000000	nan
2762.000000	nan
2763.000000	nan
2764.000000	nan
2765.000000	nan
2766.000000	nan
2767.000000	nan
2768.000000	nan
2769.000000	nan
2770.000000	nan
2771.000000	nan
2772.000000	nan
2773.000000	nan
2774.000000	nan
2775.000000	nan
2776.000000	nan
2777.000000	nan
2778.000000	nan
2779.000000	nan
2780.000000	nan
2781.000000	nan
2782.000000	nan
2783.000000	nan
2784.000000	nan
2785.000000	nan
2786.000000	nan
2787.000000	nan
2788.000000	nan
2789.000000	nan
2790.000000	nan
2791.000000	nan
2792.000000	nan
2793.000000	nan
2794.000000	nan
2795.000000	nan
2796.000000	nan
2797.000000	nan
2798.000000	nan
2799.000000	nan
2800.000000	nan
2801.000000	nan
2802.000000	nan
2803.000000	nan
2804.000000	nan
2805.000000	nan
2806.000000	nan
2807.000000	nan
2808.000000	nan
2809.000000	nan
2810.000000	nan
2811.000000	nan
2812.000000	nan
2813.000000	nan
2814.000000	nan
2815.000000	nan
2816.000000	nan
2817.000000	nan
2818.000000	nan
2819.000000	nan
2820.000000	nan
2821.000000	nan
2822.000000	nan
2823.000000	nan
2824.000000	nan
2825.000000	nan
2826.000000	nan
2827.000000	nan
2828.000000	nan
2829.000000	nan
2830.000000	nan
2831.000000	nan
2832.000000	nan
2833.000000	nan
2834.000000	nan
2835.000000	nan
2836.000000	nan
2837.000000	nan
2838.000000	nan
2839.000000	nan
2840.000000	nan
2841.000000	nan
2842.000000	nan
2843.000000	nan
2844.000000	nan
2845.000000	nan
2846.000000	nan
2847.000000	nan
2848.000000	nan
2849.000000	nan
2850.000000	nan
2851.000000	nan
2852.000000	nan
2853.000000	nan
2854.000000	nan
2855.000000	nan
2856.000000	nan
2857.000000	nan
2858.000000	nan
2859.000000	nan
2860.000000	nan
2861.000000	nan
2862.000000	nan
2863.000000	nan
2864.000000	nan
2865.000000	nan
2866.000000	nan
2867.000000	nan
2868.000000	nan
2869.000000	nan
2870.000000	nan
2871.000000	nan
2872.000000	nan
2873.000000	nan
2874.000000	nan
2875.000000	nan
2876.000000	nan
2877.000000	nan
2878.000000	nan
2879.000000	nan
2880.000000	nan
2881.000000	nan
2882.000000	nan
2883.000000	nan
2884.000000	nan
2885.000000	nan
2886.000000	nan
2887.000000	nan
2888.000000	nan
2889.000000	nan
2890.000000	nan
2891.000000	nan
2892.000000	nan
2893.000000	nan
2894.000000	nan
2895.000000	nan
2896.000000	nan
2897.000000	nan
2898.000000	nan
2899.000000	nan
2900.000000	nan
2901.000000	nan
2902.000000	nan
2903.000000	nan
2904.000000	nan
2905.000000	nan
2906.000000	nan
2907.000000	nan
2908.000000	nan
2909.000000	nan
2910.000000	nan
2911.000000	nan
2912.000000	nan
2913.000000	nan
2914.000000	nan
2915.000000	nan
2916.000000	nan
2917.000000	nan
2918.000000	nan
2919.000000	nan
2920.000000	nan
2921.000000	nan
2922.000000	nan
2923.000000	nan
2924.000000	nan
2925.000000	nan
2926.000000	nan
2927.000000	nan
2928.000000	nan
2929.000000	nan
2930.000000	nan
2931.000000	nan
2932.000000	nan
2933.000000	nan
2934.000000	nan
2935.000000	nan
2936.000000	nan
2937.000000	nan
2938.000000	nan
2939.000000	nan
2940.000000	nan
2941.000000	nan
2942.000000	nan
2943.000000	nan
2944.000000	nan
2945.000000	nan
2946.000000	nan
2947.000000	nan
2948.000000	nan
2949.000000	nan
2950.000000	nan
2951.000000	nan
2952.000000	nan
2953.000000	nan
2954.000000	nan
2955.000000	nan
2956.000000	nan
2957.000000	nan
2958.000000	nan
2959.000000	nan
2960.000000	nan
2961.000000	nan
2962.000000	nan
2963.000000	nan
2964.000000	nan
2965.000000	nan
2966.000000	nan
2967.000000	nan
2968.000000	nan
2969.000000	nan
2970.000000	nan
2971.000000	nan
2972.000000	nan
2973.000000	nan
2974.000000	nan
2975.000000	nan
2976.000000	nan
2977.000000	nan
2978.000000	nan
2979.000000	nan
2980.000000	nan
2981.000000	nan
2982.000000	nan
2983.000000	nan
2984.000000	nan
2985.000000	nan
2986.000000	nan
2987.000000	nan
2988.000000	nan
2989.000000	nan
2990.000000	nan
2991.000000	nan
2992.000000	nan
2993.000000	nan
2994.000000	nan
2995.000000	nan
2996.000000	nan
2997.000000	nan
2998.000000	nan
2999.000000	nan
3000.000000	nan
