PE UV       SUBTECH     SPECTRUM    ASCII       PEDS        4.00        
   -1
INBUCR0123-5.Sample.ASC
24/02/12
14:48:19.00
24/02/12
14:48:19.00
Vinicio Soto Monge
Pelidnota notata. Color café con ambos élitros (Det: A. Solís) COSTA RICA Prov. Guanacaste. La Cruz, A.C.G, Pque Nal Gte, Est Mengo, Ladera S W de Volcán Cacao. 1100m. 26 JUN 1987. Janzen. Manual L_N_330200_375700 #52580 INB0003353862 
250,000000
1
Lambda 1050
1050L1511233
PerkinElmer UV WinLab 6.3.2.0749 / 2.02.05 Lambda 900 UV/VIS/NIR, Aug  7 2015 09:38:08

0
0
3350/servo 860,8/2
0
0
UV/VIS
1
1
1
DoubleDePol,CommonBeamDepol,RBeamAtt,SBeamAtt,60mm sphere, WB InGaAs Detector
0
0
0
0
Program
Program
3350/servo 860,8/2
3350/0,2 860,8/0,2
3350/0,2 860,8/0,2
0
15.00
 
 
 
0
 
860,8
150
860,8
Front
100
on
S:100 R:100
0
0
0
0
 
0
 
 
 
0
 
 
0
0
0
0
0
 
 
 
 
0
0


0
0
#HDR
-1
-1
#GR
nm
%R
1.0
0.0
2500,000000
-1,000000
2251
8
22,458900
1,602600
#DATA

250.000000	2.562434
251.000000	2.576853
252.000000	2.563607
253.000000	2.552952
254.000000	2.551189
255.000000	2.625113
256.000000	2.538260
257.000000	2.541501
258.000000	2.573958
259.000000	2.574347
260.000000	2.537001
261.000000	2.552909
262.000000	2.503575
263.000000	2.531871
264.000000	2.539066
265.000000	2.480825
266.000000	2.460128
267.000000	2.500567
268.000000	2.509855
269.000000	2.484154
270.000000	2.480240
271.000000	2.491165
272.000000	2.439388
273.000000	2.449388
274.000000	2.430346
275.000000	2.461815
276.000000	2.441585
277.000000	2.409900
278.000000	2.446322
279.000000	2.441264
280.000000	2.427346
281.000000	2.435658
282.000000	2.424276
283.000000	2.460550
284.000000	2.451231
285.000000	2.424442
286.000000	2.409402
287.000000	2.421418
288.000000	2.423202
289.000000	2.449424
290.000000	2.441053
291.000000	2.442816
292.000000	2.430016
293.000000	2.442437
294.000000	2.435100
295.000000	2.434309
296.000000	2.455765
297.000000	2.479443
298.000000	2.448723
299.000000	2.456145
300.000000	2.440025
301.000000	2.449522
302.000000	2.452215
303.000000	2.446383
304.000000	2.428728
305.000000	2.448867
306.000000	2.420419
307.000000	2.426137
308.000000	2.430032
309.000000	2.453830
310.000000	2.413235
311.000000	2.439154
312.000000	2.429039
313.000000	2.420038
314.000000	2.413741
315.000000	2.424118
316.000000	2.400231
317.000000	2.433148
318.000000	2.464395
319.000000	2.402209
320.000000	2.389893
321.000000	2.413397
322.000000	2.350727
323.000000	2.324169
324.000000	2.420557
325.000000	2.396571
326.000000	2.399570
327.000000	2.383302
328.000000	2.367705
329.000000	2.395079
330.000000	2.428311
331.000000	2.365094
332.000000	2.309682
333.000000	2.366954
334.000000	2.380088
335.000000	2.381039
336.000000	2.357527
337.000000	2.384102
338.000000	2.350577
339.000000	2.359339
340.000000	2.390189
341.000000	2.390026
342.000000	2.362304
343.000000	2.332465
344.000000	2.337899
345.000000	2.359268
346.000000	2.354336
347.000000	2.342513
348.000000	2.365376
349.000000	2.369982
350.000000	2.346160
351.000000	2.360910
352.000000	2.327809
353.000000	2.308777
354.000000	2.319168
355.000000	2.348074
356.000000	2.350427
357.000000	2.349765
358.000000	2.329249
359.000000	2.323860
360.000000	2.330724
361.000000	2.373419
362.000000	2.366976
363.000000	2.345652
364.000000	2.336582
365.000000	2.335828
366.000000	2.360921
367.000000	2.315980
368.000000	2.344439
369.000000	2.334413
370.000000	2.343612
371.000000	2.340913
372.000000	2.388662
373.000000	2.375670
374.000000	2.360805
375.000000	2.399037
376.000000	2.421627
377.000000	2.411121
378.000000	2.408604
379.000000	2.407024
380.000000	2.412231
381.000000	2.410245
382.000000	2.406744
383.000000	2.405448
384.000000	2.410230
385.000000	2.414927
386.000000	2.417097
387.000000	2.407989
388.000000	2.407655
389.000000	2.405801
390.000000	2.407203
391.000000	2.411580
392.000000	2.411716
393.000000	2.409240
394.000000	2.409281
395.000000	2.413506
396.000000	2.414183
397.000000	2.412337
398.000000	2.419191
399.000000	2.420934
400.000000	2.424252
401.000000	2.424782
402.000000	2.425591
403.000000	2.429117
404.000000	2.430853
405.000000	2.435880
406.000000	2.440529
407.000000	2.445945
408.000000	2.451078
409.000000	2.453892
410.000000	2.455855
411.000000	2.463368
412.000000	2.469584
413.000000	2.476810
414.000000	2.484015
415.000000	2.491646
416.000000	2.503002
417.000000	2.515922
418.000000	2.526595
419.000000	2.535156
420.000000	2.546800
421.000000	2.558982
422.000000	2.569185
423.000000	2.582140
424.000000	2.599460
425.000000	2.612372
426.000000	2.626829
427.000000	2.644073
428.000000	2.660682
429.000000	2.676843
430.000000	2.696038
431.000000	2.712410
432.000000	2.731025
433.000000	2.749189
434.000000	2.764960
435.000000	2.781932
436.000000	2.800906
437.000000	2.819628
438.000000	2.835382
439.000000	2.852706
440.000000	2.874966
441.000000	2.896139
442.000000	2.917993
443.000000	2.942179
444.000000	2.965028
445.000000	2.982207
446.000000	2.997480
447.000000	3.018641
448.000000	3.038747
449.000000	3.062681
450.000000	3.082287
451.000000	3.104336
452.000000	3.130405
453.000000	3.152680
454.000000	3.175517
455.000000	3.195311
456.000000	3.215754
457.000000	3.238953
458.000000	3.266219
459.000000	3.288113
460.000000	3.309520
461.000000	3.337589
462.000000	3.357667
463.000000	3.379141
464.000000	3.404648
465.000000	3.428090
466.000000	3.454052
467.000000	3.477031
468.000000	3.498561
469.000000	3.524289
470.000000	3.550746
471.000000	3.579479
472.000000	3.604873
473.000000	3.633047
474.000000	3.661661
475.000000	3.687130
476.000000	3.714643
477.000000	3.742260
478.000000	3.769881
479.000000	3.799562
480.000000	3.831481
481.000000	3.869981
482.000000	3.901495
483.000000	3.929778
484.000000	3.952056
485.000000	3.976527
486.000000	3.999851
487.000000	4.019631
488.000000	4.040732
489.000000	4.064107
490.000000	4.084201
491.000000	4.105599
492.000000	4.129638
493.000000	4.153086
494.000000	4.180175
495.000000	4.203700
496.000000	4.229983
497.000000	4.256008
498.000000	4.282902
499.000000	4.309152
500.000000	4.339736
501.000000	4.369196
502.000000	4.396332
503.000000	4.426099
504.000000	4.455117
505.000000	4.492886
506.000000	4.524002
507.000000	4.557911
508.000000	4.593086
509.000000	4.628455
510.000000	4.667500
511.000000	4.704581
512.000000	4.749940
513.000000	4.791825
514.000000	4.836620
515.000000	4.881597
516.000000	4.927244
517.000000	4.976489
518.000000	5.023737
519.000000	5.073724
520.000000	5.125944
521.000000	5.171767
522.000000	5.227964
523.000000	5.281560
524.000000	5.334185
525.000000	5.384556
526.000000	5.442095
527.000000	5.496735
528.000000	5.551323
529.000000	5.610855
530.000000	5.665869
531.000000	5.726821
532.000000	5.789162
533.000000	5.847467
534.000000	5.911229
535.000000	5.973891
536.000000	6.036173
537.000000	6.101227
538.000000	6.171052
539.000000	6.234380
540.000000	6.303247
541.000000	6.366071
542.000000	6.438316
543.000000	6.513666
544.000000	6.582963
545.000000	6.650611
546.000000	6.727277
547.000000	6.795750
548.000000	6.871133
549.000000	6.946289
550.000000	7.018332
551.000000	7.086930
552.000000	7.169309
553.000000	7.242443
554.000000	7.318509
555.000000	7.392287
556.000000	7.468857
557.000000	7.547556
558.000000	7.619785
559.000000	7.695476
560.000000	7.832311
561.000000	7.925166
562.000000	8.003946
563.000000	8.085615
564.000000	8.162239
565.000000	8.250075
566.000000	8.324920
567.000000	8.407811
568.000000	8.492353
569.000000	8.569600
570.000000	8.654880
571.000000	8.729463
572.000000	8.806370
573.000000	8.896306
574.000000	8.974722
575.000000	9.055553
576.000000	9.137308
577.000000	9.212404
578.000000	9.293065
579.000000	9.377644
580.000000	9.465868
581.000000	9.541418
582.000000	9.626706
583.000000	9.708490
584.000000	9.788520
585.000000	9.878418
586.000000	9.952524
587.000000	10.037943
588.000000	10.119763
589.000000	10.196272
590.000000	10.283155
591.000000	10.366006
592.000000	10.451624
593.000000	10.543099
594.000000	10.625669
595.000000	10.703021
596.000000	10.795414
597.000000	10.870460
598.000000	10.965838
599.000000	11.041985
600.000000	11.133398
601.000000	11.218938
602.000000	11.304671
603.000000	11.393452
604.000000	11.477782
605.000000	11.572437
606.000000	11.661747
607.000000	11.744181
608.000000	11.835432
609.000000	11.913147
610.000000	12.012011
611.000000	12.094010
612.000000	12.185193
613.000000	12.274193
614.000000	12.371060
615.000000	12.455881
616.000000	12.542020
617.000000	12.633865
618.000000	12.716020
619.000000	12.805654
620.000000	12.893211
621.000000	12.983620
622.000000	13.077836
623.000000	13.160016
624.000000	13.251089
625.000000	13.344461
626.000000	13.432001
627.000000	13.519207
628.000000	13.612487
629.000000	13.705067
630.000000	13.804089
631.000000	13.893190
632.000000	13.990306
633.000000	14.082161
634.000000	14.179389
635.000000	14.264030
636.000000	14.355940
637.000000	14.453693
638.000000	14.544513
639.000000	14.635090
640.000000	14.743654
641.000000	14.829317
642.000000	14.929976
643.000000	15.040706
644.000000	15.139866
645.000000	15.242671
646.000000	15.339041
647.000000	15.445934
648.000000	15.536252
649.000000	15.640044
650.000000	15.733090
651.000000	15.843896
652.000000	15.935664
653.000000	16.045019
654.000000	16.144772
655.000000	16.250834
656.000000	16.340289
657.000000	16.440776
658.000000	16.541745
659.000000	16.649790
660.000000	16.733384
661.000000	16.833949
662.000000	16.943541
663.000000	17.044779
664.000000	17.134264
665.000000	17.230430
666.000000	17.319349
667.000000	17.412778
668.000000	17.503393
669.000000	17.606272
670.000000	17.703672
671.000000	17.797163
672.000000	17.893876
673.000000	17.993405
674.000000	18.087954
675.000000	18.176663
676.000000	18.260168
677.000000	18.355375
678.000000	18.442443
679.000000	18.530260
680.000000	18.612793
681.000000	18.699747
682.000000	18.789440
683.000000	18.878728
684.000000	18.967172
685.000000	19.053435
686.000000	19.139849
687.000000	19.232400
688.000000	19.310038
689.000000	19.384520
690.000000	19.472080
691.000000	19.567384
692.000000	19.653760
693.000000	19.753012
694.000000	19.838031
695.000000	19.904478
696.000000	19.976593
697.000000	20.069249
698.000000	20.156120
699.000000	20.221443
700.000000	20.294508
701.000000	20.399634
702.000000	20.479567
703.000000	20.546997
704.000000	20.632808
705.000000	20.719626
706.000000	20.805603
707.000000	20.883188
708.000000	20.953845
709.000000	21.051624
710.000000	21.121962
711.000000	21.187778
712.000000	21.271530
713.000000	21.352050
714.000000	21.433180
715.000000	21.528228
716.000000	21.620412
717.000000	21.700132
718.000000	21.760926
719.000000	21.825116
720.000000	21.914268
721.000000	21.988539
722.000000	22.049594
723.000000	22.134680
724.000000	22.218138
725.000000	22.298806
726.000000	22.369970
727.000000	22.447416
728.000000	22.532849
729.000000	22.611582
730.000000	22.680352
731.000000	22.752612
732.000000	22.825770
733.000000	22.888985
734.000000	22.970480
735.000000	23.043217
736.000000	23.104677
737.000000	23.201442
738.000000	23.296918
739.000000	23.349515
740.000000	23.422178
741.000000	23.530997
742.000000	23.590228
743.000000	23.640261
744.000000	23.718317
745.000000	23.799282
746.000000	23.882535
747.000000	23.964605
748.000000	24.063189
749.000000	24.151463
750.000000	24.192849
751.000000	24.253772
752.000000	24.303762
753.000000	24.392189
754.000000	24.488476
755.000000	24.565238
756.000000	24.643558
757.000000	24.732433
758.000000	24.796807
759.000000	24.874023
760.000000	24.970302
761.000000	25.019003
762.000000	25.099473
763.000000	25.163365
764.000000	25.201905
765.000000	25.287711
766.000000	25.374481
767.000000	25.457545
768.000000	25.489487
769.000000	25.563690
770.000000	25.677367
771.000000	25.776728
772.000000	25.812638
773.000000	25.891612
774.000000	26.008837
775.000000	26.063417
776.000000	26.120609
777.000000	26.172705
778.000000	26.240500
779.000000	26.317997
780.000000	26.426306
781.000000	26.480596
782.000000	26.558813
783.000000	26.615981
784.000000	26.715236
785.000000	26.760399
786.000000	26.861904
787.000000	26.978610
788.000000	27.027895
789.000000	27.091164
790.000000	27.125695
791.000000	27.218669
792.000000	27.304861
793.000000	27.337966
794.000000	27.387887
795.000000	27.520990
796.000000	27.563797
797.000000	27.629377
798.000000	27.719909
799.000000	27.818057
800.000000	27.840230
801.000000	27.875621
802.000000	27.960595
803.000000	28.116795
804.000000	28.137352
805.000000	28.251945
806.000000	28.267078
807.000000	28.323542
808.000000	28.367676
809.000000	28.426358
810.000000	28.511135
811.000000	28.559275
812.000000	28.584267
813.000000	28.729661
814.000000	28.804955
815.000000	28.883797
816.000000	28.917028
817.000000	28.996327
818.000000	29.054075
819.000000	29.105840
820.000000	29.172974
821.000000	29.189403
822.000000	29.329149
823.000000	29.346724
824.000000	29.391572
825.000000	29.461519
826.000000	29.486528
827.000000	29.563992
828.000000	29.641677
829.000000	29.700042
830.000000	29.783592
831.000000	29.778925
832.000000	29.841763
833.000000	29.876365
834.000000	30.006637
835.000000	30.044664
836.000000	30.023482
837.000000	30.124367
838.000000	30.156791
839.000000	30.213050
840.000000	30.286665
841.000000	30.257143
842.000000	30.364642
843.000000	30.385497
844.000000	30.438419
845.000000	30.503990
846.000000	30.581391
847.000000	30.583279
848.000000	30.481077
849.000000	30.622848
850.000000	30.614763
851.000000	30.743637
852.000000	30.696235
853.000000	30.780759
854.000000	30.966025
855.000000	30.678337
856.000000	30.785190
857.000000	30.816211
858.000000	31.840984
859.000000	31.750184
860.000000	31.419689
861.000000	31.367403
862.000000	31.612344
863.000000	31.282960
864.000000	31.678485
865.000000	31.542862
866.000000	31.626557
867.000000	31.689604
868.000000	31.698751
869.000000	31.130777
870.000000	31.086131
871.000000	31.223706
872.000000	31.035762
873.000000	31.014747
874.000000	31.126742
875.000000	31.261062
876.000000	31.071958
877.000000	31.121984
878.000000	31.036990
879.000000	31.142889
880.000000	30.937934
881.000000	30.839085
882.000000	30.902270
883.000000	30.865628
884.000000	30.913230
885.000000	30.990961
886.000000	30.934873
887.000000	30.692678
888.000000	30.823208
889.000000	30.869658
890.000000	30.796388
891.000000	30.866969
892.000000	30.793038
893.000000	30.821923
894.000000	30.730421
895.000000	30.750419
896.000000	30.691616
897.000000	30.481411
898.000000	30.681187
899.000000	30.562143
900.000000	30.601950
901.000000	30.440158
902.000000	30.462925
903.000000	30.562451
904.000000	30.452538
905.000000	30.570876
906.000000	30.356531
907.000000	30.282129
908.000000	30.339188
909.000000	30.315122
910.000000	30.443937
911.000000	30.331320
912.000000	30.374957
913.000000	30.365292
914.000000	30.295657
915.000000	30.370082
916.000000	30.321829
917.000000	30.314747
918.000000	30.263290
919.000000	30.218211
920.000000	30.183727
921.000000	30.147613
922.000000	30.154114
923.000000	30.191408
924.000000	30.198695
925.000000	30.173702
926.000000	30.129826
927.000000	30.161790
928.000000	30.113337
929.000000	30.179070
930.000000	30.201972
931.000000	30.146518
932.000000	30.079452
933.000000	30.067333
934.000000	30.068445
935.000000	30.057905
936.000000	30.115284
937.000000	30.034275
938.000000	30.058461
939.000000	30.094619
940.000000	30.049077
941.000000	30.087602
942.000000	30.009588
943.000000	30.029590
944.000000	29.999921
945.000000	29.992818
946.000000	29.985301
947.000000	30.004228
948.000000	29.984886
949.000000	29.966965
950.000000	29.974145
951.000000	29.948003
952.000000	29.920418
953.000000	29.975554
954.000000	29.944327
955.000000	29.947879
956.000000	29.929191
957.000000	29.907039
958.000000	29.907866
959.000000	29.897852
960.000000	29.878449
961.000000	29.867839
962.000000	29.871181
963.000000	29.900320
964.000000	29.856939
965.000000	29.851133
966.000000	29.863640
967.000000	29.862297
968.000000	29.858631
969.000000	29.893731
970.000000	29.863792
971.000000	29.826675
972.000000	29.829598
973.000000	29.826767
974.000000	29.816906
975.000000	29.828272
976.000000	29.828635
977.000000	29.796390
978.000000	29.760390
979.000000	29.805893
980.000000	29.796306
981.000000	29.777511
982.000000	29.792654
983.000000	29.788973
984.000000	29.791637
985.000000	29.749143
986.000000	29.750434
987.000000	29.751634
988.000000	29.751609
989.000000	29.758837
990.000000	29.761164
991.000000	29.750748
992.000000	29.729957
993.000000	29.729188
994.000000	29.722551
995.000000	29.725417
996.000000	29.758360
997.000000	29.745005
998.000000	29.717925
999.000000	29.718096
1000.000000	29.713930
1001.000000	29.704106
1002.000000	29.713937
1003.000000	29.729161
1004.000000	29.705491
1005.000000	29.691284
1006.000000	29.709409
1007.000000	29.701925
1008.000000	29.688012
1009.000000	29.680273
1010.000000	29.690770
1011.000000	29.676755
1012.000000	29.682125
1013.000000	29.695019
1014.000000	29.682911
1015.000000	29.685826
1016.000000	29.673673
1017.000000	29.683873
1018.000000	29.694719
1019.000000	29.695799
1020.000000	29.696489
1021.000000	29.686863
1022.000000	29.698496
1023.000000	29.708665
1024.000000	29.705318
1025.000000	29.697212
1026.000000	29.710570
1027.000000	29.723938
1028.000000	29.732173
1029.000000	29.735154
1030.000000	29.740079
1031.000000	29.762553
1032.000000	29.757647
1033.000000	29.758371
1034.000000	29.760725
1035.000000	29.766022
1036.000000	29.773532
1037.000000	29.773390
1038.000000	29.785942
1039.000000	29.792145
1040.000000	29.791399
1041.000000	29.801364
1042.000000	29.818519
1043.000000	29.823650
1044.000000	29.818774
1045.000000	29.832914
1046.000000	29.844155
1047.000000	29.846051
1048.000000	29.853499
1049.000000	29.855704
1050.000000	29.871071
1051.000000	29.870669
1052.000000	29.867812
1053.000000	29.881646
1054.000000	29.886257
1055.000000	29.902940
1056.000000	29.920217
1057.000000	29.924639
1058.000000	29.925099
1059.000000	29.945388
1060.000000	29.959294
1061.000000	29.943767
1062.000000	29.960581
1063.000000	29.978625
1064.000000	29.990289
1065.000000	29.995298
1066.000000	29.988703
1067.000000	29.993912
1068.000000	29.998069
1069.000000	30.018601
1070.000000	30.020936
1071.000000	30.020292
1072.000000	30.039442
1073.000000	30.045584
1074.000000	30.041628
1075.000000	30.037291
1076.000000	30.056677
1077.000000	30.057895
1078.000000	30.065612
1079.000000	30.075604
1080.000000	30.068261
1081.000000	30.073569
1082.000000	30.062037
1083.000000	30.072551
1084.000000	30.080336
1085.000000	30.069686
1086.000000	30.097222
1087.000000	30.097520
1088.000000	30.091297
1089.000000	30.091516
1090.000000	30.090571
1091.000000	30.089837
1092.000000	30.088263
1093.000000	30.097537
1094.000000	30.100603
1095.000000	30.107691
1096.000000	30.105457
1097.000000	30.095718
1098.000000	30.097507
1099.000000	30.101776
1100.000000	30.108699
1101.000000	30.101551
1102.000000	30.102332
1103.000000	30.110144
1104.000000	30.109575
1105.000000	30.110574
1106.000000	30.110312
1107.000000	30.104053
1108.000000	30.095865
1109.000000	30.111684
1110.000000	30.093915
1111.000000	30.073830
1112.000000	30.103569
1113.000000	30.071934
1114.000000	30.087122
1115.000000	30.058910
1116.000000	30.049541
1117.000000	30.052863
1118.000000	30.025958
1119.000000	30.009968
1120.000000	29.987161
1121.000000	29.962345
1122.000000	29.927803
1123.000000	29.901033
1124.000000	29.870304
1125.000000	29.831965
1126.000000	29.812222
1127.000000	29.767811
1128.000000	29.721502
1129.000000	29.690473
1130.000000	29.644412
1131.000000	29.617292
1132.000000	29.603961
1133.000000	29.558165
1134.000000	29.483913
1135.000000	29.429355
1136.000000	29.409570
1137.000000	29.347997
1138.000000	29.316683
1139.000000	29.283399
1140.000000	29.242564
1141.000000	29.202747
1142.000000	29.164413
1143.000000	29.128702
1144.000000	29.055413
1145.000000	29.014495
1146.000000	28.957380
1147.000000	28.909028
1148.000000	28.857116
1149.000000	28.799505
1150.000000	28.764202
1151.000000	28.701961
1152.000000	28.647142
1153.000000	28.598893
1154.000000	28.528764
1155.000000	28.483756
1156.000000	28.421866
1157.000000	28.373781
1158.000000	28.311321
1159.000000	28.255333
1160.000000	28.198162
1161.000000	28.144089
1162.000000	28.096614
1163.000000	28.030422
1164.000000	27.985038
1165.000000	27.935459
1166.000000	27.888153
1167.000000	27.829226
1168.000000	27.762792
1169.000000	27.718943
1170.000000	27.668795
1171.000000	27.632739
1172.000000	27.567322
1173.000000	27.533300
1174.000000	27.490472
1175.000000	27.444587
1176.000000	27.419059
1177.000000	27.383390
1178.000000	27.349449
1179.000000	27.341531
1180.000000	27.311103
1181.000000	27.287853
1182.000000	27.272465
1183.000000	27.274649
1184.000000	27.255994
1185.000000	27.244897
1186.000000	27.234104
1187.000000	27.243966
1188.000000	27.249111
1189.000000	27.253882
1190.000000	27.265245
1191.000000	27.275092
1192.000000	27.292654
1193.000000	27.298586
1194.000000	27.304785
1195.000000	27.328899
1196.000000	27.336581
1197.000000	27.342846
1198.000000	27.363947
1199.000000	27.380926
1200.000000	27.393549
1201.000000	27.415696
1202.000000	27.435918
1203.000000	27.453702
1204.000000	27.470584
1205.000000	27.494155
1206.000000	27.514707
1207.000000	27.537412
1208.000000	27.552528
1209.000000	27.579462
1210.000000	27.592291
1211.000000	27.602413
1212.000000	27.616316
1213.000000	27.633991
1214.000000	27.668305
1215.000000	27.708500
1216.000000	27.723268
1217.000000	27.746125
1218.000000	27.777957
1219.000000	27.797671
1220.000000	27.823679
1221.000000	27.850335
1222.000000	27.882738
1223.000000	27.909165
1224.000000	27.929641
1225.000000	27.969474
1226.000000	27.994935
1227.000000	28.017834
1228.000000	28.045060
1229.000000	28.070006
1230.000000	28.095178
1231.000000	28.110447
1232.000000	28.134533
1233.000000	28.152279
1234.000000	28.180479
1235.000000	28.199161
1236.000000	28.217345
1237.000000	28.231450
1238.000000	28.243223
1239.000000	28.257934
1240.000000	28.270994
1241.000000	28.287404
1242.000000	28.306193
1243.000000	28.310056
1244.000000	28.312274
1245.000000	28.316508
1246.000000	28.330938
1247.000000	28.333877
1248.000000	28.339803
1249.000000	28.344873
1250.000000	28.353828
1251.000000	28.362810
1252.000000	28.354329
1253.000000	28.359421
1254.000000	28.373652
1255.000000	28.379631
1256.000000	28.385080
1257.000000	28.387057
1258.000000	28.394634
1259.000000	28.407179
1260.000000	28.409858
1261.000000	28.409633
1262.000000	28.415449
1263.000000	28.427746
1264.000000	28.425720
1265.000000	28.427097
1266.000000	28.432611
1267.000000	28.438004
1268.000000	28.435495
1269.000000	28.437445
1270.000000	28.444172
1271.000000	28.441170
1272.000000	28.449834
1273.000000	28.465244
1274.000000	28.475773
1275.000000	28.478940
1276.000000	28.479044
1277.000000	28.481909
1278.000000	28.480645
1279.000000	28.482793
1280.000000	28.489210
1281.000000	28.492069
1282.000000	28.493777
1283.000000	28.500101
1284.000000	28.501918
1285.000000	28.497233
1286.000000	28.493928
1287.000000	28.498821
1288.000000	28.504038
1289.000000	28.501790
1290.000000	28.501978
1291.000000	28.506508
1292.000000	28.503218
1293.000000	28.502218
1294.000000	28.503611
1295.000000	28.502816
1296.000000	28.495672
1297.000000	28.494168
1298.000000	28.499038
1299.000000	28.506519
1300.000000	28.501965
1301.000000	28.490937
1302.000000	28.486312
1303.000000	28.488763
1304.000000	28.483212
1305.000000	28.479741
1306.000000	28.475112
1307.000000	28.466544
1308.000000	28.463529
1309.000000	28.463488
1310.000000	28.457176
1311.000000	28.449238
1312.000000	28.438451
1313.000000	28.422402
1314.000000	28.405781
1315.000000	28.402237
1316.000000	28.393784
1317.000000	28.371070
1318.000000	28.352176
1319.000000	28.324013
1320.000000	28.295677
1321.000000	28.276617
1322.000000	28.263370
1323.000000	28.239299
1324.000000	28.211037
1325.000000	28.183299
1326.000000	28.147576
1327.000000	28.113555
1328.000000	28.073617
1329.000000	28.034267
1330.000000	27.988090
1331.000000	27.951915
1332.000000	27.908583
1333.000000	27.867564
1334.000000	27.816881
1335.000000	27.765221
1336.000000	27.726503
1337.000000	27.675844
1338.000000	27.630722
1339.000000	27.583822
1340.000000	27.525660
1341.000000	27.478074
1342.000000	27.431750
1343.000000	27.396406
1344.000000	27.353801
1345.000000	27.316001
1346.000000	27.273989
1347.000000	27.220925
1348.000000	27.168034
1349.000000	27.131912
1350.000000	27.093274
1351.000000	27.056831
1352.000000	27.012210
1353.000000	26.960944
1354.000000	26.890805
1355.000000	26.818426
1356.000000	26.761087
1357.000000	26.698122
1358.000000	26.635099
1359.000000	26.581706
1360.000000	26.475084
1361.000000	26.346552
1362.000000	26.260575
1363.000000	26.195718
1364.000000	26.106156
1365.000000	26.032596
1366.000000	25.967091
1367.000000	25.877010
1368.000000	25.814395
1369.000000	25.754229
1370.000000	25.691176
1371.000000	25.626429
1372.000000	25.584514
1373.000000	25.564440
1374.000000	25.531793
1375.000000	25.505912
1376.000000	25.467634
1377.000000	25.424824
1378.000000	25.415581
1379.000000	25.369216
1380.000000	25.295046
1381.000000	25.174774
1382.000000	25.052603
1383.000000	24.925319
1384.000000	24.853031
1385.000000	24.765183
1386.000000	24.673364
1387.000000	24.540355
1388.000000	24.414673
1389.000000	24.348991
1390.000000	24.255712
1391.000000	24.132838
1392.000000	24.009467
1393.000000	23.921654
1394.000000	23.800723
1395.000000	23.637765
1396.000000	23.518295
1397.000000	23.459702
1398.000000	23.385910
1399.000000	23.231383
1400.000000	23.074553
1401.000000	22.971676
1402.000000	22.911210
1403.000000	22.812824
1404.000000	22.663599
1405.000000	22.541863
1406.000000	22.438896
1407.000000	22.314628
1408.000000	22.183951
1409.000000	22.062600
1410.000000	21.958516
1411.000000	21.851115
1412.000000	21.744467
1413.000000	21.605366
1414.000000	21.488432
1415.000000	21.389903
1416.000000	21.308132
1417.000000	21.200866
1418.000000	21.091590
1419.000000	20.971110
1420.000000	20.897803
1421.000000	20.817953
1422.000000	20.728211
1423.000000	20.630510
1424.000000	20.540340
1425.000000	20.481052
1426.000000	20.386630
1427.000000	20.311708
1428.000000	20.235440
1429.000000	20.180498
1430.000000	20.108576
1431.000000	20.024768
1432.000000	19.971053
1433.000000	19.900116
1434.000000	19.839861
1435.000000	19.790460
1436.000000	19.725252
1437.000000	19.659757
1438.000000	19.598293
1439.000000	19.559614
1440.000000	19.502148
1441.000000	19.438172
1442.000000	19.399905
1443.000000	19.347643
1444.000000	19.298932
1445.000000	19.224898
1446.000000	19.177414
1447.000000	19.136323
1448.000000	19.102282
1449.000000	19.036372
1450.000000	18.981738
1451.000000	18.939363
1452.000000	18.902381
1453.000000	18.869014
1454.000000	18.822303
1455.000000	18.782851
1456.000000	18.730762
1457.000000	18.688701
1458.000000	18.659772
1459.000000	18.610496
1460.000000	18.569552
1461.000000	18.535751
1462.000000	18.492557
1463.000000	18.450598
1464.000000	18.420049
1465.000000	18.378233
1466.000000	18.346240
1467.000000	18.308081
1468.000000	18.265934
1469.000000	18.216066
1470.000000	18.167813
1471.000000	18.136631
1472.000000	18.103491
1473.000000	18.072548
1474.000000	18.037227
1475.000000	18.027025
1476.000000	17.984983
1477.000000	17.948208
1478.000000	17.912393
1479.000000	17.890454
1480.000000	17.861203
1481.000000	17.832680
1482.000000	17.810546
1483.000000	17.786610
1484.000000	17.779173
1485.000000	17.746070
1486.000000	17.734292
1487.000000	17.725699
1488.000000	17.718327
1489.000000	17.706910
1490.000000	17.699598
1491.000000	17.700616
1492.000000	17.687042
1493.000000	17.683105
1494.000000	17.682161
1495.000000	17.688278
1496.000000	17.699106
1497.000000	17.698767
1498.000000	17.713617
1499.000000	17.720524
1500.000000	17.737100
1501.000000	17.741567
1502.000000	17.746656
1503.000000	17.757886
1504.000000	17.784346
1505.000000	17.815821
1506.000000	17.832211
1507.000000	17.855597
1508.000000	17.880175
1509.000000	17.907056
1510.000000	17.932022
1511.000000	17.965077
1512.000000	17.992599
1513.000000	18.022057
1514.000000	18.045741
1515.000000	18.081729
1516.000000	18.114299
1517.000000	18.142303
1518.000000	18.178851
1519.000000	18.212786
1520.000000	18.242494
1521.000000	18.266169
1522.000000	18.299614
1523.000000	18.330772
1524.000000	18.354743
1525.000000	18.380833
1526.000000	18.408852
1527.000000	18.444232
1528.000000	18.476298
1529.000000	18.499854
1530.000000	18.524402
1531.000000	18.555545
1532.000000	18.579168
1533.000000	18.597111
1534.000000	18.624215
1535.000000	18.650323
1536.000000	18.675447
1537.000000	18.699533
1538.000000	18.728012
1539.000000	18.752719
1540.000000	18.769967
1541.000000	18.797616
1542.000000	18.829670
1543.000000	18.852413
1544.000000	18.869948
1545.000000	18.903489
1546.000000	18.935113
1547.000000	18.944169
1548.000000	18.956604
1549.000000	18.978291
1550.000000	18.999841
1551.000000	19.019202
1552.000000	19.029873
1553.000000	19.051783
1554.000000	19.085621
1555.000000	19.094830
1556.000000	19.105897
1557.000000	19.120479
1558.000000	19.130081
1559.000000	19.140894
1560.000000	19.151087
1561.000000	19.157438
1562.000000	19.158839
1563.000000	19.168361
1564.000000	19.175923
1565.000000	19.174334
1566.000000	19.175344
1567.000000	19.173846
1568.000000	19.174552
1569.000000	19.180275
1570.000000	19.185973
1571.000000	19.185083
1572.000000	19.185222
1573.000000	19.178515
1574.000000	19.179595
1575.000000	19.183768
1576.000000	19.191168
1577.000000	19.200185
1578.000000	19.208176
1579.000000	19.209494
1580.000000	19.213557
1581.000000	19.222448
1582.000000	19.235853
1583.000000	19.249963
1584.000000	19.263204
1585.000000	19.292105
1586.000000	19.311116
1587.000000	19.331830
1588.000000	19.346242
1589.000000	19.356504
1590.000000	19.380608
1591.000000	19.405695
1592.000000	19.435405
1593.000000	19.461682
1594.000000	19.490270
1595.000000	19.523990
1596.000000	19.553351
1597.000000	19.573934
1598.000000	19.597557
1599.000000	19.626701
1600.000000	19.650450
1601.000000	19.668116
1602.000000	19.691182
1603.000000	19.735392
1604.000000	19.765724
1605.000000	19.787792
1606.000000	19.808928
1607.000000	19.848484
1608.000000	19.872459
1609.000000	19.890176
1610.000000	19.916800
1611.000000	19.945123
1612.000000	19.969439
1613.000000	19.991651
1614.000000	20.012692
1615.000000	20.045754
1616.000000	20.061773
1617.000000	20.073285
1618.000000	20.091381
1619.000000	20.100989
1620.000000	20.130131
1621.000000	20.152542
1622.000000	20.159224
1623.000000	20.195625
1624.000000	20.200016
1625.000000	20.213837
1626.000000	20.232952
1627.000000	20.231193
1628.000000	20.247716
1629.000000	20.268852
1630.000000	20.280761
1631.000000	20.276237
1632.000000	20.288067
1633.000000	20.312758
1634.000000	20.323783
1635.000000	20.343186
1636.000000	20.354392
1637.000000	20.357503
1638.000000	20.350224
1639.000000	20.371637
1640.000000	20.370365
1641.000000	20.384913
1642.000000	20.386515
1643.000000	20.364746
1644.000000	20.379289
1645.000000	20.390104
1646.000000	20.364027
1647.000000	20.354709
1648.000000	20.339844
1649.000000	20.338978
1650.000000	20.316327
1651.000000	20.285836
1652.000000	20.264662
1653.000000	20.254984
1654.000000	20.229999
1655.000000	20.189067
1656.000000	20.156353
1657.000000	20.110200
1658.000000	20.075439
1659.000000	20.030206
1660.000000	19.974291
1661.000000	19.950242
1662.000000	19.886129
1663.000000	19.831535
1664.000000	19.775658
1665.000000	19.716653
1666.000000	19.639703
1667.000000	19.564028
1668.000000	19.503018
1669.000000	19.440857
1670.000000	19.357889
1671.000000	19.286174
1672.000000	19.220354
1673.000000	19.146680
1674.000000	19.046129
1675.000000	18.960148
1676.000000	18.887312
1677.000000	18.802383
1678.000000	18.722792
1679.000000	18.656142
1680.000000	18.590691
1681.000000	18.543108
1682.000000	18.488013
1683.000000	18.433831
1684.000000	18.398401
1685.000000	18.351943
1686.000000	18.317897
1687.000000	18.268793
1688.000000	18.222722
1689.000000	18.181138
1690.000000	18.148651
1691.000000	18.125725
1692.000000	18.093744
1693.000000	18.057486
1694.000000	18.034673
1695.000000	18.022801
1696.000000	18.017426
1697.000000	18.000516
1698.000000	17.973473
1699.000000	17.970839
1700.000000	17.939881
1701.000000	17.918578
1702.000000	17.896803
1703.000000	17.863660
1704.000000	17.866484
1705.000000	17.808063
1706.000000	17.760777
1707.000000	17.720524
1708.000000	17.653896
1709.000000	17.602204
1710.000000	17.547367
1711.000000	17.480071
1712.000000	17.433402
1713.000000	17.375135
1714.000000	17.314859
1715.000000	17.276332
1716.000000	17.196007
1717.000000	17.144921
1718.000000	17.091618
1719.000000	17.066658
1720.000000	17.022881
1721.000000	16.966447
1722.000000	16.935751
1723.000000	16.905457
1724.000000	16.888171
1725.000000	16.855425
1726.000000	16.822463
1727.000000	16.815971
1728.000000	16.828501
1729.000000	16.823363
1730.000000	16.824164
1731.000000	16.841743
1732.000000	16.856837
1733.000000	16.907448
1734.000000	16.946906
1735.000000	16.987521
1736.000000	17.017328
1737.000000	17.059853
1738.000000	17.086675
1739.000000	17.129405
1740.000000	17.157446
1741.000000	17.210985
1742.000000	17.257353
1743.000000	17.286115
1744.000000	17.323541
1745.000000	17.352685
1746.000000	17.384691
1747.000000	17.407285
1748.000000	17.457108
1749.000000	17.476667
1750.000000	17.500826
1751.000000	17.534758
1752.000000	17.560338
1753.000000	17.589938
1754.000000	17.616450
1755.000000	17.633009
1756.000000	17.663388
1757.000000	17.666211
1758.000000	17.678232
1759.000000	17.710686
1760.000000	17.742310
1761.000000	17.755253
1762.000000	17.764136
1763.000000	17.800160
1764.000000	17.819894
1765.000000	17.827377
1766.000000	17.833617
1767.000000	17.859292
1768.000000	17.868933
1769.000000	17.895172
1770.000000	17.911206
1771.000000	17.942003
1772.000000	17.975250
1773.000000	17.976184
1774.000000	17.996732
1775.000000	18.017658
1776.000000	18.036243
1777.000000	18.044916
1778.000000	18.060521
1779.000000	18.076550
1780.000000	18.093483
1781.000000	18.104560
1782.000000	18.121213
1783.000000	18.131211
1784.000000	18.151853
1785.000000	18.155327
1786.000000	18.168498
1787.000000	18.188630
1788.000000	18.215630
1789.000000	18.226336
1790.000000	18.225097
1791.000000	18.254796
1792.000000	18.272583
1793.000000	18.278292
1794.000000	18.275713
1795.000000	18.291570
1796.000000	18.315123
1797.000000	18.349422
1798.000000	18.378252
1799.000000	18.384473
1800.000000	18.390268
1801.000000	18.393816
1802.000000	18.412154
1803.000000	18.432606
1804.000000	18.452310
1805.000000	18.463297
1806.000000	18.467728
1807.000000	18.486332
1808.000000	18.532623
1809.000000	18.572895
1810.000000	18.586421
1811.000000	18.583424
1812.000000	18.596800
1813.000000	18.615390
1814.000000	18.620884
1815.000000	18.627728
1816.000000	18.653240
1817.000000	18.698747
1818.000000	18.726080
1819.000000	18.710315
1820.000000	18.670340
1821.000000	18.668292
1822.000000	18.709854
1823.000000	18.763754
1824.000000	18.795945
1825.000000	18.825515
1826.000000	18.838387
1827.000000	18.834768
1828.000000	18.844857
1829.000000	18.864465
1830.000000	18.863483
1831.000000	18.872405
1832.000000	18.927334
1833.000000	19.006424
1834.000000	19.035667
1835.000000	19.031324
1836.000000	19.000645
1837.000000	18.988608
1838.000000	19.016682
1839.000000	19.023501
1840.000000	18.985224
1841.000000	18.947737
1842.000000	18.956015
1843.000000	19.023013
1844.000000	19.124749
1845.000000	19.159760
1846.000000	19.143393
1847.000000	19.036822
1848.000000	18.967646
1849.000000	18.983593
1850.000000	19.039399
1851.000000	19.070614
1852.000000	19.061962
1853.000000	19.056299
1854.000000	19.059302
1855.000000	19.067843
1856.000000	19.107352
1857.000000	19.098464
1858.000000	19.064840
1859.000000	19.026519
1860.000000	19.024952
1861.000000	19.025229
1862.000000	19.025309
1863.000000	19.034170
1864.000000	19.024326
1865.000000	19.021031
1866.000000	19.001935
1867.000000	18.940107
1868.000000	18.856922
1869.000000	18.722887
1870.000000	18.594759
1871.000000	18.469761
1872.000000	18.309541
1873.000000	18.152818
1874.000000	18.044454
1875.000000	17.892281
1876.000000	17.753457
1877.000000	17.637632
1878.000000	17.526392
1879.000000	17.430466
1880.000000	17.330494
1881.000000	17.185568
1882.000000	17.042515
1883.000000	16.910719
1884.000000	16.776147
1885.000000	16.603816
1886.000000	16.461307
1887.000000	16.355361
1888.000000	16.251418
1889.000000	16.063411
1890.000000	15.899009
1891.000000	15.711990
1892.000000	15.543984
1893.000000	15.365490
1894.000000	15.169655
1895.000000	15.010475
1896.000000	14.823488
1897.000000	14.660234
1898.000000	14.394733
1899.000000	14.161352
1900.000000	13.924851
1901.000000	13.691664
1902.000000	13.513081
1903.000000	13.319009
1904.000000	13.074424
1905.000000	12.818410
1906.000000	12.639688
1907.000000	12.442629
1908.000000	12.267857
1909.000000	12.139217
1910.000000	11.989021
1911.000000	11.809917
1912.000000	11.657261
1913.000000	11.453594
1914.000000	11.346328
1915.000000	11.183548
1916.000000	11.110945
1917.000000	11.036871
1918.000000	10.927556
1919.000000	10.789872
1920.000000	10.638031
1921.000000	10.573602
1922.000000	10.526051
1923.000000	10.393065
1924.000000	10.341485
1925.000000	10.288691
1926.000000	10.204336
1927.000000	10.136895
1928.000000	10.091232
1929.000000	10.082507
1930.000000	10.014283
1931.000000	10.013946
1932.000000	9.994626
1933.000000	10.029419
1934.000000	9.935412
1935.000000	9.964368
1936.000000	9.908030
1937.000000	9.903678
1938.000000	9.854822
1939.000000	9.904387
1940.000000	9.864022
1941.000000	9.917433
1942.000000	9.959723
1943.000000	9.977055
1944.000000	10.025356
1945.000000	9.997340
1946.000000	10.035860
1947.000000	10.050509
1948.000000	10.103942
1949.000000	10.123488
1950.000000	10.182382
1951.000000	10.190123
1952.000000	10.223530
1953.000000	10.227203
1954.000000	10.318209
1955.000000	10.340435
1956.000000	10.410766
1957.000000	10.395832
1958.000000	10.448610
1959.000000	10.512066
1960.000000	10.565010
1961.000000	10.583822
1962.000000	10.608419
1963.000000	10.676143
1964.000000	10.708968
1965.000000	10.791229
1966.000000	10.803093
1967.000000	10.856445
1968.000000	10.908801
1969.000000	10.934038
1970.000000	10.974294
1971.000000	11.030766
1972.000000	11.056443
1973.000000	11.104968
1974.000000	11.171397
1975.000000	11.226631
1976.000000	11.223195
1977.000000	11.318045
1978.000000	11.312479
1979.000000	11.396524
1980.000000	11.435671
1981.000000	11.495818
1982.000000	11.562834
1983.000000	11.598209
1984.000000	11.636853
1985.000000	11.679350
1986.000000	11.704109
1987.000000	11.783066
1988.000000	11.851546
1989.000000	11.853850
1990.000000	11.925500
1991.000000	11.948857
1992.000000	12.010333
1993.000000	12.024826
1994.000000	12.064487
1995.000000	12.069582
1996.000000	12.106076
1997.000000	12.149554
1998.000000	12.230948
1999.000000	12.232333
2000.000000	12.263601
2001.000000	12.242827
2002.000000	12.265104
2003.000000	12.301659
2004.000000	12.343192
2005.000000	12.399891
2006.000000	12.362452
2007.000000	12.374678
2008.000000	12.407917
2009.000000	12.396835
2010.000000	12.436743
2011.000000	12.440182
2012.000000	12.401273
2013.000000	12.449591
2014.000000	12.421466
2015.000000	12.389109
2016.000000	12.376899
2017.000000	12.380599
2018.000000	12.389186
2019.000000	12.377415
2020.000000	12.299618
2021.000000	12.253775
2022.000000	12.181408
2023.000000	12.156431
2024.000000	12.136043
2025.000000	12.117693
2026.000000	12.155249
2027.000000	12.064474
2028.000000	12.044098
2029.000000	11.971441
2030.000000	11.867966
2031.000000	11.879594
2032.000000	11.845716
2033.000000	11.772728
2034.000000	11.678277
2035.000000	11.667970
2036.000000	11.631268
2037.000000	11.572157
2038.000000	11.482915
2039.000000	11.423702
2040.000000	11.313668
2041.000000	11.280408
2042.000000	11.271933
2043.000000	11.153964
2044.000000	11.112689
2045.000000	11.099362
2046.000000	11.089124
2047.000000	10.988368
2048.000000	10.899624
2049.000000	10.877435
2050.000000	10.868694
2051.000000	10.826034
2052.000000	10.839519
2053.000000	10.837571
2054.000000	10.798315
2055.000000	10.782235
2056.000000	10.826214
2057.000000	10.784614
2058.000000	10.792680
2059.000000	10.847651
2060.000000	10.886207
2061.000000	10.922318
2062.000000	10.980103
2063.000000	11.033578
2064.000000	11.052691
2065.000000	11.107304
2066.000000	11.201461
2067.000000	11.270809
2068.000000	11.282042
2069.000000	11.333010
2070.000000	11.384383
2071.000000	11.447855
2072.000000	11.542527
2073.000000	11.563123
2074.000000	11.619344
2075.000000	11.723077
2076.000000	11.764509
2077.000000	11.799397
2078.000000	11.830916
2079.000000	11.832721
2080.000000	11.915894
2081.000000	11.900105
2082.000000	11.928127
2083.000000	12.009693
2084.000000	12.033506
2085.000000	12.085556
2086.000000	12.060470
2087.000000	12.003834
2088.000000	12.119634
2089.000000	12.236897
2090.000000	12.196733
2091.000000	12.158614
2092.000000	12.180611
2093.000000	12.215874
2094.000000	12.183292
2095.000000	12.130833
2096.000000	12.185150
2097.000000	12.223616
2098.000000	12.200310
2099.000000	12.181997
2100.000000	12.162946
2101.000000	12.187886
2102.000000	12.221615
2103.000000	12.259776
2104.000000	12.298303
2105.000000	12.247728
2106.000000	12.263065
2107.000000	12.319410
2108.000000	12.277247
2109.000000	12.338526
2110.000000	12.271561
2111.000000	12.276801
2112.000000	12.327387
2113.000000	12.324172
2114.000000	12.349799
2115.000000	12.380612
2116.000000	12.433408
2117.000000	12.391706
2118.000000	12.307743
2119.000000	12.355834
2120.000000	12.371752
2121.000000	12.336691
2122.000000	12.399821
2123.000000	12.362326
2124.000000	12.407335
2125.000000	12.437285
2126.000000	12.279748
2127.000000	12.215825
2128.000000	12.298972
2129.000000	12.210372
2130.000000	12.183446
2131.000000	12.198919
2132.000000	12.075695
2133.000000	12.096863
2134.000000	12.055335
2135.000000	12.074041
2136.000000	12.015319
2137.000000	11.980499
2138.000000	11.995227
2139.000000	11.960007
2140.000000	11.764216
2141.000000	11.702944
2142.000000	11.702063
2143.000000	11.556809
2144.000000	11.541468
2145.000000	11.529494
2146.000000	11.447756
2147.000000	11.462300
2148.000000	11.401277
2149.000000	11.310652
2150.000000	11.200825
2151.000000	11.219868
2152.000000	11.008267
2153.000000	11.026937
2154.000000	11.095273
2155.000000	10.965347
2156.000000	10.963020
2157.000000	10.926686
2158.000000	10.810771
2159.000000	10.715371
2160.000000	10.744527
2161.000000	10.635432
2162.000000	10.646013
2163.000000	10.542934
2164.000000	10.572762
2165.000000	10.551899
2166.000000	10.543210
2167.000000	10.473732
2168.000000	10.399326
2169.000000	10.398347
2170.000000	10.433300
2171.000000	10.309741
2172.000000	10.342713
2173.000000	10.401601
2174.000000	10.501854
2175.000000	10.384599
2176.000000	10.243333
2177.000000	10.380359
2178.000000	10.370195
2179.000000	10.381629
2180.000000	10.358371
2181.000000	10.301581
2182.000000	10.282546
2183.000000	10.395223
2184.000000	10.451763
2185.000000	10.407135
2186.000000	10.353724
2187.000000	10.465347
2188.000000	10.361525
2189.000000	10.243700
2190.000000	10.412131
2191.000000	10.352323
2192.000000	10.532843
2193.000000	10.521526
2194.000000	10.546468
2195.000000	10.495303
2196.000000	10.607760
2197.000000	10.557292
2198.000000	10.818924
2199.000000	10.675959
2200.000000	10.597053
2201.000000	10.762717
2202.000000	10.820032
2203.000000	10.864882
2204.000000	10.948068
2205.000000	10.906144
2206.000000	11.011793
2207.000000	10.983112
2208.000000	11.053615
2209.000000	10.924448
2210.000000	11.015711
2211.000000	10.984640
2212.000000	11.000721
2213.000000	11.149409
2214.000000	10.942333
2215.000000	11.155320
2216.000000	11.177598
2217.000000	11.178798
2218.000000	11.216310
2219.000000	11.189264
2220.000000	11.235332
2221.000000	11.328653
2222.000000	11.192476
2223.000000	11.292056
2224.000000	11.350980
2225.000000	11.273380
2226.000000	11.334508
2227.000000	11.300411
2228.000000	11.382672
2229.000000	11.419865
2230.000000	11.464808
2231.000000	11.477687
2232.000000	11.474661
2233.000000	11.429599
2234.000000	11.623597
2235.000000	11.500274
2236.000000	11.449719
2237.000000	11.419452
2238.000000	11.492810
2239.000000	11.417147
2240.000000	11.450621
2241.000000	11.368483
2242.000000	11.238974
2243.000000	11.281146
2244.000000	11.318385
2245.000000	11.351136
2246.000000	11.170838
2247.000000	11.056097
2248.000000	11.123190
2249.000000	11.032320
2250.000000	10.912211
2251.000000	10.792978
2252.000000	10.810138
2253.000000	10.793439
2254.000000	10.756835
2255.000000	10.725476
2256.000000	10.631579
2257.000000	10.506399
2258.000000	10.419769
2259.000000	10.332492
2260.000000	10.298544
2261.000000	10.176463
2262.000000	10.287754
2263.000000	10.194675
2264.000000	9.965803
2265.000000	10.030460
2266.000000	10.040756
2267.000000	10.041758
2268.000000	10.028971
2269.000000	9.974522
2270.000000	9.871524
2271.000000	9.834572
2272.000000	9.924953
2273.000000	9.714560
2274.000000	9.853418
2275.000000	9.809809
2276.000000	9.770065
2277.000000	9.805357
2278.000000	9.804924
2279.000000	9.822411
2280.000000	9.886972
2281.000000	9.765386
2282.000000	9.644374
2283.000000	9.697293
2284.000000	9.654361
2285.000000	9.602975
2286.000000	9.842878
2287.000000	9.794573
2288.000000	9.855962
2289.000000	9.824124
2290.000000	9.752012
2291.000000	9.707789
2292.000000	9.781639
2293.000000	9.770744
2294.000000	9.792229
2295.000000	9.802458
2296.000000	9.810858
2297.000000	9.729319
2298.000000	9.606383
2299.000000	9.636051
2300.000000	9.619950
2301.000000	9.667652
2302.000000	9.614833
2303.000000	9.534773
2304.000000	9.719446
2305.000000	9.848375
2306.000000	9.740436
2307.000000	9.754403
2308.000000	9.889039
2309.000000	9.975583
2310.000000	9.971557
2311.000000	10.039758
2312.000000	10.073592
2313.000000	10.137484
2314.000000	10.124969
2315.000000	10.047349
2316.000000	10.023477
2317.000000	10.168422
2318.000000	10.225529
2319.000000	10.210285
2320.000000	10.204907
2321.000000	10.220425
2322.000000	10.072836
2323.000000	10.001747
2324.000000	10.105062
2325.000000	10.135135
2326.000000	10.195492
2327.000000	10.362399
2328.000000	10.388001
2329.000000	10.592091
2330.000000	10.569611
2331.000000	10.594019
2332.000000	10.587014
2333.000000	10.466868
2334.000000	10.441192
2335.000000	10.421488
2336.000000	10.203636
2337.000000	10.406166
2338.000000	10.579965
2339.000000	10.384178
2340.000000	10.503047
2341.000000	10.673195
2342.000000	10.626772
2343.000000	10.616451
2344.000000	10.729311
2345.000000	10.709187
2346.000000	10.737805
2347.000000	10.783593
2348.000000	10.790647
2349.000000	10.717637
2350.000000	10.716377
2351.000000	10.591851
2352.000000	10.575268
2353.000000	10.554577
2354.000000	10.684300
2355.000000	11.115634
2356.000000	11.288381
2357.000000	11.016875
2358.000000	10.936319
2359.000000	10.922452
2360.000000	10.953693
2361.000000	11.195310
2362.000000	11.148231
2363.000000	11.144639
2364.000000	11.166066
2365.000000	11.331626
2366.000000	11.315011
2367.000000	11.285227
2368.000000	11.437876
2369.000000	11.416180
2370.000000	11.235890
2371.000000	11.313302
2372.000000	11.275450
2373.000000	11.287923
2374.000000	11.409662
2375.000000	11.401713
2376.000000	11.166773
2377.000000	11.511751
2378.000000	11.555753
2379.000000	11.434400
2380.000000	11.584423
2381.000000	11.606143
2382.000000	11.512975
2383.000000	11.349451
2384.000000	11.396249
2385.000000	11.410876
2386.000000	11.504025
2387.000000	11.351297
2388.000000	11.513268
2389.000000	11.677397
2390.000000	11.465409
2391.000000	11.568845
2392.000000	11.592059
2393.000000	11.534103
2394.000000	11.748253
2395.000000	11.789410
2396.000000	11.732838
2397.000000	11.760748
2398.000000	11.951263
2399.000000	11.807392
2400.000000	11.915295
2401.000000	11.855984
2402.000000	11.694248
2403.000000	11.779641
2404.000000	11.854955
2405.000000	11.774348
2406.000000	11.874059
2407.000000	11.762241
2408.000000	11.716640
2409.000000	11.916569
2410.000000	11.792942
2411.000000	11.589810
2412.000000	11.660797
2413.000000	11.935988
2414.000000	11.958378
2415.000000	11.699894
2416.000000	11.610473
2417.000000	11.570384
2418.000000	11.538039
2419.000000	11.517169
2420.000000	11.785989
2421.000000	11.976371
2422.000000	11.899858
2423.000000	12.146617
2424.000000	11.860327
2425.000000	11.617116
2426.000000	11.871512
2427.000000	11.934537
2428.000000	11.794672
2429.000000	11.714287
2430.000000	11.468510
2431.000000	11.606353
2432.000000	11.969426
2433.000000	11.884970
2434.000000	11.897906
2435.000000	11.509835
2436.000000	11.852584
2437.000000	11.926483
2438.000000	11.584122
2439.000000	11.820150
2440.000000	11.450067
2441.000000	12.029949
2442.000000	11.854611
2443.000000	11.314675
2444.000000	10.988204
2445.000000	11.572201
2446.000000	11.882921
2447.000000	12.023470
2448.000000	12.474274
2449.000000	11.794545
2450.000000	11.227221
2451.000000	11.801556
2452.000000	12.036442
2453.000000	11.687808
2454.000000	12.016623
2455.000000	11.509123
2456.000000	12.199859
2457.000000	12.396470
2458.000000	12.493877
2459.000000	12.281078
2460.000000	12.524436
2461.000000	12.297421
2462.000000	12.775470
2463.000000	12.863876
2464.000000	13.621372
2465.000000	12.753691
2466.000000	13.209833
2467.000000	13.774432
2468.000000	13.362768
2469.000000	13.342890
2470.000000	15.082036
2471.000000	15.375149
2472.000000	14.497438
2473.000000	13.853825
2474.000000	15.046607
2475.000000	16.246444
2476.000000	16.272941
2477.000000	17.468201
2478.000000	16.392924
2479.000000	17.064508
2480.000000	16.703591
2481.000000	18.289730
2482.000000	18.786987
2483.000000	20.645790
2484.000000	19.811690
2485.000000	19.502557
2486.000000	23.319195
2487.000000	24.249279
2488.000000	26.281580
2489.000000	25.973061
2490.000000	24.122166
2491.000000	29.568342
2492.000000	32.838990
2493.000000	36.278740
2494.000000	38.848515
2495.000000	48.121403
2496.000000	54.850825
2497.000000	44.495703
2498.000000	53.101809
2499.000000	55.968925
2500.000000	83.333052
2501.000000	nan
2502.000000	nan
2503.000000	nan
2504.000000	nan
2505.000000	nan
2506.000000	nan
2507.000000	nan
2508.000000	nan
2509.000000	nan
2510.000000	nan
2511.000000	nan
2512.000000	nan
2513.000000	nan
2514.000000	nan
2515.000000	nan
2516.000000	nan
2517.000000	nan
2518.000000	nan
2519.000000	nan
2520.000000	nan
2521.000000	nan
2522.000000	nan
2523.000000	nan
2524.000000	nan
2525.000000	nan
2526.000000	nan
2527.000000	nan
2528.000000	nan
2529.000000	nan
2530.000000	nan
2531.000000	nan
2532.000000	nan
2533.000000	nan
2534.000000	nan
2535.000000	nan
2536.000000	nan
2537.000000	nan
2538.000000	nan
2539.000000	nan
2540.000000	nan
2541.000000	nan
2542.000000	nan
2543.000000	nan
2544.000000	nan
2545.000000	nan
2546.000000	nan
2547.000000	nan
2548.000000	nan
2549.000000	nan
2550.000000	nan
2551.000000	nan
2552.000000	nan
2553.000000	nan
2554.000000	nan
2555.000000	nan
2556.000000	nan
2557.000000	nan
2558.000000	nan
2559.000000	nan
2560.000000	nan
2561.000000	nan
2562.000000	nan
2563.000000	nan
2564.000000	nan
2565.000000	nan
2566.000000	nan
2567.000000	nan
2568.000000	nan
2569.000000	nan
2570.000000	nan
2571.000000	nan
2572.000000	nan
2573.000000	nan
2574.000000	nan
2575.000000	nan
2576.000000	nan
2577.000000	nan
2578.000000	nan
2579.000000	nan
2580.000000	nan
2581.000000	nan
2582.000000	nan
2583.000000	nan
2584.000000	nan
2585.000000	nan
2586.000000	nan
2587.000000	nan
2588.000000	nan
2589.000000	nan
2590.000000	nan
2591.000000	nan
2592.000000	nan
2593.000000	nan
2594.000000	nan
2595.000000	nan
2596.000000	nan
2597.000000	nan
2598.000000	nan
2599.000000	nan
2600.000000	nan
2601.000000	nan
2602.000000	nan
2603.000000	nan
2604.000000	nan
2605.000000	nan
2606.000000	nan
2607.000000	nan
2608.000000	nan
2609.000000	nan
2610.000000	nan
2611.000000	nan
2612.000000	nan
2613.000000	nan
2614.000000	nan
2615.000000	nan
2616.000000	nan
2617.000000	nan
2618.000000	nan
2619.000000	nan
2620.000000	nan
2621.000000	nan
2622.000000	nan
2623.000000	nan
2624.000000	nan
2625.000000	nan
2626.000000	nan
2627.000000	nan
2628.000000	nan
2629.000000	nan
2630.000000	nan
2631.000000	nan
2632.000000	nan
2633.000000	nan
2634.000000	nan
2635.000000	nan
2636.000000	nan
2637.000000	nan
2638.000000	nan
2639.000000	nan
2640.000000	nan
2641.000000	nan
2642.000000	nan
2643.000000	nan
2644.000000	nan
2645.000000	nan
2646.000000	nan
2647.000000	nan
2648.000000	nan
2649.000000	nan
2650.000000	nan
2651.000000	nan
2652.000000	nan
2653.000000	nan
2654.000000	nan
2655.000000	nan
2656.000000	nan
2657.000000	nan
2658.000000	nan
2659.000000	nan
2660.000000	nan
2661.000000	nan
2662.000000	nan
2663.000000	nan
2664.000000	nan
2665.000000	nan
2666.000000	nan
2667.000000	nan
2668.000000	nan
2669.000000	nan
2670.000000	nan
2671.000000	nan
2672.000000	nan
2673.000000	nan
2674.000000	nan
2675.000000	nan
2676.000000	nan
2677.000000	nan
2678.000000	nan
2679.000000	nan
2680.000000	nan
2681.000000	nan
2682.000000	nan
2683.000000	nan
2684.000000	nan
2685.000000	nan
2686.000000	nan
2687.000000	nan
2688.000000	nan
2689.000000	nan
2690.000000	nan
2691.000000	nan
2692.000000	nan
2693.000000	nan
2694.000000	nan
2695.000000	nan
2696.000000	nan
2697.000000	nan
2698.000000	nan
2699.000000	nan
2700.000000	nan
2701.000000	nan
2702.000000	nan
2703.000000	nan
2704.000000	nan
2705.000000	nan
2706.000000	nan
2707.000000	nan
2708.000000	nan
2709.000000	nan
2710.000000	nan
2711.000000	nan
2712.000000	nan
2713.000000	nan
2714.000000	nan
2715.000000	nan
2716.000000	nan
2717.000000	nan
2718.000000	nan
2719.000000	nan
2720.000000	nan
2721.000000	nan
2722.000000	nan
2723.000000	nan
2724.000000	nan
2725.000000	nan
2726.000000	nan
2727.000000	nan
2728.000000	nan
2729.000000	nan
2730.000000	nan
2731.000000	nan
2732.000000	nan
2733.000000	nan
2734.000000	nan
2735.000000	nan
2736.000000	nan
2737.000000	nan
2738.000000	nan
2739.000000	nan
2740.000000	nan
2741.000000	nan
2742.000000	nan
2743.000000	nan
2744.000000	nan
2745.000000	nan
2746.000000	nan
2747.000000	nan
2748.000000	nan
2749.000000	nan
2750.000000	nan
2751.000000	nan
2752.000000	nan
2753.000000	nan
2754.000000	nan
2755.000000	nan
2756.000000	nan
2757.000000	nan
2758.000000	nan
2759.000000	nan
2760.000000	nan
2761.000000	nan
2762.000000	nan
2763.000000	nan
2764.000000	nan
2765.000000	nan
2766.000000	nan
2767.000000	nan
2768.000000	nan
2769.000000	nan
2770.000000	nan
2771.000000	nan
2772.000000	nan
2773.000000	nan
2774.000000	nan
2775.000000	nan
2776.000000	nan
2777.000000	nan
2778.000000	nan
2779.000000	nan
2780.000000	nan
2781.000000	nan
2782.000000	nan
2783.000000	nan
2784.000000	nan
2785.000000	nan
2786.000000	nan
2787.000000	nan
2788.000000	nan
2789.000000	nan
2790.000000	nan
2791.000000	nan
2792.000000	nan
2793.000000	nan
2794.000000	nan
2795.000000	nan
2796.000000	nan
2797.000000	nan
2798.000000	nan
2799.000000	nan
2800.000000	nan
2801.000000	nan
2802.000000	nan
2803.000000	nan
2804.000000	nan
2805.000000	nan
2806.000000	nan
2807.000000	nan
2808.000000	nan
2809.000000	nan
2810.000000	nan
2811.000000	nan
2812.000000	nan
2813.000000	nan
2814.000000	nan
2815.000000	nan
2816.000000	nan
2817.000000	nan
2818.000000	nan
2819.000000	nan
2820.000000	nan
2821.000000	nan
2822.000000	nan
2823.000000	nan
2824.000000	nan
2825.000000	nan
2826.000000	nan
2827.000000	nan
2828.000000	nan
2829.000000	nan
2830.000000	nan
2831.000000	nan
2832.000000	nan
2833.000000	nan
2834.000000	nan
2835.000000	nan
2836.000000	nan
2837.000000	nan
2838.000000	nan
2839.000000	nan
2840.000000	nan
2841.000000	nan
2842.000000	nan
2843.000000	nan
2844.000000	nan
2845.000000	nan
2846.000000	nan
2847.000000	nan
2848.000000	nan
2849.000000	nan
2850.000000	nan
2851.000000	nan
2852.000000	nan
2853.000000	nan
2854.000000	nan
2855.000000	nan
2856.000000	nan
2857.000000	nan
2858.000000	nan
2859.000000	nan
2860.000000	nan
2861.000000	nan
2862.000000	nan
2863.000000	nan
2864.000000	nan
2865.000000	nan
2866.000000	nan
2867.000000	nan
2868.000000	nan
2869.000000	nan
2870.000000	nan
2871.000000	nan
2872.000000	nan
2873.000000	nan
2874.000000	nan
2875.000000	nan
2876.000000	nan
2877.000000	nan
2878.000000	nan
2879.000000	nan
2880.000000	nan
2881.000000	nan
2882.000000	nan
2883.000000	nan
2884.000000	nan
2885.000000	nan
2886.000000	nan
2887.000000	nan
2888.000000	nan
2889.000000	nan
2890.000000	nan
2891.000000	nan
2892.000000	nan
2893.000000	nan
2894.000000	nan
2895.000000	nan
2896.000000	nan
2897.000000	nan
2898.000000	nan
2899.000000	nan
2900.000000	nan
2901.000000	nan
2902.000000	nan
2903.000000	nan
2904.000000	nan
2905.000000	nan
2906.000000	nan
2907.000000	nan
2908.000000	nan
2909.000000	nan
2910.000000	nan
2911.000000	nan
2912.000000	nan
2913.000000	nan
2914.000000	nan
2915.000000	nan
2916.000000	nan
2917.000000	nan
2918.000000	nan
2919.000000	nan
2920.000000	nan
2921.000000	nan
2922.000000	nan
2923.000000	nan
2924.000000	nan
2925.000000	nan
2926.000000	nan
2927.000000	nan
2928.000000	nan
2929.000000	nan
2930.000000	nan
2931.000000	nan
2932.000000	nan
2933.000000	nan
2934.000000	nan
2935.000000	nan
2936.000000	nan
2937.000000	nan
2938.000000	nan
2939.000000	nan
2940.000000	nan
2941.000000	nan
2942.000000	nan
2943.000000	nan
2944.000000	nan
2945.000000	nan
2946.000000	nan
2947.000000	nan
2948.000000	nan
2949.000000	nan
2950.000000	nan
2951.000000	nan
2952.000000	nan
2953.000000	nan
2954.000000	nan
2955.000000	nan
2956.000000	nan
2957.000000	nan
2958.000000	nan
2959.000000	nan
2960.000000	nan
2961.000000	nan
2962.000000	nan
2963.000000	nan
2964.000000	nan
2965.000000	nan
2966.000000	nan
2967.000000	nan
2968.000000	nan
2969.000000	nan
2970.000000	nan
2971.000000	nan
2972.000000	nan
2973.000000	nan
2974.000000	nan
2975.000000	nan
2976.000000	nan
2977.000000	nan
2978.000000	nan
2979.000000	nan
2980.000000	nan
2981.000000	nan
2982.000000	nan
2983.000000	nan
2984.000000	nan
2985.000000	nan
2986.000000	nan
2987.000000	nan
2988.000000	nan
2989.000000	nan
2990.000000	nan
2991.000000	nan
2992.000000	nan
2993.000000	nan
2994.000000	nan
2995.000000	nan
2996.000000	nan
2997.000000	nan
2998.000000	nan
2999.000000	nan
3000.000000	nan
