PE UV       SUBTECH     SPECTRUM    ASCII       PEDS        4.00        
   -1
INBUCR0141-4.Sample.ASC
24/02/07
14:58:22.00
24/02/07
14:58:22.00
Vinicio Soto Monge
Color café con ambos élitros. Pelidnota laevissima. Det: A. Solís. Finca Cafrosa, Embalce, 800 m NO. de Tigra, Puntarenas, Costa Rica. 1280 m. 10-26 MAR 1996. E. Navarro, de Luz L_S_317800_596200 #7488. INBIOCRI002382849
250,000000
1
Lambda 1050
1050L1511233
PerkinElmer UV WinLab 6.3.2.0749 / 2.02.05 Lambda 900 UV/VIS/NIR, Aug  7 2015 09:38:08

0
0
3350/servo 860,8/2
0
0
UV/VIS
1
1
1
DoubleDePol,CommonBeamDepol,RBeamAtt,SBeamAtt,60mm sphere, WB InGaAs Detector
0
0
0
0
Program
Program
3350/servo 860,8/2
3350/0,2 860,8/0,2
3350/0,2 860,8/0,2
0
15.00
 
 
 
0
 
860,8
319,2
860,8
Front
100
on
S:100 R:100
0
0
0
0
 
0
 
 
 
0
 
 
0
0
0
0
0
 
 
 
 
0
0


0
0
#HDR
-1
-1
#GR
nm
%R
1.0
0.0
2500,000000
-1,000000
2251
8
16,418000
1,175600
#DATA

250.000000	2.944158
251.000000	2.924973
252.000000	2.927315
253.000000	2.918025
254.000000	2.912354
255.000000	2.886027
256.000000	2.890542
257.000000	2.896365
258.000000	2.870575
259.000000	2.846873
260.000000	2.832971
261.000000	2.847825
262.000000	2.808892
263.000000	2.771902
264.000000	2.742217
265.000000	2.754220
266.000000	2.726644
267.000000	2.715161
268.000000	2.705151
269.000000	2.672800
270.000000	2.674993
271.000000	2.666542
272.000000	2.652622
273.000000	2.651495
274.000000	2.613278
275.000000	2.619429
276.000000	2.612441
277.000000	2.605265
278.000000	2.597104
279.000000	2.584538
280.000000	2.598693
281.000000	2.574822
282.000000	2.581891
283.000000	2.575965
284.000000	2.573313
285.000000	2.558502
286.000000	2.570354
287.000000	2.522210
288.000000	2.542601
289.000000	2.539282
290.000000	2.568648
291.000000	2.548476
292.000000	2.568556
293.000000	2.569635
294.000000	2.573583
295.000000	2.584279
296.000000	2.560228
297.000000	2.573816
298.000000	2.562609
299.000000	2.568011
300.000000	2.552913
301.000000	2.602721
302.000000	2.566081
303.000000	2.558393
304.000000	2.581359
305.000000	2.547076
306.000000	2.525359
307.000000	2.545071
308.000000	2.526762
309.000000	2.547317
310.000000	2.524142
311.000000	2.508276
312.000000	2.532109
313.000000	2.527480
314.000000	2.515586
315.000000	2.520386
316.000000	2.507429
317.000000	2.356792
318.000000	2.391449
319.000000	2.356556
320.000000	2.456118
321.000000	2.490835
322.000000	2.483587
323.000000	2.454177
324.000000	2.401810
325.000000	2.447639
326.000000	2.411809
327.000000	2.474113
328.000000	2.449255
329.000000	2.441895
330.000000	2.416463
331.000000	2.443925
332.000000	2.429386
333.000000	2.414969
334.000000	2.399943
335.000000	2.459945
336.000000	2.478268
337.000000	2.459082
338.000000	2.454489
339.000000	2.485662
340.000000	2.470422
341.000000	2.477022
342.000000	2.497522
343.000000	2.506180
344.000000	2.487787
345.000000	2.497771
346.000000	2.475313
347.000000	2.506315
348.000000	2.546070
349.000000	2.529118
350.000000	2.547716
351.000000	2.518398
352.000000	2.552476
353.000000	2.527667
354.000000	2.534680
355.000000	2.544546
356.000000	2.515951
357.000000	2.560979
358.000000	2.544645
359.000000	2.564622
360.000000	2.576613
361.000000	2.595317
362.000000	2.590710
363.000000	2.582843
364.000000	2.604534
365.000000	2.605287
366.000000	2.615568
367.000000	2.632434
368.000000	2.607822
369.000000	2.642372
370.000000	2.660930
371.000000	2.698403
372.000000	2.736081
373.000000	2.707297
374.000000	2.736834
375.000000	2.755045
376.000000	2.650895
377.000000	2.744221
378.000000	2.746825
379.000000	2.754785
380.000000	2.765733
381.000000	2.762997
382.000000	2.763746
383.000000	2.769827
384.000000	2.772615
385.000000	2.769897
386.000000	2.769793
387.000000	2.777263
388.000000	2.777253
389.000000	2.777052
390.000000	2.784037
391.000000	2.789784
392.000000	2.787156
393.000000	2.790760
394.000000	2.791802
395.000000	2.792768
396.000000	2.802445
397.000000	2.810091
398.000000	2.802843
399.000000	2.801958
400.000000	2.808673
401.000000	2.821106
402.000000	2.825230
403.000000	2.826984
404.000000	2.834971
405.000000	2.835029
406.000000	2.842401
407.000000	2.854018
408.000000	2.866145
409.000000	2.880973
410.000000	2.896733
411.000000	2.913362
412.000000	2.933897
413.000000	2.954744
414.000000	2.980646
415.000000	3.007075
416.000000	3.038567
417.000000	3.075555
418.000000	3.112382
419.000000	3.145396
420.000000	3.182805
421.000000	3.224266
422.000000	3.264369
423.000000	3.314886
424.000000	3.362341
425.000000	3.408115
426.000000	3.456842
427.000000	3.507854
428.000000	3.556796
429.000000	3.604714
430.000000	3.658132
431.000000	3.709669
432.000000	3.757376
433.000000	3.806066
434.000000	3.859243
435.000000	3.915196
436.000000	3.968211
437.000000	4.021516
438.000000	4.076647
439.000000	4.136542
440.000000	4.193469
441.000000	4.251972
442.000000	4.309956
443.000000	4.371502
444.000000	4.434702
445.000000	4.490972
446.000000	4.551632
447.000000	4.616978
448.000000	4.673800
449.000000	4.732600
450.000000	4.799614
451.000000	4.864127
452.000000	4.935753
453.000000	5.007125
454.000000	5.064599
455.000000	5.128671
456.000000	5.199853
457.000000	5.261008
458.000000	5.328367
459.000000	5.398223
460.000000	5.460878
461.000000	5.526988
462.000000	5.597234
463.000000	5.661607
464.000000	5.727240
465.000000	5.797164
466.000000	5.865563
467.000000	5.928579
468.000000	5.993125
469.000000	6.061657
470.000000	6.134515
471.000000	6.200088
472.000000	6.269050
473.000000	6.338936
474.000000	6.406710
475.000000	6.478298
476.000000	6.550785
477.000000	6.622660
478.000000	6.693570
479.000000	6.762279
480.000000	6.837398
481.000000	6.918649
482.000000	6.993877
483.000000	7.065795
484.000000	7.130695
485.000000	7.199405
486.000000	7.264577
487.000000	7.323607
488.000000	7.384840
489.000000	7.447838
490.000000	7.513395
491.000000	7.580915
492.000000	7.649077
493.000000	7.716869
494.000000	7.789874
495.000000	7.853400
496.000000	7.919148
497.000000	7.986182
498.000000	8.053166
499.000000	8.130499
500.000000	8.204712
501.000000	8.273510
502.000000	8.345780
503.000000	8.417795
504.000000	8.498024
505.000000	8.574961
506.000000	8.653760
507.000000	8.732898
508.000000	8.812338
509.000000	8.893824
510.000000	8.975412
511.000000	9.066328
512.000000	9.155803
513.000000	9.247061
514.000000	9.339978
515.000000	9.439289
516.000000	9.535660
517.000000	9.632268
518.000000	9.730329
519.000000	9.825582
520.000000	9.931206
521.000000	10.038605
522.000000	10.138253
523.000000	10.235981
524.000000	10.345319
525.000000	10.454632
526.000000	10.554217
527.000000	10.655280
528.000000	10.756765
529.000000	10.863556
530.000000	10.963206
531.000000	11.066142
532.000000	11.177587
533.000000	11.279341
534.000000	11.380810
535.000000	11.486741
536.000000	11.588947
537.000000	11.690662
538.000000	11.796492
539.000000	11.897338
540.000000	12.005563
541.000000	12.105786
542.000000	12.212935
543.000000	12.325992
544.000000	12.417623
545.000000	12.531719
546.000000	12.640326
547.000000	12.744130
548.000000	12.839426
549.000000	12.947918
550.000000	13.060232
551.000000	13.169169
552.000000	13.276118
553.000000	13.382371
554.000000	13.486421
555.000000	13.592997
556.000000	13.708565
557.000000	13.812695
558.000000	13.922418
559.000000	14.029682
560.000000	14.227123
561.000000	14.351114
562.000000	14.463643
563.000000	14.580642
564.000000	14.683896
565.000000	14.799105
566.000000	14.911886
567.000000	15.023731
568.000000	15.141118
569.000000	15.264982
570.000000	15.367871
571.000000	15.477309
572.000000	15.602755
573.000000	15.715802
574.000000	15.827509
575.000000	15.949046
576.000000	16.054364
577.000000	16.172843
578.000000	16.294204
579.000000	16.403127
580.000000	16.512427
581.000000	16.637384
582.000000	16.750567
583.000000	16.864297
584.000000	16.984303
585.000000	17.092897
586.000000	17.217394
587.000000	17.319561
588.000000	17.436164
589.000000	17.549253
590.000000	17.664634
591.000000	17.780860
592.000000	17.892369
593.000000	18.009507
594.000000	18.131209
595.000000	18.237749
596.000000	18.346839
597.000000	18.457989
598.000000	18.573510
599.000000	18.683075
600.000000	18.795645
601.000000	18.907907
602.000000	19.025215
603.000000	19.133658
604.000000	19.234855
605.000000	19.349937
606.000000	19.451843
607.000000	19.576463
608.000000	19.679272
609.000000	19.800176
610.000000	19.892269
611.000000	19.989672
612.000000	20.104028
613.000000	20.221508
614.000000	20.324344
615.000000	20.433043
616.000000	20.533237
617.000000	20.633882
618.000000	20.742026
619.000000	20.839192
620.000000	20.953640
621.000000	21.060790
622.000000	21.155710
623.000000	21.246147
624.000000	21.364440
625.000000	21.477934
626.000000	21.570667
627.000000	21.671750
628.000000	21.788487
629.000000	21.886213
630.000000	21.973059
631.000000	22.091122
632.000000	22.199138
633.000000	22.315414
634.000000	22.419393
635.000000	22.538973
636.000000	22.646208
637.000000	22.760656
638.000000	22.884910
639.000000	22.998668
640.000000	23.119062
641.000000	23.230523
642.000000	23.347606
643.000000	23.460163
644.000000	23.589891
645.000000	23.725202
646.000000	23.837062
647.000000	23.962012
648.000000	24.086624
649.000000	24.202221
650.000000	24.320179
651.000000	24.438248
652.000000	24.557205
653.000000	24.665797
654.000000	24.787126
655.000000	24.919539
656.000000	25.032632
657.000000	25.143253
658.000000	25.242588
659.000000	25.347650
660.000000	25.453937
661.000000	25.586324
662.000000	25.701231
663.000000	25.789312
664.000000	25.895696
665.000000	26.004195
666.000000	26.110443
667.000000	26.199201
668.000000	26.281019
669.000000	26.384918
670.000000	26.479419
671.000000	26.590798
672.000000	26.677458
673.000000	26.772288
674.000000	26.859289
675.000000	26.941609
676.000000	27.034008
677.000000	27.147346
678.000000	27.230088
679.000000	27.291441
680.000000	27.375251
681.000000	27.463138
682.000000	27.553955
683.000000	27.630789
684.000000	27.720915
685.000000	27.787900
686.000000	27.872826
687.000000	27.949570
688.000000	28.022943
689.000000	28.098913
690.000000	28.171998
691.000000	28.249275
692.000000	28.324503
693.000000	28.408952
694.000000	28.480083
695.000000	28.550532
696.000000	28.626196
697.000000	28.697648
698.000000	28.767319
699.000000	28.839786
700.000000	28.916966
701.000000	28.989417
702.000000	29.045794
703.000000	29.131757
704.000000	29.184890
705.000000	29.247279
706.000000	29.307140
707.000000	29.371242
708.000000	29.451267
709.000000	29.501905
710.000000	29.574904
711.000000	29.629583
712.000000	29.686357
713.000000	29.749959
714.000000	29.795016
715.000000	29.853040
716.000000	29.926983
717.000000	29.982623
718.000000	30.063165
719.000000	30.127416
720.000000	30.176789
721.000000	30.249447
722.000000	30.294262
723.000000	30.334513
724.000000	30.394900
725.000000	30.461189
726.000000	30.512858
727.000000	30.561171
728.000000	30.616540
729.000000	30.665683
730.000000	30.733053
731.000000	30.803266
732.000000	30.865440
733.000000	30.919659
734.000000	30.974842
735.000000	30.995266
736.000000	31.053872
737.000000	31.136351
738.000000	31.184311
739.000000	31.212684
740.000000	31.269782
741.000000	31.354251
742.000000	31.418384
743.000000	31.442799
744.000000	31.487227
745.000000	31.540623
746.000000	31.579336
747.000000	31.616021
748.000000	31.674065
749.000000	31.736188
750.000000	31.769279
751.000000	31.826288
752.000000	31.899412
753.000000	31.945498
754.000000	31.954307
755.000000	31.979066
756.000000	32.060899
757.000000	32.144136
758.000000	32.186543
759.000000	32.240824
760.000000	32.289235
761.000000	32.340004
762.000000	32.375927
763.000000	32.389068
764.000000	32.419587
765.000000	32.488999
766.000000	32.543382
767.000000	32.585828
768.000000	32.633120
769.000000	32.705300
770.000000	32.753156
771.000000	32.783835
772.000000	32.801404
773.000000	32.875582
774.000000	32.924584
775.000000	32.951895
776.000000	32.979045
777.000000	33.057562
778.000000	33.110886
779.000000	33.153608
780.000000	33.162517
781.000000	33.224852
782.000000	33.285643
783.000000	33.325404
784.000000	33.353615
785.000000	33.410141
786.000000	33.455525
787.000000	33.485314
788.000000	33.561074
789.000000	33.585741
790.000000	33.590417
791.000000	33.668423
792.000000	33.716282
793.000000	33.743145
794.000000	33.778214
795.000000	33.863381
796.000000	33.856161
797.000000	33.872904
798.000000	33.967919
799.000000	33.991975
800.000000	34.010006
801.000000	34.052262
802.000000	34.091962
803.000000	34.122246
804.000000	34.190270
805.000000	34.235381
806.000000	34.241831
807.000000	34.322617
808.000000	34.272422
809.000000	34.329971
810.000000	34.367031
811.000000	34.416603
812.000000	34.398095
813.000000	34.480247
814.000000	34.464935
815.000000	34.469348
816.000000	34.504639
817.000000	34.544528
818.000000	34.547420
819.000000	34.596576
820.000000	34.674967
821.000000	34.718127
822.000000	34.731677
823.000000	34.783594
824.000000	34.762872
825.000000	34.806431
826.000000	34.910881
827.000000	34.935154
828.000000	34.867738
829.000000	34.846539
830.000000	35.011392
831.000000	35.048328
832.000000	35.005321
833.000000	35.028656
834.000000	35.065623
835.000000	35.059546
836.000000	35.041882
837.000000	35.103981
838.000000	35.072800
839.000000	35.169723
840.000000	35.187268
841.000000	35.152201
842.000000	35.217436
843.000000	35.190785
844.000000	35.150997
845.000000	35.196755
846.000000	35.204695
847.000000	35.276084
848.000000	35.112673
849.000000	35.248760
850.000000	35.166585
851.000000	35.352345
852.000000	35.173937
853.000000	35.205085
854.000000	35.155901
855.000000	35.170022
856.000000	35.377236
857.000000	35.377645
858.000000	34.877011
859.000000	36.360219
860.000000	35.959900
861.000000	36.300442
862.000000	35.984405
863.000000	36.047023
864.000000	35.919932
865.000000	35.871243
866.000000	35.948583
867.000000	35.752636
868.000000	36.005756
869.000000	35.957597
870.000000	35.683987
871.000000	35.859786
872.000000	35.824911
873.000000	35.914293
874.000000	35.909376
875.000000	35.654386
876.000000	35.436804
877.000000	35.665981
878.000000	35.566695
879.000000	35.685459
880.000000	35.387887
881.000000	35.572407
882.000000	35.390120
883.000000	35.382326
884.000000	35.315932
885.000000	35.319174
886.000000	35.402063
887.000000	35.261609
888.000000	35.165425
889.000000	35.212460
890.000000	35.070548
891.000000	35.274076
892.000000	35.209830
893.000000	35.163318
894.000000	35.037925
895.000000	34.927604
896.000000	34.994179
897.000000	34.979103
898.000000	34.855368
899.000000	34.786686
900.000000	34.882889
901.000000	34.887950
902.000000	34.684030
903.000000	34.745980
904.000000	34.645923
905.000000	34.609283
906.000000	34.614612
907.000000	34.592595
908.000000	34.558136
909.000000	34.479015
910.000000	34.431794
911.000000	34.438546
912.000000	34.384127
913.000000	34.379366
914.000000	34.342055
915.000000	34.319744
916.000000	34.238289
917.000000	34.202236
918.000000	34.170574
919.000000	34.202188
920.000000	34.168847
921.000000	34.104530
922.000000	34.093276
923.000000	34.031950
924.000000	34.031316
925.000000	33.997207
926.000000	33.991848
927.000000	33.981945
928.000000	33.920521
929.000000	33.914727
930.000000	33.934276
931.000000	33.889018
932.000000	33.824877
933.000000	33.749954
934.000000	33.749555
935.000000	33.738893
936.000000	33.658288
937.000000	33.606756
938.000000	33.625531
939.000000	33.648735
940.000000	33.614516
941.000000	33.558361
942.000000	33.559641
943.000000	33.528332
944.000000	33.480388
945.000000	33.464568
946.000000	33.439469
947.000000	33.406693
948.000000	33.407795
949.000000	33.400443
950.000000	33.387198
951.000000	33.350958
952.000000	33.330649
953.000000	33.318951
954.000000	33.286935
955.000000	33.286788
956.000000	33.279777
957.000000	33.239447
958.000000	33.216936
959.000000	33.199085
960.000000	33.168265
961.000000	33.152408
962.000000	33.141006
963.000000	33.147713
964.000000	33.139079
965.000000	33.086614
966.000000	33.071250
967.000000	33.075244
968.000000	33.071455
969.000000	33.039594
970.000000	33.033906
971.000000	33.022172
972.000000	33.002035
973.000000	32.991339
974.000000	32.971096
975.000000	32.955991
976.000000	32.948725
977.000000	32.944921
978.000000	32.928366
979.000000	32.894126
980.000000	32.873883
981.000000	32.865395
982.000000	32.850741
983.000000	32.864693
984.000000	32.872429
985.000000	32.851546
986.000000	32.842150
987.000000	32.822399
988.000000	32.801329
989.000000	32.782378
990.000000	32.793125
991.000000	32.782913
992.000000	32.751629
993.000000	32.752211
994.000000	32.742852
995.000000	32.727154
996.000000	32.711643
997.000000	32.703515
998.000000	32.700554
999.000000	32.684470
1000.000000	32.668320
1001.000000	32.671793
1002.000000	32.663108
1003.000000	32.657668
1004.000000	32.640385
1005.000000	32.628262
1006.000000	32.629241
1007.000000	32.609402
1008.000000	32.590026
1009.000000	32.589368
1010.000000	32.581465
1011.000000	32.574979
1012.000000	32.564908
1013.000000	32.557701
1014.000000	32.560981
1015.000000	32.567851
1016.000000	32.558369
1017.000000	32.553674
1018.000000	32.558712
1019.000000	32.548098
1020.000000	32.537960
1021.000000	32.532517
1022.000000	32.541210
1023.000000	32.547722
1024.000000	32.544217
1025.000000	32.538362
1026.000000	32.544174
1027.000000	32.545999
1028.000000	32.550957
1029.000000	32.552661
1030.000000	32.544258
1031.000000	32.542668
1032.000000	32.542600
1033.000000	32.551123
1034.000000	32.556339
1035.000000	32.544156
1036.000000	32.545917
1037.000000	32.547351
1038.000000	32.539287
1039.000000	32.547413
1040.000000	32.551629
1041.000000	32.550354
1042.000000	32.554205
1043.000000	32.546982
1044.000000	32.543984
1045.000000	32.562204
1046.000000	32.556387
1047.000000	32.551537
1048.000000	32.560302
1049.000000	32.557836
1050.000000	32.552118
1051.000000	32.545799
1052.000000	32.555797
1053.000000	32.554732
1054.000000	32.557218
1055.000000	32.567890
1056.000000	32.569599
1057.000000	32.575264
1058.000000	32.578918
1059.000000	32.589843
1060.000000	32.594735
1061.000000	32.599795
1062.000000	32.611198
1063.000000	32.619024
1064.000000	32.621086
1065.000000	32.611168
1066.000000	32.620404
1067.000000	32.631801
1068.000000	32.629308
1069.000000	32.625767
1070.000000	32.619632
1071.000000	32.625781
1072.000000	32.632479
1073.000000	32.637495
1074.000000	32.634968
1075.000000	32.644392
1076.000000	32.659159
1077.000000	32.660803
1078.000000	32.659639
1079.000000	32.662227
1080.000000	32.672992
1081.000000	32.665331
1082.000000	32.676296
1083.000000	32.675153
1084.000000	32.672680
1085.000000	32.668164
1086.000000	32.688922
1087.000000	32.694073
1088.000000	32.698380
1089.000000	32.703844
1090.000000	32.701558
1091.000000	32.704024
1092.000000	32.699235
1093.000000	32.699402
1094.000000	32.710598
1095.000000	32.724968
1096.000000	32.713806
1097.000000	32.715019
1098.000000	32.724039
1099.000000	32.720271
1100.000000	32.737360
1101.000000	32.732202
1102.000000	32.733885
1103.000000	32.741405
1104.000000	32.746868
1105.000000	32.750496
1106.000000	32.765273
1107.000000	32.756356
1108.000000	32.756512
1109.000000	32.764111
1110.000000	32.761222
1111.000000	32.775165
1112.000000	32.767833
1113.000000	32.769527
1114.000000	32.767995
1115.000000	32.767584
1116.000000	32.764129
1117.000000	32.765250
1118.000000	32.758843
1119.000000	32.757583
1120.000000	32.765640
1121.000000	32.756333
1122.000000	32.734710
1123.000000	32.728536
1124.000000	32.706570
1125.000000	32.704302
1126.000000	32.683730
1127.000000	32.664024
1128.000000	32.652988
1129.000000	32.628234
1130.000000	32.601073
1131.000000	32.586129
1132.000000	32.567646
1133.000000	32.567019
1134.000000	32.506013
1135.000000	32.479567
1136.000000	32.448754
1137.000000	32.423103
1138.000000	32.404613
1139.000000	32.391091
1140.000000	32.364400
1141.000000	32.346565
1142.000000	32.320879
1143.000000	32.294335
1144.000000	32.290161
1145.000000	32.272134
1146.000000	32.236660
1147.000000	32.232124
1148.000000	32.202432
1149.000000	32.170041
1150.000000	32.154351
1151.000000	32.133168
1152.000000	32.097186
1153.000000	32.051935
1154.000000	32.023670
1155.000000	32.008282
1156.000000	31.963371
1157.000000	31.926861
1158.000000	31.893458
1159.000000	31.855817
1160.000000	31.815956
1161.000000	31.781703
1162.000000	31.747243
1163.000000	31.704840
1164.000000	31.665623
1165.000000	31.645352
1166.000000	31.603476
1167.000000	31.575539
1168.000000	31.532234
1169.000000	31.495661
1170.000000	31.464980
1171.000000	31.435686
1172.000000	31.415545
1173.000000	31.384099
1174.000000	31.348741
1175.000000	31.352677
1176.000000	31.331975
1177.000000	31.309465
1178.000000	31.286579
1179.000000	31.274798
1180.000000	31.269008
1181.000000	31.247241
1182.000000	31.232741
1183.000000	31.240731
1184.000000	31.245679
1185.000000	31.255530
1186.000000	31.253200
1187.000000	31.254735
1188.000000	31.277097
1189.000000	31.294354
1190.000000	31.316068
1191.000000	31.332178
1192.000000	31.362186
1193.000000	31.385870
1194.000000	31.404763
1195.000000	31.427929
1196.000000	31.456910
1197.000000	31.483527
1198.000000	31.499326
1199.000000	31.531282
1200.000000	31.547926
1201.000000	31.563973
1202.000000	31.573900
1203.000000	31.594196
1204.000000	31.615449
1205.000000	31.628820
1206.000000	31.642318
1207.000000	31.659252
1208.000000	31.671889
1209.000000	31.690325
1210.000000	31.718861
1211.000000	31.728206
1212.000000	31.742491
1213.000000	31.742685
1214.000000	31.759371
1215.000000	31.774756
1216.000000	31.790141
1217.000000	31.804488
1218.000000	31.820031
1219.000000	31.829966
1220.000000	31.835760
1221.000000	31.861132
1222.000000	31.879792
1223.000000	31.889671
1224.000000	31.907991
1225.000000	31.930325
1226.000000	31.946602
1227.000000	31.959772
1228.000000	31.980145
1229.000000	31.998845
1230.000000	32.018993
1231.000000	32.027518
1232.000000	32.043349
1233.000000	32.062790
1234.000000	32.067955
1235.000000	32.083113
1236.000000	32.091081
1237.000000	32.103701
1238.000000	32.122816
1239.000000	32.145541
1240.000000	32.150951
1241.000000	32.163122
1242.000000	32.177426
1243.000000	32.191407
1244.000000	32.204677
1245.000000	32.221014
1246.000000	32.236004
1247.000000	32.244721
1248.000000	32.250423
1249.000000	32.253426
1250.000000	32.266919
1251.000000	32.276722
1252.000000	32.291537
1253.000000	32.309174
1254.000000	32.320619
1255.000000	32.319854
1256.000000	32.328657
1257.000000	32.339540
1258.000000	32.346930
1259.000000	32.356013
1260.000000	32.364806
1261.000000	32.371655
1262.000000	32.364912
1263.000000	32.364703
1264.000000	32.373266
1265.000000	32.387639
1266.000000	32.402542
1267.000000	32.407848
1268.000000	32.415240
1269.000000	32.432395
1270.000000	32.444484
1271.000000	32.457777
1272.000000	32.463303
1273.000000	32.465943
1274.000000	32.476316
1275.000000	32.479672
1276.000000	32.491379
1277.000000	32.502059
1278.000000	32.512253
1279.000000	32.519941
1280.000000	32.534844
1281.000000	32.546191
1282.000000	32.554870
1283.000000	32.556088
1284.000000	32.567965
1285.000000	32.583253
1286.000000	32.591538
1287.000000	32.601113
1288.000000	32.617099
1289.000000	32.637048
1290.000000	32.645580
1291.000000	32.650164
1292.000000	32.653438
1293.000000	32.659660
1294.000000	32.667312
1295.000000	32.675399
1296.000000	32.683822
1297.000000	32.685968
1298.000000	32.683304
1299.000000	32.686114
1300.000000	32.685360
1301.000000	32.684489
1302.000000	32.692741
1303.000000	32.693657
1304.000000	32.695719
1305.000000	32.695148
1306.000000	32.694239
1307.000000	32.700591
1308.000000	32.705046
1309.000000	32.697921
1310.000000	32.701712
1311.000000	32.698961
1312.000000	32.700060
1313.000000	32.696666
1314.000000	32.687262
1315.000000	32.682405
1316.000000	32.676651
1317.000000	32.667061
1318.000000	32.665091
1319.000000	32.655254
1320.000000	32.636333
1321.000000	32.619440
1322.000000	32.608654
1323.000000	32.599950
1324.000000	32.580051
1325.000000	32.557076
1326.000000	32.534188
1327.000000	32.512107
1328.000000	32.492926
1329.000000	32.463287
1330.000000	32.431868
1331.000000	32.401500
1332.000000	32.371666
1333.000000	32.339204
1334.000000	32.302698
1335.000000	32.258597
1336.000000	32.222695
1337.000000	32.186880
1338.000000	32.146866
1339.000000	32.103623
1340.000000	32.050509
1341.000000	32.012355
1342.000000	31.978172
1343.000000	31.929967
1344.000000	31.882312
1345.000000	31.840079
1346.000000	31.783999
1347.000000	31.732985
1348.000000	31.676526
1349.000000	31.635183
1350.000000	31.592488
1351.000000	31.551651
1352.000000	31.511583
1353.000000	31.459484
1354.000000	31.391740
1355.000000	31.343355
1356.000000	31.304294
1357.000000	31.271288
1358.000000	31.249760
1359.000000	31.227314
1360.000000	31.166214
1361.000000	31.054290
1362.000000	31.014371
1363.000000	30.998831
1364.000000	30.934398
1365.000000	30.881525
1366.000000	30.860278
1367.000000	30.790302
1368.000000	30.729816
1369.000000	30.698364
1370.000000	30.636886
1371.000000	30.529305
1372.000000	30.468085
1373.000000	30.396998
1374.000000	30.326687
1375.000000	30.246373
1376.000000	30.193166
1377.000000	30.107885
1378.000000	30.097753
1379.000000	30.040507
1380.000000	29.954062
1381.000000	29.835054
1382.000000	29.730247
1383.000000	29.640956
1384.000000	29.567836
1385.000000	29.492811
1386.000000	29.415090
1387.000000	29.300770
1388.000000	29.184745
1389.000000	29.135386
1390.000000	29.057822
1391.000000	28.943077
1392.000000	28.827747
1393.000000	28.764487
1394.000000	28.639054
1395.000000	28.484897
1396.000000	28.350107
1397.000000	28.278887
1398.000000	28.205167
1399.000000	28.044101
1400.000000	27.865417
1401.000000	27.731032
1402.000000	27.641606
1403.000000	27.511536
1404.000000	27.362119
1405.000000	27.186462
1406.000000	27.054112
1407.000000	26.900174
1408.000000	26.759227
1409.000000	26.577500
1410.000000	26.435358
1411.000000	26.286378
1412.000000	26.173291
1413.000000	26.013005
1414.000000	25.854589
1415.000000	25.728136
1416.000000	25.614484
1417.000000	25.485148
1418.000000	25.343047
1419.000000	25.216052
1420.000000	25.100342
1421.000000	25.006871
1422.000000	24.868989
1423.000000	24.764650
1424.000000	24.656268
1425.000000	24.566713
1426.000000	24.467483
1427.000000	24.362267
1428.000000	24.279419
1429.000000	24.201763
1430.000000	24.122211
1431.000000	24.025598
1432.000000	23.951248
1433.000000	23.881697
1434.000000	23.805574
1435.000000	23.735608
1436.000000	23.661334
1437.000000	23.595260
1438.000000	23.524375
1439.000000	23.467585
1440.000000	23.411194
1441.000000	23.346705
1442.000000	23.278023
1443.000000	23.230077
1444.000000	23.171122
1445.000000	23.090490
1446.000000	23.033326
1447.000000	22.994293
1448.000000	22.945666
1449.000000	22.895914
1450.000000	22.839235
1451.000000	22.771349
1452.000000	22.729507
1453.000000	22.675170
1454.000000	22.616035
1455.000000	22.560432
1456.000000	22.509182
1457.000000	22.441311
1458.000000	22.403495
1459.000000	22.354607
1460.000000	22.292998
1461.000000	22.235863
1462.000000	22.194595
1463.000000	22.134580
1464.000000	22.091530
1465.000000	22.039789
1466.000000	21.982823
1467.000000	21.937762
1468.000000	21.891123
1469.000000	21.855166
1470.000000	21.798287
1471.000000	21.737783
1472.000000	21.698813
1473.000000	21.663062
1474.000000	21.627569
1475.000000	21.583741
1476.000000	21.558441
1477.000000	21.509634
1478.000000	21.472437
1479.000000	21.449602
1480.000000	21.409364
1481.000000	21.381120
1482.000000	21.360214
1483.000000	21.348039
1484.000000	21.335871
1485.000000	21.312379
1486.000000	21.298313
1487.000000	21.278891
1488.000000	21.271441
1489.000000	21.264853
1490.000000	21.251994
1491.000000	21.247094
1492.000000	21.246778
1493.000000	21.248782
1494.000000	21.248539
1495.000000	21.260029
1496.000000	21.270118
1497.000000	21.285975
1498.000000	21.298360
1499.000000	21.310411
1500.000000	21.326675
1501.000000	21.346952
1502.000000	21.379526
1503.000000	21.409981
1504.000000	21.447732
1505.000000	21.484643
1506.000000	21.520786
1507.000000	21.559405
1508.000000	21.601105
1509.000000	21.640154
1510.000000	21.678604
1511.000000	21.724974
1512.000000	21.766789
1513.000000	21.807259
1514.000000	21.852595
1515.000000	21.892020
1516.000000	21.940326
1517.000000	21.976142
1518.000000	22.020512
1519.000000	22.067706
1520.000000	22.110538
1521.000000	22.154817
1522.000000	22.191889
1523.000000	22.232239
1524.000000	22.281065
1525.000000	22.317748
1526.000000	22.357058
1527.000000	22.399459
1528.000000	22.437242
1529.000000	22.481477
1530.000000	22.512092
1531.000000	22.540169
1532.000000	22.576131
1533.000000	22.609985
1534.000000	22.655650
1535.000000	22.693482
1536.000000	22.715265
1537.000000	22.743658
1538.000000	22.775263
1539.000000	22.799096
1540.000000	22.830118
1541.000000	22.873918
1542.000000	22.909770
1543.000000	22.932124
1544.000000	22.964959
1545.000000	23.001610
1546.000000	23.032779
1547.000000	23.068009
1548.000000	23.105283
1549.000000	23.144929
1550.000000	23.181644
1551.000000	23.207405
1552.000000	23.243662
1553.000000	23.273461
1554.000000	23.299891
1555.000000	23.324321
1556.000000	23.343957
1557.000000	23.361322
1558.000000	23.387587
1559.000000	23.402310
1560.000000	23.410495
1561.000000	23.416043
1562.000000	23.423403
1563.000000	23.437808
1564.000000	23.446067
1565.000000	23.436527
1566.000000	23.426593
1567.000000	23.431670
1568.000000	23.426945
1569.000000	23.421284
1570.000000	23.423762
1571.000000	23.428788
1572.000000	23.422093
1573.000000	23.423824
1574.000000	23.429119
1575.000000	23.434050
1576.000000	23.434016
1577.000000	23.446423
1578.000000	23.460198
1579.000000	23.466772
1580.000000	23.471460
1581.000000	23.482183
1582.000000	23.516728
1583.000000	23.542558
1584.000000	23.564031
1585.000000	23.575407
1586.000000	23.596438
1587.000000	23.633642
1588.000000	23.667253
1589.000000	23.685998
1590.000000	23.714635
1591.000000	23.754998
1592.000000	23.788124
1593.000000	23.827718
1594.000000	23.855912
1595.000000	23.895796
1596.000000	23.939409
1597.000000	23.976782
1598.000000	24.014341
1599.000000	24.051878
1600.000000	24.090671
1601.000000	24.125736
1602.000000	24.169139
1603.000000	24.220271
1604.000000	24.264405
1605.000000	24.313819
1606.000000	24.355263
1607.000000	24.395920
1608.000000	24.431014
1609.000000	24.462970
1610.000000	24.512527
1611.000000	24.552541
1612.000000	24.577586
1613.000000	24.610594
1614.000000	24.646538
1615.000000	24.685925
1616.000000	24.715286
1617.000000	24.739592
1618.000000	24.764891
1619.000000	24.803478
1620.000000	24.832628
1621.000000	24.852752
1622.000000	24.883379
1623.000000	24.918585
1624.000000	24.935873
1625.000000	24.973218
1626.000000	24.969605
1627.000000	24.986016
1628.000000	25.003683
1629.000000	25.042400
1630.000000	25.073128
1631.000000	25.093276
1632.000000	25.109970
1633.000000	25.124750
1634.000000	25.145443
1635.000000	25.151155
1636.000000	25.175148
1637.000000	25.186210
1638.000000	25.195298
1639.000000	25.209460
1640.000000	25.224795
1641.000000	25.236642
1642.000000	25.250152
1643.000000	25.254603
1644.000000	25.260731
1645.000000	25.261417
1646.000000	25.256793
1647.000000	25.252519
1648.000000	25.252435
1649.000000	25.232637
1650.000000	25.227887
1651.000000	25.214659
1652.000000	25.203248
1653.000000	25.186740
1654.000000	25.154107
1655.000000	25.135404
1656.000000	25.103716
1657.000000	25.047505
1658.000000	24.995832
1659.000000	24.944023
1660.000000	24.876546
1661.000000	24.827699
1662.000000	24.761972
1663.000000	24.688039
1664.000000	24.609010
1665.000000	24.513830
1666.000000	24.427404
1667.000000	24.346313
1668.000000	24.279305
1669.000000	24.192712
1670.000000	24.087179
1671.000000	23.994181
1672.000000	23.876023
1673.000000	23.767386
1674.000000	23.670259
1675.000000	23.559087
1676.000000	23.469511
1677.000000	23.364021
1678.000000	23.265556
1679.000000	23.153720
1680.000000	23.084309
1681.000000	22.993765
1682.000000	22.880233
1683.000000	22.787369
1684.000000	22.712552
1685.000000	22.660816
1686.000000	22.607649
1687.000000	22.578707
1688.000000	22.535673
1689.000000	22.532429
1690.000000	22.538463
1691.000000	22.517727
1692.000000	22.537608
1693.000000	22.540565
1694.000000	22.556262
1695.000000	22.568050
1696.000000	22.579483
1697.000000	22.587749
1698.000000	22.595694
1699.000000	22.598876
1700.000000	22.585772
1701.000000	22.579483
1702.000000	22.573075
1703.000000	22.543381
1704.000000	22.510851
1705.000000	22.489794
1706.000000	22.445088
1707.000000	22.375176
1708.000000	22.318708
1709.000000	22.264954
1710.000000	22.187568
1711.000000	22.097140
1712.000000	22.012139
1713.000000	21.922415
1714.000000	21.809126
1715.000000	21.716374
1716.000000	21.610018
1717.000000	21.523588
1718.000000	21.426191
1719.000000	21.341116
1720.000000	21.256988
1721.000000	21.199994
1722.000000	21.129240
1723.000000	21.103928
1724.000000	21.063919
1725.000000	21.041428
1726.000000	21.015287
1727.000000	21.007295
1728.000000	21.039514
1729.000000	21.048334
1730.000000	21.070315
1731.000000	21.104995
1732.000000	21.134857
1733.000000	21.167593
1734.000000	21.221443
1735.000000	21.279000
1736.000000	21.327006
1737.000000	21.369040
1738.000000	21.431785
1739.000000	21.500670
1740.000000	21.551613
1741.000000	21.617053
1742.000000	21.675355
1743.000000	21.737023
1744.000000	21.790334
1745.000000	21.834693
1746.000000	21.883861
1747.000000	21.929475
1748.000000	21.980982
1749.000000	22.020066
1750.000000	22.049650
1751.000000	22.075672
1752.000000	22.093431
1753.000000	22.110224
1754.000000	22.135815
1755.000000	22.162538
1756.000000	22.173675
1757.000000	22.192528
1758.000000	22.209959
1759.000000	22.224240
1760.000000	22.229591
1761.000000	22.245351
1762.000000	22.265101
1763.000000	22.283995
1764.000000	22.296172
1765.000000	22.307883
1766.000000	22.331821
1767.000000	22.360632
1768.000000	22.380862
1769.000000	22.396863
1770.000000	22.425481
1771.000000	22.452314
1772.000000	22.478411
1773.000000	22.504150
1774.000000	22.533550
1775.000000	22.560148
1776.000000	22.579363
1777.000000	22.605715
1778.000000	22.629762
1779.000000	22.639923
1780.000000	22.662396
1781.000000	22.677937
1782.000000	22.688665
1783.000000	22.701293
1784.000000	22.700240
1785.000000	22.720197
1786.000000	22.738770
1787.000000	22.760741
1788.000000	22.764026
1789.000000	22.765957
1790.000000	22.783606
1791.000000	22.793667
1792.000000	22.814463
1793.000000	22.832784
1794.000000	22.843967
1795.000000	22.865720
1796.000000	22.885175
1797.000000	22.903804
1798.000000	22.939227
1799.000000	22.957850
1800.000000	22.954417
1801.000000	22.967776
1802.000000	22.990369
1803.000000	23.022452
1804.000000	23.039488
1805.000000	23.050462
1806.000000	23.056213
1807.000000	23.083748
1808.000000	23.121159
1809.000000	23.146968
1810.000000	23.157191
1811.000000	23.153153
1812.000000	23.178959
1813.000000	23.209091
1814.000000	23.217508
1815.000000	23.220283
1816.000000	23.237055
1817.000000	23.279203
1818.000000	23.331767
1819.000000	23.311503
1820.000000	23.252676
1821.000000	23.216592
1822.000000	23.251793
1823.000000	23.332141
1824.000000	23.377321
1825.000000	23.382025
1826.000000	23.380842
1827.000000	23.400264
1828.000000	23.425035
1829.000000	23.419338
1830.000000	23.401893
1831.000000	23.424270
1832.000000	23.492513
1833.000000	23.564369
1834.000000	23.611643
1835.000000	23.618703
1836.000000	23.603562
1837.000000	23.606067
1838.000000	23.638465
1839.000000	23.659767
1840.000000	23.652221
1841.000000	23.599637
1842.000000	23.607857
1843.000000	23.695094
1844.000000	23.819007
1845.000000	23.902011
1846.000000	23.840593
1847.000000	23.721956
1848.000000	23.655857
1849.000000	23.685209
1850.000000	23.778435
1851.000000	23.818516
1852.000000	23.810740
1853.000000	23.783105
1854.000000	23.768600
1855.000000	23.763887
1856.000000	23.785822
1857.000000	23.796203
1858.000000	23.744481
1859.000000	23.687609
1860.000000	23.650187
1861.000000	23.608034
1862.000000	23.590500
1863.000000	23.598633
1864.000000	23.608785
1865.000000	23.573745
1866.000000	23.561061
1867.000000	23.508716
1868.000000	23.448477
1869.000000	23.300805
1870.000000	23.132594
1871.000000	22.970794
1872.000000	22.811737
1873.000000	22.636679
1874.000000	22.509050
1875.000000	22.330942
1876.000000	22.165991
1877.000000	22.003450
1878.000000	21.844354
1879.000000	21.709599
1880.000000	21.562583
1881.000000	21.357753
1882.000000	21.163593
1883.000000	20.942787
1884.000000	20.720119
1885.000000	20.496540
1886.000000	20.260312
1887.000000	20.065657
1888.000000	19.857612
1889.000000	19.626460
1890.000000	19.340002
1891.000000	19.039911
1892.000000	18.753908
1893.000000	18.486987
1894.000000	18.196379
1895.000000	17.947193
1896.000000	17.696736
1897.000000	17.410181
1898.000000	17.051993
1899.000000	16.742741
1900.000000	16.439356
1901.000000	16.205803
1902.000000	15.915453
1903.000000	15.637435
1904.000000	15.345701
1905.000000	15.014831
1906.000000	14.724696
1907.000000	14.458290
1908.000000	14.282963
1909.000000	14.079382
1910.000000	13.933084
1911.000000	13.710790
1912.000000	13.489504
1913.000000	13.253226
1914.000000	13.063821
1915.000000	12.896209
1916.000000	12.767501
1917.000000	12.718905
1918.000000	12.557998
1919.000000	12.443640
1920.000000	12.298639
1921.000000	12.178727
1922.000000	12.022686
1923.000000	11.961378
1924.000000	11.906430
1925.000000	11.795328
1926.000000	11.736831
1927.000000	11.698171
1928.000000	11.624986
1929.000000	11.580360
1930.000000	11.485368
1931.000000	11.530118
1932.000000	11.481282
1933.000000	11.443381
1934.000000	11.413940
1935.000000	11.398302
1936.000000	11.404630
1937.000000	11.428293
1938.000000	11.468656
1939.000000	11.459129
1940.000000	11.454435
1941.000000	11.487285
1942.000000	11.519574
1943.000000	11.531938
1944.000000	11.538015
1945.000000	11.604731
1946.000000	11.618845
1947.000000	11.645394
1948.000000	11.698321
1949.000000	11.725829
1950.000000	11.788617
1951.000000	11.842725
1952.000000	11.908493
1953.000000	11.946910
1954.000000	11.987696
1955.000000	12.052278
1956.000000	12.105088
1957.000000	12.128478
1958.000000	12.155262
1959.000000	12.270113
1960.000000	12.325170
1961.000000	12.385380
1962.000000	12.427565
1963.000000	12.488435
1964.000000	12.555273
1965.000000	12.577441
1966.000000	12.680788
1967.000000	12.699954
1968.000000	12.764788
1969.000000	12.810740
1970.000000	12.898118
1971.000000	12.932472
1972.000000	12.982683
1973.000000	13.030905
1974.000000	13.121150
1975.000000	13.152455
1976.000000	13.218081
1977.000000	13.284521
1978.000000	13.315330
1979.000000	13.403374
1980.000000	13.433797
1981.000000	13.513545
1982.000000	13.581103
1983.000000	13.642419
1984.000000	13.708663
1985.000000	13.789473
1986.000000	13.837153
1987.000000	13.875985
1988.000000	13.924701
1989.000000	13.997868
1990.000000	14.076719
1991.000000	14.130931
1992.000000	14.172145
1993.000000	14.232660
1994.000000	14.270809
1995.000000	14.311353
1996.000000	14.349741
1997.000000	14.427345
1998.000000	14.458547
1999.000000	14.522853
2000.000000	14.556270
2001.000000	14.568671
2002.000000	14.576723
2003.000000	14.610549
2004.000000	14.632679
2005.000000	14.639459
2006.000000	14.663781
2007.000000	14.678104
2008.000000	14.666751
2009.000000	14.717235
2010.000000	14.761585
2011.000000	14.748803
2012.000000	14.726928
2013.000000	14.705270
2014.000000	14.664458
2015.000000	14.635146
2016.000000	14.641814
2017.000000	14.619084
2018.000000	14.588339
2019.000000	14.539687
2020.000000	14.500982
2021.000000	14.441390
2022.000000	14.366044
2023.000000	14.363681
2024.000000	14.341171
2025.000000	14.281281
2026.000000	14.194043
2027.000000	14.078743
2028.000000	13.985736
2029.000000	13.982408
2030.000000	13.956546
2031.000000	13.838825
2032.000000	13.751667
2033.000000	13.675719
2034.000000	13.588123
2035.000000	13.505102
2036.000000	13.414327
2037.000000	13.328006
2038.000000	13.218594
2039.000000	13.138867
2040.000000	13.063065
2041.000000	12.949396
2042.000000	12.878125
2043.000000	12.782300
2044.000000	12.682656
2045.000000	12.565561
2046.000000	12.478102
2047.000000	12.439226
2048.000000	12.390500
2049.000000	12.315756
2050.000000	12.303468
2051.000000	12.241768
2052.000000	12.168161
2053.000000	12.154157
2054.000000	12.155600
2055.000000	12.183162
2056.000000	12.246522
2057.000000	12.257688
2058.000000	12.298814
2059.000000	12.329659
2060.000000	12.335246
2061.000000	12.399141
2062.000000	12.501620
2063.000000	12.572039
2064.000000	12.607160
2065.000000	12.684921
2066.000000	12.825605
2067.000000	12.898714
2068.000000	12.932618
2069.000000	13.028122
2070.000000	13.112203
2071.000000	13.214532
2072.000000	13.280596
2073.000000	13.308668
2074.000000	13.354602
2075.000000	13.446837
2076.000000	13.512891
2077.000000	13.554442
2078.000000	13.556790
2079.000000	13.592734
2080.000000	13.698064
2081.000000	13.751225
2082.000000	13.749930
2083.000000	13.817454
2084.000000	13.911993
2085.000000	13.913312
2086.000000	13.912956
2087.000000	13.946421
2088.000000	13.996492
2089.000000	13.969383
2090.000000	13.901036
2091.000000	13.932374
2092.000000	13.957459
2093.000000	13.994450
2094.000000	14.048883
2095.000000	14.118203
2096.000000	14.110914
2097.000000	14.070799
2098.000000	14.058286
2099.000000	14.073633
2100.000000	14.012166
2101.000000	13.913364
2102.000000	13.952588
2103.000000	14.043252
2104.000000	14.103114
2105.000000	14.159139
2106.000000	14.135936
2107.000000	14.116281
2108.000000	14.073655
2109.000000	14.041539
2110.000000	14.095868
2111.000000	14.145015
2112.000000	14.178487
2113.000000	14.202222
2114.000000	14.223132
2115.000000	14.180846
2116.000000	14.136046
2117.000000	14.157689
2118.000000	14.173196
2119.000000	14.141938
2120.000000	14.207602
2121.000000	14.115796
2122.000000	14.049799
2123.000000	14.037053
2124.000000	13.993891
2125.000000	13.935376
2126.000000	13.962892
2127.000000	14.003240
2128.000000	13.973676
2129.000000	13.938624
2130.000000	13.940716
2131.000000	13.893292
2132.000000	13.758023
2133.000000	13.703392
2134.000000	13.701993
2135.000000	13.629806
2136.000000	13.568225
2137.000000	13.538864
2138.000000	13.430470
2139.000000	13.387012
2140.000000	13.301192
2141.000000	13.180597
2142.000000	13.157064
2143.000000	13.080616
2144.000000	13.175217
2145.000000	13.115785
2146.000000	13.005552
2147.000000	12.883401
2148.000000	12.799950
2149.000000	12.639231
2150.000000	12.580744
2151.000000	12.508560
2152.000000	12.403410
2153.000000	12.469611
2154.000000	12.397499
2155.000000	12.271861
2156.000000	12.091191
2157.000000	11.861309
2158.000000	11.991710
2159.000000	11.781426
2160.000000	11.860019
2161.000000	11.867547
2162.000000	11.937721
2163.000000	11.894001
2164.000000	11.919751
2165.000000	11.660366
2166.000000	11.604577
2167.000000	11.525783
2168.000000	11.517879
2169.000000	11.554505
2170.000000	11.447714
2171.000000	11.322584
2172.000000	11.422677
2173.000000	11.309116
2174.000000	11.500898
2175.000000	11.516247
2176.000000	11.476560
2177.000000	11.418563
2178.000000	11.497064
2179.000000	11.404486
2180.000000	11.351348
2181.000000	11.425861
2182.000000	11.507907
2183.000000	11.489420
2184.000000	11.438369
2185.000000	11.471166
2186.000000	11.589857
2187.000000	11.634575
2188.000000	11.523199
2189.000000	11.523140
2190.000000	11.496511
2191.000000	11.635973
2192.000000	11.490643
2193.000000	11.601879
2194.000000	11.469542
2195.000000	11.602973
2196.000000	11.732435
2197.000000	11.701928
2198.000000	11.763251
2199.000000	11.808283
2200.000000	11.848675
2201.000000	11.920217
2202.000000	11.934171
2203.000000	12.057145
2204.000000	11.869430
2205.000000	11.907822
2206.000000	11.969398
2207.000000	12.142526
2208.000000	12.055977
2209.000000	12.151173
2210.000000	12.287991
2211.000000	12.124982
2212.000000	12.331773
2213.000000	12.236997
2214.000000	12.494857
2215.000000	12.415701
2216.000000	12.510853
2217.000000	12.450669
2218.000000	12.416916
2219.000000	12.640740
2220.000000	12.600119
2221.000000	12.672714
2222.000000	12.670572
2223.000000	12.634811
2224.000000	12.711446
2225.000000	12.868148
2226.000000	12.890546
2227.000000	12.869297
2228.000000	12.685957
2229.000000	12.834286
2230.000000	12.902439
2231.000000	12.892621
2232.000000	12.809104
2233.000000	12.939183
2234.000000	12.797725
2235.000000	12.755408
2236.000000	12.932260
2237.000000	12.780381
2238.000000	12.881065
2239.000000	12.912315
2240.000000	12.760782
2241.000000	12.691604
2242.000000	12.703817
2243.000000	12.715256
2244.000000	12.564753
2245.000000	12.503013
2246.000000	12.436910
2247.000000	12.407381
2248.000000	12.337422
2249.000000	12.181592
2250.000000	12.030728
2251.000000	12.057664
2252.000000	12.051884
2253.000000	11.818382
2254.000000	11.632114
2255.000000	11.603286
2256.000000	11.599639
2257.000000	11.527115
2258.000000	11.375030
2259.000000	11.327364
2260.000000	11.288805
2261.000000	11.285954
2262.000000	11.288074
2263.000000	11.113186
2264.000000	11.077698
2265.000000	10.940983
2266.000000	10.752287
2267.000000	10.830222
2268.000000	10.818095
2269.000000	10.850832
2270.000000	10.944899
2271.000000	10.802676
2272.000000	10.778514
2273.000000	10.774941
2274.000000	10.795412
2275.000000	10.748631
2276.000000	10.835204
2277.000000	10.789748
2278.000000	10.737528
2279.000000	10.698368
2280.000000	10.791200
2281.000000	10.764308
2282.000000	10.762669
2283.000000	10.593784
2284.000000	10.603867
2285.000000	10.631613
2286.000000	10.628966
2287.000000	10.610996
2288.000000	10.563780
2289.000000	10.612801
2290.000000	10.631998
2291.000000	10.486843
2292.000000	10.546845
2293.000000	10.675406
2294.000000	10.607189
2295.000000	10.392102
2296.000000	10.482405
2297.000000	10.567703
2298.000000	10.460980
2299.000000	10.356260
2300.000000	10.477293
2301.000000	10.589631
2302.000000	10.590505
2303.000000	10.712496
2304.000000	10.729042
2305.000000	10.710891
2306.000000	10.701308
2307.000000	10.703790
2308.000000	10.666880
2309.000000	10.692811
2310.000000	10.746242
2311.000000	10.760056
2312.000000	10.845624
2313.000000	10.742542
2314.000000	10.768936
2315.000000	10.921572
2316.000000	11.059009
2317.000000	11.096621
2318.000000	11.100350
2319.000000	11.113942
2320.000000	11.159444
2321.000000	11.156117
2322.000000	11.219485
2323.000000	11.233543
2324.000000	11.218732
2325.000000	11.055664
2326.000000	10.963387
2327.000000	11.060542
2328.000000	11.113352
2329.000000	11.095510
2330.000000	11.173866
2331.000000	11.270296
2332.000000	11.203394
2333.000000	11.064973
2334.000000	10.992794
2335.000000	11.163745
2336.000000	11.289827
2337.000000	11.393429
2338.000000	11.417097
2339.000000	11.202365
2340.000000	11.285465
2341.000000	11.379185
2342.000000	11.123754
2343.000000	11.068830
2344.000000	11.313434
2345.000000	11.535565
2346.000000	11.527130
2347.000000	11.407399
2348.000000	11.626013
2349.000000	11.731835
2350.000000	11.596029
2351.000000	11.487943
2352.000000	11.602372
2353.000000	11.613222
2354.000000	11.431407
2355.000000	11.503758
2356.000000	11.411968
2357.000000	11.384495
2358.000000	11.676185
2359.000000	11.848136
2360.000000	11.959188
2361.000000	11.841579
2362.000000	11.922219
2363.000000	12.006881
2364.000000	11.969227
2365.000000	12.027673
2366.000000	12.040046
2367.000000	12.118692
2368.000000	12.293697
2369.000000	12.262426
2370.000000	12.121078
2371.000000	12.226281
2372.000000	12.315009
2373.000000	12.127127
2374.000000	12.042238
2375.000000	12.201390
2376.000000	12.370207
2377.000000	12.332314
2378.000000	12.223731
2379.000000	12.290277
2380.000000	12.329300
2381.000000	12.597914
2382.000000	12.682510
2383.000000	12.519033
2384.000000	12.313203
2385.000000	12.105436
2386.000000	12.087079
2387.000000	12.240065
2388.000000	12.425543
2389.000000	12.423333
2390.000000	12.629600
2391.000000	12.564150
2392.000000	12.345463
2393.000000	12.663463
2394.000000	12.617103
2395.000000	12.549474
2396.000000	12.575942
2397.000000	12.514700
2398.000000	12.693650
2399.000000	12.935991
2400.000000	12.925451
2401.000000	12.735605
2402.000000	12.505574
2403.000000	12.466978
2404.000000	12.383710
2405.000000	12.429414
2406.000000	12.577565
2407.000000	12.488314
2408.000000	12.838081
2409.000000	12.782952
2410.000000	13.112992
2411.000000	12.865601
2412.000000	12.848182
2413.000000	12.850390
2414.000000	12.840377
2415.000000	13.192184
2416.000000	12.763553
2417.000000	13.102144
2418.000000	12.831664
2419.000000	12.698774
2420.000000	13.028726
2421.000000	13.025859
2422.000000	12.733255
2423.000000	12.485481
2424.000000	12.360809
2425.000000	12.646255
2426.000000	12.652431
2427.000000	12.489341
2428.000000	12.698431
2429.000000	12.501212
2430.000000	12.801038
2431.000000	12.458828
2432.000000	12.886495
2433.000000	13.190737
2434.000000	12.438504
2435.000000	12.691394
2436.000000	12.824923
2437.000000	12.816264
2438.000000	12.524403
2439.000000	12.778104
2440.000000	13.312745
2441.000000	12.717132
2442.000000	12.669787
2443.000000	12.550695
2444.000000	12.506815
2445.000000	12.633948
2446.000000	12.750772
2447.000000	12.656480
2448.000000	12.355904
2449.000000	12.163666
2450.000000	12.982427
2451.000000	12.673545
2452.000000	13.679691
2453.000000	13.093060
2454.000000	13.577774
2455.000000	13.384239
2456.000000	12.768192
2457.000000	13.156380
2458.000000	12.403026
2459.000000	13.736116
2460.000000	12.604773
2461.000000	13.721571
2462.000000	13.149821
2463.000000	13.792878
2464.000000	13.840633
2465.000000	13.550341
2466.000000	14.230526
2467.000000	14.222405
2468.000000	14.890259
2469.000000	14.974751
2470.000000	14.902773
2471.000000	15.211550
2472.000000	16.148083
2473.000000	15.795924
2474.000000	15.484463
2475.000000	15.092724
2476.000000	15.838122
2477.000000	16.564303
2478.000000	17.061709
2479.000000	16.581549
2480.000000	17.214254
2481.000000	18.334580
2482.000000	16.981584
2483.000000	18.614355
2484.000000	18.187281
2485.000000	17.483577
2486.000000	17.390237
2487.000000	18.903506
2488.000000	18.392492
2489.000000	19.828086
2490.000000	19.310252
2491.000000	21.983572
2492.000000	19.521992
2493.000000	21.394395
2494.000000	19.754309
2495.000000	20.433413
2496.000000	19.535307
2497.000000	22.152945
2498.000000	22.032514
2499.000000	21.404476
2500.000000	20.783839
2501.000000	nan
2502.000000	nan
2503.000000	nan
2504.000000	nan
2505.000000	nan
2506.000000	nan
2507.000000	nan
2508.000000	nan
2509.000000	nan
2510.000000	nan
2511.000000	nan
2512.000000	nan
2513.000000	nan
2514.000000	nan
2515.000000	nan
2516.000000	nan
2517.000000	nan
2518.000000	nan
2519.000000	nan
2520.000000	nan
2521.000000	nan
2522.000000	nan
2523.000000	nan
2524.000000	nan
2525.000000	nan
2526.000000	nan
2527.000000	nan
2528.000000	nan
2529.000000	nan
2530.000000	nan
2531.000000	nan
2532.000000	nan
2533.000000	nan
2534.000000	nan
2535.000000	nan
2536.000000	nan
2537.000000	nan
2538.000000	nan
2539.000000	nan
2540.000000	nan
2541.000000	nan
2542.000000	nan
2543.000000	nan
2544.000000	nan
2545.000000	nan
2546.000000	nan
2547.000000	nan
2548.000000	nan
2549.000000	nan
2550.000000	nan
2551.000000	nan
2552.000000	nan
2553.000000	nan
2554.000000	nan
2555.000000	nan
2556.000000	nan
2557.000000	nan
2558.000000	nan
2559.000000	nan
2560.000000	nan
2561.000000	nan
2562.000000	nan
2563.000000	nan
2564.000000	nan
2565.000000	nan
2566.000000	nan
2567.000000	nan
2568.000000	nan
2569.000000	nan
2570.000000	nan
2571.000000	nan
2572.000000	nan
2573.000000	nan
2574.000000	nan
2575.000000	nan
2576.000000	nan
2577.000000	nan
2578.000000	nan
2579.000000	nan
2580.000000	nan
2581.000000	nan
2582.000000	nan
2583.000000	nan
2584.000000	nan
2585.000000	nan
2586.000000	nan
2587.000000	nan
2588.000000	nan
2589.000000	nan
2590.000000	nan
2591.000000	nan
2592.000000	nan
2593.000000	nan
2594.000000	nan
2595.000000	nan
2596.000000	nan
2597.000000	nan
2598.000000	nan
2599.000000	nan
2600.000000	nan
2601.000000	nan
2602.000000	nan
2603.000000	nan
2604.000000	nan
2605.000000	nan
2606.000000	nan
2607.000000	nan
2608.000000	nan
2609.000000	nan
2610.000000	nan
2611.000000	nan
2612.000000	nan
2613.000000	nan
2614.000000	nan
2615.000000	nan
2616.000000	nan
2617.000000	nan
2618.000000	nan
2619.000000	nan
2620.000000	nan
2621.000000	nan
2622.000000	nan
2623.000000	nan
2624.000000	nan
2625.000000	nan
2626.000000	nan
2627.000000	nan
2628.000000	nan
2629.000000	nan
2630.000000	nan
2631.000000	nan
2632.000000	nan
2633.000000	nan
2634.000000	nan
2635.000000	nan
2636.000000	nan
2637.000000	nan
2638.000000	nan
2639.000000	nan
2640.000000	nan
2641.000000	nan
2642.000000	nan
2643.000000	nan
2644.000000	nan
2645.000000	nan
2646.000000	nan
2647.000000	nan
2648.000000	nan
2649.000000	nan
2650.000000	nan
2651.000000	nan
2652.000000	nan
2653.000000	nan
2654.000000	nan
2655.000000	nan
2656.000000	nan
2657.000000	nan
2658.000000	nan
2659.000000	nan
2660.000000	nan
2661.000000	nan
2662.000000	nan
2663.000000	nan
2664.000000	nan
2665.000000	nan
2666.000000	nan
2667.000000	nan
2668.000000	nan
2669.000000	nan
2670.000000	nan
2671.000000	nan
2672.000000	nan
2673.000000	nan
2674.000000	nan
2675.000000	nan
2676.000000	nan
2677.000000	nan
2678.000000	nan
2679.000000	nan
2680.000000	nan
2681.000000	nan
2682.000000	nan
2683.000000	nan
2684.000000	nan
2685.000000	nan
2686.000000	nan
2687.000000	nan
2688.000000	nan
2689.000000	nan
2690.000000	nan
2691.000000	nan
2692.000000	nan
2693.000000	nan
2694.000000	nan
2695.000000	nan
2696.000000	nan
2697.000000	nan
2698.000000	nan
2699.000000	nan
2700.000000	nan
2701.000000	nan
2702.000000	nan
2703.000000	nan
2704.000000	nan
2705.000000	nan
2706.000000	nan
2707.000000	nan
2708.000000	nan
2709.000000	nan
2710.000000	nan
2711.000000	nan
2712.000000	nan
2713.000000	nan
2714.000000	nan
2715.000000	nan
2716.000000	nan
2717.000000	nan
2718.000000	nan
2719.000000	nan
2720.000000	nan
2721.000000	nan
2722.000000	nan
2723.000000	nan
2724.000000	nan
2725.000000	nan
2726.000000	nan
2727.000000	nan
2728.000000	nan
2729.000000	nan
2730.000000	nan
2731.000000	nan
2732.000000	nan
2733.000000	nan
2734.000000	nan
2735.000000	nan
2736.000000	nan
2737.000000	nan
2738.000000	nan
2739.000000	nan
2740.000000	nan
2741.000000	nan
2742.000000	nan
2743.000000	nan
2744.000000	nan
2745.000000	nan
2746.000000	nan
2747.000000	nan
2748.000000	nan
2749.000000	nan
2750.000000	nan
2751.000000	nan
2752.000000	nan
2753.000000	nan
2754.000000	nan
2755.000000	nan
2756.000000	nan
2757.000000	nan
2758.000000	nan
2759.000000	nan
2760.000000	nan
2761.000000	nan
2762.000000	nan
2763.000000	nan
2764.000000	nan
2765.000000	nan
2766.000000	nan
2767.000000	nan
2768.000000	nan
2769.000000	nan
2770.000000	nan
2771.000000	nan
2772.000000	nan
2773.000000	nan
2774.000000	nan
2775.000000	nan
2776.000000	nan
2777.000000	nan
2778.000000	nan
2779.000000	nan
2780.000000	nan
2781.000000	nan
2782.000000	nan
2783.000000	nan
2784.000000	nan
2785.000000	nan
2786.000000	nan
2787.000000	nan
2788.000000	nan
2789.000000	nan
2790.000000	nan
2791.000000	nan
2792.000000	nan
2793.000000	nan
2794.000000	nan
2795.000000	nan
2796.000000	nan
2797.000000	nan
2798.000000	nan
2799.000000	nan
2800.000000	nan
2801.000000	nan
2802.000000	nan
2803.000000	nan
2804.000000	nan
2805.000000	nan
2806.000000	nan
2807.000000	nan
2808.000000	nan
2809.000000	nan
2810.000000	nan
2811.000000	nan
2812.000000	nan
2813.000000	nan
2814.000000	nan
2815.000000	nan
2816.000000	nan
2817.000000	nan
2818.000000	nan
2819.000000	nan
2820.000000	nan
2821.000000	nan
2822.000000	nan
2823.000000	nan
2824.000000	nan
2825.000000	nan
2826.000000	nan
2827.000000	nan
2828.000000	nan
2829.000000	nan
2830.000000	nan
2831.000000	nan
2832.000000	nan
2833.000000	nan
2834.000000	nan
2835.000000	nan
2836.000000	nan
2837.000000	nan
2838.000000	nan
2839.000000	nan
2840.000000	nan
2841.000000	nan
2842.000000	nan
2843.000000	nan
2844.000000	nan
2845.000000	nan
2846.000000	nan
2847.000000	nan
2848.000000	nan
2849.000000	nan
2850.000000	nan
2851.000000	nan
2852.000000	nan
2853.000000	nan
2854.000000	nan
2855.000000	nan
2856.000000	nan
2857.000000	nan
2858.000000	nan
2859.000000	nan
2860.000000	nan
2861.000000	nan
2862.000000	nan
2863.000000	nan
2864.000000	nan
2865.000000	nan
2866.000000	nan
2867.000000	nan
2868.000000	nan
2869.000000	nan
2870.000000	nan
2871.000000	nan
2872.000000	nan
2873.000000	nan
2874.000000	nan
2875.000000	nan
2876.000000	nan
2877.000000	nan
2878.000000	nan
2879.000000	nan
2880.000000	nan
2881.000000	nan
2882.000000	nan
2883.000000	nan
2884.000000	nan
2885.000000	nan
2886.000000	nan
2887.000000	nan
2888.000000	nan
2889.000000	nan
2890.000000	nan
2891.000000	nan
2892.000000	nan
2893.000000	nan
2894.000000	nan
2895.000000	nan
2896.000000	nan
2897.000000	nan
2898.000000	nan
2899.000000	nan
2900.000000	nan
2901.000000	nan
2902.000000	nan
2903.000000	nan
2904.000000	nan
2905.000000	nan
2906.000000	nan
2907.000000	nan
2908.000000	nan
2909.000000	nan
2910.000000	nan
2911.000000	nan
2912.000000	nan
2913.000000	nan
2914.000000	nan
2915.000000	nan
2916.000000	nan
2917.000000	nan
2918.000000	nan
2919.000000	nan
2920.000000	nan
2921.000000	nan
2922.000000	nan
2923.000000	nan
2924.000000	nan
2925.000000	nan
2926.000000	nan
2927.000000	nan
2928.000000	nan
2929.000000	nan
2930.000000	nan
2931.000000	nan
2932.000000	nan
2933.000000	nan
2934.000000	nan
2935.000000	nan
2936.000000	nan
2937.000000	nan
2938.000000	nan
2939.000000	nan
2940.000000	nan
2941.000000	nan
2942.000000	nan
2943.000000	nan
2944.000000	nan
2945.000000	nan
2946.000000	nan
2947.000000	nan
2948.000000	nan
2949.000000	nan
2950.000000	nan
2951.000000	nan
2952.000000	nan
2953.000000	nan
2954.000000	nan
2955.000000	nan
2956.000000	nan
2957.000000	nan
2958.000000	nan
2959.000000	nan
2960.000000	nan
2961.000000	nan
2962.000000	nan
2963.000000	nan
2964.000000	nan
2965.000000	nan
2966.000000	nan
2967.000000	nan
2968.000000	nan
2969.000000	nan
2970.000000	nan
2971.000000	nan
2972.000000	nan
2973.000000	nan
2974.000000	nan
2975.000000	nan
2976.000000	nan
2977.000000	nan
2978.000000	nan
2979.000000	nan
2980.000000	nan
2981.000000	nan
2982.000000	nan
2983.000000	nan
2984.000000	nan
2985.000000	nan
2986.000000	nan
2987.000000	nan
2988.000000	nan
2989.000000	nan
2990.000000	nan
2991.000000	nan
2992.000000	nan
2993.000000	nan
2994.000000	nan
2995.000000	nan
2996.000000	nan
2997.000000	nan
2998.000000	nan
2999.000000	nan
3000.000000	nan
