PE UV       SUBTECH     SPECTRUM    ASCII       PEDS        4.00        
   -1
INBUCR0117-5.Sample.ASC
24/02/12
14:11:07.00
24/02/12
14:11:07.00
Vinicio Soto Monge
Strigidia labyrinthophallica. Color cobrizo con ambos élitros (Det: A. Solís) COSTA RICA Prov. Puntarenas. P.N. Corcovado. Estac La Leona Alrededores. 5m 1-15 ABR 2002 A. Azofeifa. Libre. I S267167_519271 #70571 INB0003515945 INBIOCRI COSTA RICA 
250,000000
1
Lambda 1050
1050L1511233
PerkinElmer UV WinLab 6.3.2.0749 / 2.02.05 Lambda 900 UV/VIS/NIR, Aug  7 2015 09:38:08

0
0
3350/servo 860,8/2
0
0
UV/VIS
1
1
1
DoubleDePol,CommonBeamDepol,RBeamAtt,SBeamAtt,60mm sphere, WB InGaAs Detector
0
0
0
0
Program
Program
3350/servo 860,8/2
3350/0,2 860,8/0,2
3350/0,2 860,8/0,2
0
15.00
 
 
 
0
 
860,8
150
860,8
Front
100
on
S:100 R:100
0
0
0
0
 
0
 
 
 
0
 
 
0
0
0
0
0
 
 
 
 
0
0


0
0
#HDR
-1
-1
#GR
nm
%R
1.0
0.0
2500,000000
-1,000000
2251
8
21,121000
1,361200
#DATA

250.000000	2.341678
251.000000	2.300325
252.000000	2.300936
253.000000	2.339157
254.000000	2.337520
255.000000	2.324492
256.000000	2.291074
257.000000	2.290598
258.000000	2.280581
259.000000	2.291046
260.000000	2.283974
261.000000	2.334714
262.000000	2.287434
263.000000	2.281024
264.000000	2.325749
265.000000	2.304564
266.000000	2.331733
267.000000	2.314953
268.000000	2.320215
269.000000	2.338974
270.000000	2.315920
271.000000	2.336992
272.000000	2.313371
273.000000	2.328150
274.000000	2.341834
275.000000	2.286770
276.000000	2.282049
277.000000	2.305939
278.000000	2.352961
279.000000	2.387117
280.000000	2.364276
281.000000	2.357944
282.000000	2.342386
283.000000	2.335946
284.000000	2.325322
285.000000	2.363640
286.000000	2.350213
287.000000	2.352968
288.000000	2.343600
289.000000	2.356701
290.000000	2.330974
291.000000	2.333529
292.000000	2.348294
293.000000	2.342669
294.000000	2.347407
295.000000	2.333172
296.000000	2.368515
297.000000	2.363837
298.000000	2.344925
299.000000	2.348299
300.000000	2.358108
301.000000	2.324483
302.000000	2.358892
303.000000	2.355495
304.000000	2.338249
305.000000	2.682923
306.000000	2.675720
307.000000	2.677390
308.000000	2.676942
309.000000	2.664593
310.000000	2.660398
311.000000	3.047863
312.000000	3.046201
313.000000	3.049689
314.000000	3.459048
315.000000	3.456200
316.000000	3.444110
317.000000	3.290695
318.000000	3.780030
319.000000	3.703422
320.000000	3.692796
321.000000	3.765900
322.000000	3.778645
323.000000	3.798624
324.000000	4.236236
325.000000	4.205302
326.000000	4.197343
327.000000	4.222779
328.000000	4.200087
329.000000	4.218203
330.000000	4.192354
331.000000	4.202423
332.000000	4.262225
333.000000	4.246303
334.000000	4.234263
335.000000	4.248835
336.000000	4.246300
337.000000	4.282365
338.000000	4.212809
339.000000	4.230736
340.000000	4.210824
341.000000	4.715016
342.000000	4.253559
343.000000	4.247670
344.000000	4.708990
345.000000	4.692463
346.000000	4.694151
347.000000	4.706421
348.000000	4.715931
349.000000	4.242083
350.000000	4.706002
351.000000	4.695201
352.000000	4.740272
353.000000	4.725585
354.000000	4.727536
355.000000	4.718749
356.000000	4.734829
357.000000	4.716272
358.000000	4.734612
359.000000	4.724125
360.000000	4.722954
361.000000	4.737473
362.000000	4.729013
363.000000	4.732145
364.000000	4.734626
365.000000	4.738583
366.000000	4.740852
367.000000	4.745490
368.000000	4.755810
369.000000	4.290128
370.000000	4.304574
371.000000	4.297691
372.000000	4.761847
373.000000	4.794496
374.000000	4.349411
375.000000	4.350075
376.000000	4.777457
377.000000	4.361551
378.000000	4.364430
379.000000	4.365046
380.000000	4.369378
381.000000	4.367828
382.000000	4.366633
383.000000	4.366973
384.000000	4.365873
385.000000	4.368611
386.000000	4.368217
387.000000	4.368208
388.000000	4.365960
389.000000	4.367423
390.000000	4.368477
391.000000	4.369094
392.000000	4.367737
393.000000	4.366972
394.000000	4.366673
395.000000	4.367798
396.000000	4.368021
397.000000	4.366327
398.000000	4.366531
399.000000	4.367920
400.000000	4.369544
401.000000	4.367107
402.000000	4.368065
403.000000	4.366810
404.000000	4.366380
405.000000	4.367604
406.000000	4.367801
407.000000	4.367860
408.000000	4.369751
409.000000	4.369592
410.000000	4.370284
411.000000	4.368782
412.000000	4.367930
413.000000	4.369420
414.000000	4.371178
415.000000	4.368908
416.000000	4.367928
417.000000	4.369259
418.000000	4.370354
419.000000	4.369490
420.000000	4.368554
421.000000	4.369886
422.000000	4.370943
423.000000	4.369173
424.000000	4.370688
425.000000	4.370522
426.000000	4.369195
427.000000	4.369956
428.000000	4.370312
429.000000	4.369457
430.000000	4.370095
431.000000	4.370493
432.000000	4.369721
433.000000	4.370768
434.000000	4.371667
435.000000	4.371855
436.000000	4.370391
437.000000	4.369581
438.000000	4.370875
439.000000	4.371294
440.000000	4.372551
441.000000	4.372487
442.000000	4.371819
443.000000	4.372473
444.000000	4.373650
445.000000	4.372730
446.000000	4.371034
447.000000	4.370748
448.000000	4.372242
449.000000	4.373286
450.000000	4.373365
451.000000	4.373274
452.000000	4.374556
453.000000	4.834106
454.000000	4.833967
455.000000	4.834386
456.000000	4.833898
457.000000	4.832705
458.000000	4.832721
459.000000	4.833885
460.000000	4.833768
461.000000	4.834828
462.000000	4.834275
463.000000	4.833848
464.000000	4.834491
465.000000	4.834096
466.000000	4.833391
467.000000	4.833759
468.000000	4.834639
469.000000	4.834970
470.000000	4.835185
471.000000	4.836096
472.000000	4.836026
473.000000	4.835521
474.000000	4.836663
475.000000	4.837064
476.000000	4.838044
477.000000	4.838918
478.000000	4.839534
479.000000	4.840822
480.000000	4.843119
481.000000	4.844605
482.000000	4.846832
483.000000	4.848286
484.000000	4.847077
485.000000	4.846421
486.000000	4.845684
487.000000	4.844564
488.000000	4.843503
489.000000	4.841937
490.000000	4.840323
491.000000	4.839741
492.000000	4.840550
493.000000	4.839917
494.000000	4.836624
495.000000	4.835643
496.000000	4.836176
497.000000	4.834464
498.000000	4.834102
499.000000	4.832835
500.000000	4.832769
501.000000	4.831925
502.000000	4.831684
503.000000	4.831305
504.000000	4.831226
505.000000	4.830182
506.000000	4.829487
507.000000	4.829289
508.000000	4.829148
509.000000	4.829960
510.000000	4.831777
511.000000	4.831236
512.000000	4.830527
513.000000	4.832121
514.000000	4.833641
515.000000	4.832974
516.000000	4.833596
517.000000	4.835671
518.000000	4.836895
519.000000	4.837511
520.000000	4.837027
521.000000	4.837324
522.000000	4.838095
523.000000	4.839408
524.000000	4.838259
525.000000	4.837659
526.000000	4.838159
527.000000	4.838504
528.000000	4.836860
529.000000	4.835979
530.000000	4.835265
531.000000	4.833882
532.000000	4.833187
533.000000	4.831352
534.000000	4.830696
535.000000	4.828384
536.000000	4.826760
537.000000	4.825604
538.000000	5.284199
539.000000	5.282404
540.000000	5.280725
541.000000	5.278265
542.000000	5.276542
543.000000	5.274424
544.000000	5.272160
545.000000	5.269598
546.000000	5.266697
547.000000	5.264933
548.000000	5.260746
549.000000	5.257926
550.000000	5.255529
551.000000	5.250986
552.000000	5.246215
553.000000	5.242066
554.000000	5.696036
555.000000	5.688433
556.000000	5.680944
557.000000	5.671820
558.000000	5.662884
559.000000	5.651027
560.000000	5.663316
561.000000	5.655070
562.000000	6.098123
563.000000	6.083249
564.000000	6.067219
565.000000	6.050683
566.000000	6.031796
567.000000	6.463666
568.000000	6.444840
569.000000	6.424318
570.000000	6.404373
571.000000	6.386147
572.000000	6.808997
573.000000	6.789513
574.000000	6.771881
575.000000	6.757332
576.000000	7.177507
577.000000	7.160875
578.000000	7.149038
579.000000	7.144237
580.000000	7.562113
581.000000	7.555496
582.000000	7.558919
583.000000	7.563443
584.000000	7.568780
585.000000	7.994361
586.000000	8.008434
587.000000	8.028726
588.000000	8.051821
589.000000	8.074223
590.000000	8.102747
591.000000	8.138749
592.000000	8.172168
593.000000	8.610346
594.000000	8.647210
595.000000	8.691430
596.000000	8.730785
597.000000	8.773023
598.000000	8.423786
599.000000	8.467366
600.000000	8.511330
601.000000	8.545303
602.000000	8.579764
603.000000	8.613964
604.000000	8.642505
605.000000	8.668968
606.000000	8.689580
607.000000	8.324211
608.000000	8.330838
609.000000	8.336528
610.000000	8.340950
611.000000	8.341819
612.000000	7.946496
613.000000	7.935273
614.000000	7.918825
615.000000	7.899432
616.000000	7.879299
617.000000	7.858746
618.000000	7.438288
619.000000	7.408051
620.000000	7.377703
621.000000	7.351247
622.000000	7.323251
623.000000	7.291126
624.000000	7.264564
625.000000	7.239876
626.000000	7.209638
627.000000	7.182177
628.000000	7.158503
629.000000	7.135412
630.000000	7.115575
631.000000	7.099467
632.000000	7.496013
633.000000	7.481281
634.000000	7.472464
635.000000	7.467807
636.000000	7.464007
637.000000	7.873188
638.000000	7.874157
639.000000	7.883994
640.000000	7.888392
641.000000	7.896834
642.000000	7.906325
643.000000	8.333635
644.000000	8.345736
645.000000	8.358649
646.000000	8.369752
647.000000	8.386457
648.000000	8.396026
649.000000	8.410832
650.000000	8.421939
651.000000	8.433554
652.000000	8.441913
653.000000	8.453239
654.000000	8.464903
655.000000	8.476113
656.000000	8.480889
657.000000	8.486405
658.000000	8.490110
659.000000	8.498083
660.000000	8.501089
661.000000	8.512009
662.000000	8.517670
663.000000	8.928854
664.000000	8.937974
665.000000	8.942951
666.000000	8.953184
667.000000	8.964496
668.000000	8.972474
669.000000	8.980678
670.000000	9.385175
671.000000	9.393650
672.000000	9.408325
673.000000	9.424272
674.000000	9.440802
675.000000	9.450522
676.000000	9.854135
677.000000	9.868253
678.000000	9.884543
679.000000	9.901548
680.000000	9.912702
681.000000	9.919951
682.000000	9.938299
683.000000	10.336686
684.000000	10.353362
685.000000	10.365888
686.000000	10.373730
687.000000	10.383187
688.000000	10.393866
689.000000	10.403443
690.000000	10.416196
691.000000	10.423562
692.000000	10.437569
693.000000	10.446841
694.000000	10.458504
695.000000	10.849224
696.000000	10.861939
697.000000	10.877339
698.000000	10.887963
699.000000	10.896382
700.000000	10.916537
701.000000	10.930016
702.000000	10.953671
703.000000	11.345635
704.000000	11.358038
705.000000	11.372481
706.000000	11.398759
707.000000	11.419467
708.000000	11.436319
709.000000	11.825532
710.000000	11.839475
711.000000	11.858329
712.000000	11.877342
713.000000	11.894741
714.000000	11.908385
715.000000	12.294919
716.000000	12.314695
717.000000	12.325364
718.000000	12.336919
719.000000	12.353442
720.000000	12.367446
721.000000	12.382117
722.000000	12.396525
723.000000	12.780878
724.000000	12.790946
725.000000	12.809896
726.000000	12.831726
727.000000	12.853798
728.000000	12.878636
729.000000	12.898973
730.000000	13.274750
731.000000	13.288625
732.000000	13.324487
733.000000	13.349095
734.000000	13.373381
735.000000	13.403147
736.000000	13.780767
737.000000	13.801855
738.000000	13.827794
739.000000	13.851213
740.000000	13.880285
741.000000	13.900784
742.000000	14.288530
743.000000	14.318970
744.000000	14.338111
745.000000	14.350347
746.000000	14.370173
747.000000	14.396422
748.000000	14.773538
749.000000	14.782332
750.000000	14.800226
751.000000	14.837980
752.000000	14.859071
753.000000	14.868184
754.000000	15.246596
755.000000	15.264407
756.000000	15.301567
757.000000	15.333175
758.000000	15.359564
759.000000	15.387605
760.000000	15.757576
761.000000	15.773717
762.000000	15.799803
763.000000	15.822225
764.000000	15.849283
765.000000	15.880181
766.000000	16.254362
767.000000	16.273992
768.000000	16.300882
769.000000	16.313509
770.000000	16.347627
771.000000	16.739462
772.000000	16.756727
773.000000	16.775027
774.000000	16.807769
775.000000	16.828516
776.000000	17.217578
777.000000	17.250469
778.000000	17.262378
779.000000	17.285664
780.000000	17.305720
781.000000	17.332247
782.000000	17.725771
783.000000	17.737847
784.000000	17.758471
785.000000	17.813660
786.000000	17.822397
787.000000	18.188153
788.000000	18.233019
789.000000	18.254187
790.000000	18.278810
791.000000	18.296620
792.000000	18.328688
793.000000	18.723990
794.000000	18.745478
795.000000	18.768527
796.000000	18.808607
797.000000	18.831948
798.000000	18.851504
799.000000	19.219002
800.000000	19.254559
801.000000	19.302528
802.000000	19.323299
803.000000	19.358144
804.000000	19.723273
805.000000	19.757098
806.000000	19.802916
807.000000	19.841948
808.000000	19.827270
809.000000	20.201010
810.000000	20.231898
811.000000	20.280064
812.000000	20.317927
813.000000	20.348035
814.000000	20.378817
815.000000	20.731183
816.000000	20.739402
817.000000	20.787821
818.000000	20.844388
819.000000	20.874359
820.000000	21.247709
821.000000	21.286338
822.000000	21.322217
823.000000	21.344488
824.000000	21.386540
825.000000	21.408631
826.000000	21.755175
827.000000	21.816908
828.000000	21.864956
829.000000	21.917677
830.000000	21.900702
831.000000	21.929892
832.000000	22.302216
833.000000	22.378465
834.000000	22.403925
835.000000	22.365464
836.000000	22.452133
837.000000	22.511408
838.000000	22.902438
839.000000	22.874822
840.000000	22.995028
841.000000	22.995164
842.000000	22.987893
843.000000	23.024268
844.000000	23.369471
845.000000	23.403116
846.000000	23.508194
847.000000	23.604545
848.000000	23.605769
849.000000	23.555513
850.000000	23.569786
851.000000	23.690129
852.000000	23.734543
853.000000	23.780717
854.000000	24.141555
855.000000	24.124551
856.000000	24.071527
857.000000	24.112329
858.000000	27.797460
859.000000	24.914228
860.000000	24.487669
861.000000	24.787148
862.000000	24.934708
863.000000	24.633589
864.000000	24.448695
865.000000	24.390711
866.000000	24.456174
867.000000	24.495719
868.000000	24.396059
869.000000	24.432606
870.000000	24.315170
871.000000	24.279645
872.000000	24.404445
873.000000	24.321734
874.000000	24.663710
875.000000	24.376982
876.000000	24.186698
877.000000	24.702421
878.000000	24.818542
879.000000	24.470445
880.000000	24.717148
881.000000	24.580506
882.000000	24.350170
883.000000	24.509423
884.000000	24.461972
885.000000	24.223876
886.000000	24.573110
887.000000	24.286930
888.000000	24.572290
889.000000	24.244907
890.000000	24.307985
891.000000	24.499921
892.000000	24.464516
893.000000	24.588804
894.000000	24.497655
895.000000	24.499956
896.000000	24.502796
897.000000	24.601377
898.000000	24.573843
899.000000	24.531841
900.000000	24.516815
901.000000	24.519385
902.000000	24.516924
903.000000	24.483024
904.000000	24.481193
905.000000	24.501244
906.000000	24.541110
907.000000	24.476295
908.000000	24.529608
909.000000	24.809578
910.000000	24.773759
911.000000	24.478011
912.000000	24.759833
913.000000	24.816197
914.000000	24.814605
915.000000	24.803088
916.000000	24.701599
917.000000	24.754097
918.000000	24.792135
919.000000	24.715310
920.000000	24.739147
921.000000	24.731804
922.000000	24.763016
923.000000	24.769424
924.000000	25.078673
925.000000	25.071493
926.000000	24.878140
927.000000	25.106089
928.000000	25.057543
929.000000	25.104562
930.000000	25.089827
931.000000	25.077599
932.000000	25.118028
933.000000	25.104188
934.000000	25.049514
935.000000	25.056684
936.000000	25.105606
937.000000	25.085531
938.000000	25.147412
939.000000	25.166266
940.000000	25.399842
941.000000	25.402326
942.000000	25.431871
943.000000	25.428493
944.000000	25.404352
945.000000	25.437618
946.000000	25.418506
947.000000	25.419109
948.000000	25.401876
949.000000	25.417890
950.000000	25.452381
951.000000	25.445704
952.000000	25.465911
953.000000	25.479413
954.000000	25.450983
955.000000	25.477005
956.000000	25.758810
957.000000	25.727387
958.000000	25.756798
959.000000	25.769439
960.000000	25.776549
961.000000	25.771883
962.000000	25.780289
963.000000	25.786946
964.000000	25.791531
965.000000	25.804738
966.000000	25.809102
967.000000	25.829879
968.000000	25.835697
969.000000	25.826812
970.000000	25.818575
971.000000	25.825745
972.000000	26.118496
973.000000	26.112352
974.000000	26.120696
975.000000	26.120988
976.000000	26.147489
977.000000	26.123831
978.000000	26.134361
979.000000	26.150609
980.000000	26.161321
981.000000	26.167993
982.000000	26.180447
983.000000	26.173006
984.000000	26.164810
985.000000	26.170446
986.000000	26.186443
987.000000	26.181932
988.000000	26.183017
989.000000	26.473539
990.000000	26.485501
991.000000	26.494960
992.000000	26.496636
993.000000	26.501219
994.000000	26.485116
995.000000	26.502350
996.000000	26.509286
997.000000	26.507063
998.000000	26.515792
999.000000	26.524345
1000.000000	26.525257
1001.000000	26.529683
1002.000000	26.537264
1003.000000	26.542960
1004.000000	26.552178
1005.000000	26.555554
1006.000000	26.560383
1007.000000	26.550104
1008.000000	26.831171
1009.000000	26.837678
1010.000000	26.847712
1011.000000	26.851689
1012.000000	26.853570
1013.000000	26.861050
1014.000000	26.873247
1015.000000	26.878155
1016.000000	26.875051
1017.000000	26.881821
1018.000000	26.894237
1019.000000	26.899959
1020.000000	26.905395
1021.000000	26.912381
1022.000000	26.923109
1023.000000	26.928036
1024.000000	26.927915
1025.000000	27.216643
1026.000000	27.222649
1027.000000	27.233046
1028.000000	27.249096
1029.000000	27.255462
1030.000000	27.247836
1031.000000	27.243304
1032.000000	27.252274
1033.000000	27.268275
1034.000000	27.273725
1035.000000	27.270832
1036.000000	27.270112
1037.000000	27.269649
1038.000000	27.280689
1039.000000	27.295690
1040.000000	27.303457
1041.000000	27.305018
1042.000000	27.590327
1043.000000	27.600733
1044.000000	27.618289
1045.000000	27.622878
1046.000000	27.615214
1047.000000	27.610773
1048.000000	27.617669
1049.000000	27.626568
1050.000000	27.632298
1051.000000	27.644087
1052.000000	27.651888
1053.000000	27.665625
1054.000000	27.670815
1055.000000	27.670359
1056.000000	27.671291
1057.000000	27.678525
1058.000000	27.961177
1059.000000	27.973157
1060.000000	27.984337
1061.000000	27.983746
1062.000000	27.989434
1063.000000	28.005053
1064.000000	28.002898
1065.000000	28.011268
1066.000000	28.024403
1067.000000	28.031952
1068.000000	28.036681
1069.000000	28.036629
1070.000000	28.041736
1071.000000	28.044478
1072.000000	28.050606
1073.000000	28.052693
1074.000000	28.343667
1075.000000	28.344497
1076.000000	28.348654
1077.000000	28.359604
1078.000000	28.358140
1079.000000	28.360447
1080.000000	28.368484
1081.000000	28.368030
1082.000000	28.375723
1083.000000	28.383899
1084.000000	28.386494
1085.000000	28.386912
1086.000000	28.394031
1087.000000	28.399662
1088.000000	28.400312
1089.000000	28.408863
1090.000000	28.415465
1091.000000	28.414295
1092.000000	28.419914
1093.000000	28.425160
1094.000000	28.422561
1095.000000	28.713856
1096.000000	28.712538
1097.000000	28.715864
1098.000000	28.717289
1099.000000	28.720266
1100.000000	28.729190
1101.000000	28.734090
1102.000000	28.732610
1103.000000	28.734178
1104.000000	28.736907
1105.000000	28.743422
1106.000000	28.746222
1107.000000	28.750045
1108.000000	28.757886
1109.000000	28.760975
1110.000000	28.763051
1111.000000	28.760119
1112.000000	28.765039
1113.000000	28.763178
1114.000000	28.764206
1115.000000	28.766853
1116.000000	28.772341
1117.000000	28.767145
1118.000000	28.752284
1119.000000	28.752549
1120.000000	28.750052
1121.000000	28.740353
1122.000000	28.727294
1123.000000	28.718561
1124.000000	28.701478
1125.000000	28.707431
1126.000000	28.704999
1127.000000	28.694772
1128.000000	28.674359
1129.000000	28.670768
1130.000000	28.667225
1131.000000	28.686136
1132.000000	28.683661
1133.000000	28.670560
1134.000000	28.638450
1135.000000	28.617617
1136.000000	28.323265
1137.000000	28.328781
1138.000000	28.322953
1139.000000	28.321592
1140.000000	28.294196
1141.000000	28.286663
1142.000000	28.279858
1143.000000	28.268679
1144.000000	28.246405
1145.000000	28.230806
1146.000000	28.209424
1147.000000	28.195461
1148.000000	28.178570
1149.000000	28.169423
1150.000000	28.146943
1151.000000	28.133204
1152.000000	28.099944
1153.000000	28.088034
1154.000000	27.780581
1155.000000	27.764789
1156.000000	27.750806
1157.000000	27.735126
1158.000000	27.720221
1159.000000	27.720500
1160.000000	27.706414
1161.000000	27.691137
1162.000000	27.683378
1163.000000	27.676202
1164.000000	27.374782
1165.000000	27.364914
1166.000000	27.353932
1167.000000	27.336018
1168.000000	27.332330
1169.000000	27.323337
1170.000000	27.293288
1171.000000	27.270220
1172.000000	27.260308
1173.000000	27.250784
1174.000000	27.230358
1175.000000	27.215814
1176.000000	26.909181
1177.000000	26.900895
1178.000000	26.897401
1179.000000	26.889152
1180.000000	26.891719
1181.000000	26.897047
1182.000000	26.890500
1183.000000	26.895154
1184.000000	26.884117
1185.000000	26.879816
1186.000000	26.880898
1187.000000	26.873058
1188.000000	26.886210
1189.000000	26.882560
1190.000000	26.884194
1191.000000	26.884602
1192.000000	26.876892
1193.000000	26.873615
1194.000000	26.880812
1195.000000	26.883826
1196.000000	27.177934
1197.000000	27.177237
1198.000000	27.180410
1199.000000	27.192741
1200.000000	27.196059
1201.000000	27.185431
1202.000000	27.199405
1203.000000	27.212305
1204.000000	27.220076
1205.000000	27.221579
1206.000000	27.237645
1207.000000	27.245762
1208.000000	27.256949
1209.000000	27.258132
1210.000000	27.265896
1211.000000	27.272847
1212.000000	27.274341
1213.000000	27.586791
1214.000000	27.592769
1215.000000	27.610464
1216.000000	27.621305
1217.000000	27.632491
1218.000000	27.647561
1219.000000	27.654004
1220.000000	27.660369
1221.000000	27.666137
1222.000000	27.685350
1223.000000	27.694305
1224.000000	28.007144
1225.000000	28.017636
1226.000000	28.025940
1227.000000	28.041437
1228.000000	28.057382
1229.000000	28.068349
1230.000000	28.075533
1231.000000	28.087746
1232.000000	28.108649
1233.000000	28.109828
1234.000000	28.121155
1235.000000	28.135008
1236.000000	28.439866
1237.000000	28.454182
1238.000000	28.469790
1239.000000	28.475369
1240.000000	28.490857
1241.000000	28.493708
1242.000000	28.489417
1243.000000	28.489011
1244.000000	28.492771
1245.000000	28.497351
1246.000000	28.500761
1247.000000	28.502996
1248.000000	28.504270
1249.000000	28.511342
1250.000000	28.506057
1251.000000	28.507629
1252.000000	28.506193
1253.000000	28.506032
1254.000000	28.510421
1255.000000	28.818229
1256.000000	28.817719
1257.000000	28.822191
1258.000000	28.825446
1259.000000	28.825880
1260.000000	28.827365
1261.000000	28.829259
1262.000000	28.840846
1263.000000	28.849818
1264.000000	28.854312
1265.000000	28.863495
1266.000000	28.867171
1267.000000	28.874128
1268.000000	28.875880
1269.000000	28.879904
1270.000000	28.884596
1271.000000	28.892576
1272.000000	28.894423
1273.000000	28.894477
1274.000000	28.896004
1275.000000	28.901916
1276.000000	28.902957
1277.000000	28.902971
1278.000000	28.910122
1279.000000	28.915419
1280.000000	28.919800
1281.000000	28.922957
1282.000000	28.920476
1283.000000	28.912265
1284.000000	28.908863
1285.000000	28.909079
1286.000000	28.916460
1287.000000	28.917807
1288.000000	28.911103
1289.000000	28.911362
1290.000000	28.914447
1291.000000	28.919613
1292.000000	28.925387
1293.000000	28.916864
1294.000000	28.912163
1295.000000	28.914611
1296.000000	28.913390
1297.000000	28.910623
1298.000000	28.910276
1299.000000	28.910730
1300.000000	28.907996
1301.000000	28.914003
1302.000000	28.917849
1303.000000	28.913069
1304.000000	28.912129
1305.000000	28.909223
1306.000000	28.914441
1307.000000	28.916344
1308.000000	28.911494
1309.000000	28.911560
1310.000000	28.913313
1311.000000	28.914342
1312.000000	28.905600
1313.000000	28.904408
1314.000000	28.900116
1315.000000	28.897125
1316.000000	28.899966
1317.000000	28.902860
1318.000000	28.898366
1319.000000	28.887732
1320.000000	28.888450
1321.000000	28.890723
1322.000000	28.882106
1323.000000	28.874060
1324.000000	28.863770
1325.000000	28.852217
1326.000000	28.842249
1327.000000	28.830821
1328.000000	28.817711
1329.000000	28.808495
1330.000000	28.789603
1331.000000	28.474436
1332.000000	28.464624
1333.000000	28.450195
1334.000000	28.440586
1335.000000	28.432595
1336.000000	28.414504
1337.000000	28.404950
1338.000000	28.397580
1339.000000	28.378144
1340.000000	28.371970
1341.000000	28.062192
1342.000000	28.046249
1343.000000	28.029040
1344.000000	28.023924
1345.000000	28.028439
1346.000000	28.017838
1347.000000	28.005463
1348.000000	27.992390
1349.000000	27.994889
1350.000000	27.690257
1351.000000	27.678045
1352.000000	27.671509
1353.000000	27.653604
1354.000000	27.610898
1355.000000	27.572689
1356.000000	27.553013
1357.000000	27.539987
1358.000000	27.218597
1359.000000	27.203105
1360.000000	27.140275
1361.000000	27.043448
1362.000000	26.997472
1363.000000	26.968190
1364.000000	26.904855
1365.000000	26.556895
1366.000000	26.543325
1367.000000	26.481591
1368.000000	26.434652
1369.000000	26.419583
1370.000000	26.370374
1371.000000	26.329999
1372.000000	26.318726
1373.000000	26.313357
1374.000000	26.005453
1375.000000	25.992614
1376.000000	25.998648
1377.000000	26.001541
1378.000000	26.021327
1379.000000	26.017206
1380.000000	25.671297
1381.000000	25.592467
1382.000000	25.542291
1383.000000	25.493727
1384.000000	25.476684
1385.000000	25.132743
1386.000000	25.102643
1387.000000	25.047984
1388.000000	25.013739
1389.000000	24.687934
1390.000000	24.681866
1391.000000	24.642140
1392.000000	24.615361
1393.000000	24.283075
1394.000000	24.249195
1395.000000	24.164927
1396.000000	24.133829
1397.000000	23.846111
1398.000000	23.865971
1399.000000	23.811067
1400.000000	23.733837
1401.000000	23.400857
1402.000000	23.437629
1403.000000	23.449541
1404.000000	23.090364
1405.000000	23.057041
1406.000000	23.047721
1407.000000	22.708990
1408.000000	22.679110
1409.000000	22.645917
1410.000000	22.634322
1411.000000	22.333599
1412.000000	22.317541
1413.000000	22.269580
1414.000000	21.919769
1415.000000	21.907855
1416.000000	21.912632
1417.000000	21.883802
1418.000000	21.525268
1419.000000	21.497627
1420.000000	21.492767
1421.000000	21.487401
1422.000000	21.143880
1423.000000	21.121562
1424.000000	21.094686
1425.000000	21.097160
1426.000000	21.077994
1427.000000	20.731700
1428.000000	20.708537
1429.000000	20.718769
1430.000000	20.693087
1431.000000	20.675549
1432.000000	20.652989
1433.000000	20.648010
1434.000000	20.315126
1435.000000	20.306814
1436.000000	20.294815
1437.000000	20.273991
1438.000000	20.261685
1439.000000	20.256116
1440.000000	20.240675
1441.000000	20.227780
1442.000000	19.895281
1443.000000	19.893325
1444.000000	19.877952
1445.000000	19.846093
1446.000000	19.843399
1447.000000	19.849060
1448.000000	19.847556
1449.000000	19.823489
1450.000000	19.804793
1451.000000	19.463008
1452.000000	19.464713
1453.000000	19.463349
1454.000000	19.449254
1455.000000	19.433299
1456.000000	19.428417
1457.000000	19.421653
1458.000000	19.413974
1459.000000	19.409666
1460.000000	19.397258
1461.000000	19.392167
1462.000000	19.382136
1463.000000	19.061457
1464.000000	19.055919
1465.000000	19.043479
1466.000000	19.043600
1467.000000	19.036545
1468.000000	19.035922
1469.000000	19.029112
1470.000000	19.014527
1471.000000	19.009081
1472.000000	19.000408
1473.000000	18.993113
1474.000000	18.995216
1475.000000	18.995470
1476.000000	18.663611
1477.000000	18.656974
1478.000000	18.648269
1479.000000	18.637956
1480.000000	18.637608
1481.000000	18.631176
1482.000000	18.625505
1483.000000	18.627834
1484.000000	18.630969
1485.000000	18.621344
1486.000000	18.612127
1487.000000	18.611445
1488.000000	18.616812
1489.000000	18.618273
1490.000000	18.609245
1491.000000	18.602242
1492.000000	18.601445
1493.000000	18.607170
1494.000000	18.616682
1495.000000	18.611356
1496.000000	18.612213
1497.000000	18.609305
1498.000000	18.607549
1499.000000	18.616146
1500.000000	18.610571
1501.000000	18.610889
1502.000000	18.606711
1503.000000	18.613709
1504.000000	18.616145
1505.000000	18.617427
1506.000000	18.623878
1507.000000	18.622607
1508.000000	18.624959
1509.000000	18.626521
1510.000000	18.626883
1511.000000	18.627753
1512.000000	18.628674
1513.000000	18.633963
1514.000000	18.967226
1515.000000	18.970294
1516.000000	18.970870
1517.000000	18.970560
1518.000000	18.977891
1519.000000	18.984896
1520.000000	18.986118
1521.000000	18.987967
1522.000000	18.994482
1523.000000	19.000802
1524.000000	19.010377
1525.000000	19.009187
1526.000000	19.008742
1527.000000	19.015335
1528.000000	19.017430
1529.000000	19.019773
1530.000000	19.027763
1531.000000	19.032020
1532.000000	19.360334
1533.000000	19.365934
1534.000000	19.366825
1535.000000	19.371215
1536.000000	19.385127
1537.000000	19.391684
1538.000000	19.397137
1539.000000	19.407936
1540.000000	19.412684
1541.000000	19.424643
1542.000000	19.434417
1543.000000	19.442221
1544.000000	19.448709
1545.000000	19.452576
1546.000000	19.453535
1547.000000	19.457968
1548.000000	19.460514
1549.000000	19.461523
1550.000000	19.469651
1551.000000	19.472261
1552.000000	19.798179
1553.000000	19.804320
1554.000000	19.805257
1555.000000	19.805280
1556.000000	19.806487
1557.000000	19.807216
1558.000000	19.812474
1559.000000	19.817030
1560.000000	19.819697
1561.000000	19.826485
1562.000000	19.832594
1563.000000	19.839333
1564.000000	19.843265
1565.000000	19.848907
1566.000000	19.854750
1567.000000	19.851227
1568.000000	19.845814
1569.000000	19.850619
1570.000000	19.858668
1571.000000	19.861897
1572.000000	19.864043
1573.000000	19.862128
1574.000000	19.863764
1575.000000	19.859329
1576.000000	19.860744
1577.000000	19.865911
1578.000000	19.866211
1579.000000	19.867500
1580.000000	19.868340
1581.000000	19.875966
1582.000000	19.880694
1583.000000	19.876155
1584.000000	19.872416
1585.000000	19.873312
1586.000000	19.880844
1587.000000	19.891474
1588.000000	19.892020
1589.000000	19.894212
1590.000000	19.903893
1591.000000	19.909363
1592.000000	19.910190
1593.000000	19.917257
1594.000000	19.929287
1595.000000	19.938839
1596.000000	20.261828
1597.000000	20.262518
1598.000000	20.269887
1599.000000	20.275942
1600.000000	20.283383
1601.000000	20.293372
1602.000000	20.297991
1603.000000	20.296590
1604.000000	20.302476
1605.000000	20.315984
1606.000000	20.327090
1607.000000	20.325989
1608.000000	20.324666
1609.000000	20.333149
1610.000000	20.344597
1611.000000	20.348849
1612.000000	20.356135
1613.000000	20.365211
1614.000000	20.367096
1615.000000	20.372184
1616.000000	20.694811
1617.000000	20.707621
1618.000000	20.710080
1619.000000	20.720013
1620.000000	20.727093
1621.000000	20.724099
1622.000000	20.728546
1623.000000	20.739503
1624.000000	20.740272
1625.000000	20.742546
1626.000000	20.755364
1627.000000	20.752014
1628.000000	20.748160
1629.000000	20.758241
1630.000000	20.760260
1631.000000	20.767839
1632.000000	20.765001
1633.000000	20.766844
1634.000000	20.772285
1635.000000	20.770098
1636.000000	20.775188
1637.000000	20.777535
1638.000000	20.774292
1639.000000	20.780489
1640.000000	20.786414
1641.000000	20.778621
1642.000000	20.782060
1643.000000	20.787528
1644.000000	20.775641
1645.000000	20.464118
1646.000000	20.450152
1647.000000	20.447780
1648.000000	20.444478
1649.000000	20.438142
1650.000000	20.434030
1651.000000	20.429347
1652.000000	20.420890
1653.000000	20.093990
1654.000000	20.092969
1655.000000	20.093645
1656.000000	20.077754
1657.000000	20.065617
1658.000000	20.054045
1659.000000	20.043502
1660.000000	19.718724
1661.000000	19.713800
1662.000000	19.697092
1663.000000	19.677997
1664.000000	19.678222
1665.000000	19.657508
1666.000000	19.321872
1667.000000	19.296923
1668.000000	19.298354
1669.000000	19.282585
1670.000000	19.254565
1671.000000	19.242205
1672.000000	19.218636
1673.000000	18.894878
1674.000000	18.870591
1675.000000	18.844101
1676.000000	18.830983
1677.000000	18.803682
1678.000000	18.779975
1679.000000	18.773238
1680.000000	18.443327
1681.000000	18.431949
1682.000000	18.432489
1683.000000	18.435499
1684.000000	18.418062
1685.000000	18.403349
1686.000000	18.391449
1687.000000	18.380543
1688.000000	18.360132
1689.000000	18.343921
1690.000000	18.314445
1691.000000	17.969581
1692.000000	17.943994
1693.000000	17.924848
1694.000000	17.895851
1695.000000	17.878166
1696.000000	17.875331
1697.000000	17.851856
1698.000000	17.861581
1699.000000	17.859985
1700.000000	17.830530
1701.000000	17.832133
1702.000000	17.819543
1703.000000	17.808495
1704.000000	17.791177
1705.000000	17.790147
1706.000000	17.784647
1707.000000	17.443440
1708.000000	17.439572
1709.000000	17.415513
1710.000000	17.411393
1711.000000	17.404531
1712.000000	17.402462
1713.000000	17.384464
1714.000000	17.068740
1715.000000	17.072486
1716.000000	17.071415
1717.000000	17.080784
1718.000000	17.074929
1719.000000	17.072631
1720.000000	17.055460
1721.000000	17.055089
1722.000000	17.052206
1723.000000	16.723312
1724.000000	16.728242
1725.000000	16.698844
1726.000000	16.693327
1727.000000	16.682858
1728.000000	16.689055
1729.000000	16.696392
1730.000000	16.694957
1731.000000	17.016921
1732.000000	17.007916
1733.000000	17.011592
1734.000000	17.009169
1735.000000	17.020775
1736.000000	17.017761
1737.000000	17.023501
1738.000000	17.028424
1739.000000	17.035682
1740.000000	17.043667
1741.000000	17.375176
1742.000000	17.380688
1743.000000	17.387297
1744.000000	17.403183
1745.000000	17.390274
1746.000000	17.401271
1747.000000	17.407357
1748.000000	17.417730
1749.000000	17.431723
1750.000000	17.446032
1751.000000	17.448638
1752.000000	17.454706
1753.000000	17.459950
1754.000000	17.788757
1755.000000	17.798020
1756.000000	17.806202
1757.000000	17.812216
1758.000000	17.822794
1759.000000	17.832710
1760.000000	17.832785
1761.000000	17.844344
1762.000000	17.854722
1763.000000	17.864984
1764.000000	17.869617
1765.000000	17.870948
1766.000000	17.880805
1767.000000	17.882168
1768.000000	17.887008
1769.000000	17.888019
1770.000000	17.885691
1771.000000	17.897579
1772.000000	17.908011
1773.000000	18.224981
1774.000000	18.240802
1775.000000	18.241694
1776.000000	18.241454
1777.000000	18.243170
1778.000000	18.248295
1779.000000	18.240959
1780.000000	18.243895
1781.000000	18.257220
1782.000000	18.267583
1783.000000	18.272862
1784.000000	18.268394
1785.000000	18.277759
1786.000000	18.284632
1787.000000	18.292629
1788.000000	18.302107
1789.000000	18.306156
1790.000000	18.313958
1791.000000	18.311705
1792.000000	18.304697
1793.000000	18.313219
1794.000000	18.329716
1795.000000	18.333335
1796.000000	18.335201
1797.000000	18.340506
1798.000000	18.673283
1799.000000	18.671447
1800.000000	18.665255
1801.000000	18.669051
1802.000000	18.675308
1803.000000	18.690843
1804.000000	18.695515
1805.000000	18.683567
1806.000000	18.679395
1807.000000	18.690870
1808.000000	18.712141
1809.000000	18.723844
1810.000000	18.718164
1811.000000	18.706547
1812.000000	18.707701
1813.000000	18.718953
1814.000000	18.731193
1815.000000	18.739727
1816.000000	18.750491
1817.000000	18.787801
1818.000000	18.807920
1819.000000	18.794199
1820.000000	18.752551
1821.000000	18.717307
1822.000000	18.736622
1823.000000	18.795967
1824.000000	18.830586
1825.000000	18.835178
1826.000000	18.829217
1827.000000	18.829129
1828.000000	18.832131
1829.000000	18.820840
1830.000000	19.127974
1831.000000	19.154305
1832.000000	19.192523
1833.000000	19.226738
1834.000000	19.241048
1835.000000	19.226080
1836.000000	19.194567
1837.000000	19.181782
1838.000000	19.201328
1839.000000	19.203540
1840.000000	19.166735
1841.000000	19.119773
1842.000000	19.133533
1843.000000	19.193870
1844.000000	19.282414
1845.000000	19.336760
1846.000000	19.296543
1847.000000	19.200725
1848.000000	19.123998
1849.000000	19.127920
1850.000000	19.196149
1851.000000	19.239410
1852.000000	19.230443
1853.000000	19.212089
1854.000000	19.208374
1855.000000	19.213343
1856.000000	19.238922
1857.000000	19.254868
1858.000000	19.232030
1859.000000	19.201027
1860.000000	19.177966
1861.000000	19.160555
1862.000000	19.180107
1863.000000	19.223552
1864.000000	19.249883
1865.000000	19.273453
1866.000000	19.278772
1867.000000	18.940319
1868.000000	18.923245
1869.000000	18.873107
1870.000000	18.779783
1871.000000	18.738399
1872.000000	18.375586
1873.000000	18.323362
1874.000000	18.279219
1875.000000	18.238008
1876.000000	17.882698
1877.000000	17.864579
1878.000000	17.834514
1879.000000	17.500281
1880.000000	17.502804
1881.000000	17.488149
1882.000000	17.449486
1883.000000	17.072302
1884.000000	17.027349
1885.000000	17.004484
1886.000000	16.656716
1887.000000	16.661543
1888.000000	16.322064
1889.000000	16.316456
1890.000000	16.270074
1891.000000	15.868402
1892.000000	15.826951
1893.000000	15.469081
1894.000000	15.454262
1895.000000	15.129345
1896.000000	15.119556
1897.000000	14.754173
1898.000000	14.721895
1899.000000	14.311359
1900.000000	14.257052
1901.000000	13.897290
1902.000000	13.862528
1903.000000	13.502320
1904.000000	13.438512
1905.000000	13.041526
1906.000000	13.019453
1907.000000	12.649844
1908.000000	12.620682
1909.000000	12.303056
1910.000000	12.280807
1911.000000	12.248749
1912.000000	11.844803
1913.000000	11.806391
1914.000000	11.780195
1915.000000	11.755540
1916.000000	11.413534
1917.000000	11.408894
1918.000000	11.398838
1919.000000	11.373389
1920.000000	11.010292
1921.000000	10.994525
1922.000000	10.970048
1923.000000	10.948646
1924.000000	10.968737
1925.000000	10.963631
1926.000000	10.599202
1927.000000	10.565949
1928.000000	10.555664
1929.000000	10.548547
1930.000000	10.553601
1931.000000	10.549816
1932.000000	10.547156
1933.000000	10.544674
1934.000000	10.555925
1935.000000	10.544982
1936.000000	10.542460
1937.000000	10.531046
1938.000000	10.521762
1939.000000	10.521292
1940.000000	10.517976
1941.000000	10.532848
1942.000000	10.504759
1943.000000	10.512168
1944.000000	10.527003
1945.000000	10.534663
1946.000000	10.522433
1947.000000	10.526626
1948.000000	10.530925
1949.000000	10.539479
1950.000000	10.553852
1951.000000	10.891452
1952.000000	10.894000
1953.000000	10.892067
1954.000000	10.889140
1955.000000	10.883996
1956.000000	10.903399
1957.000000	10.907054
1958.000000	10.909801
1959.000000	10.910351
1960.000000	10.909523
1961.000000	10.916227
1962.000000	11.273248
1963.000000	11.269205
1964.000000	11.296224
1965.000000	11.301566
1966.000000	11.318937
1967.000000	11.321801
1968.000000	11.318355
1969.000000	11.317049
1970.000000	11.337727
1971.000000	11.348623
1972.000000	11.672792
1973.000000	11.696676
1974.000000	11.703624
1975.000000	11.688908
1976.000000	11.725788
1977.000000	11.733760
1978.000000	11.724263
1979.000000	11.729214
1980.000000	11.723511
1981.000000	12.088749
1982.000000	12.086728
1983.000000	12.096583
1984.000000	12.107287
1985.000000	12.101808
1986.000000	12.100425
1987.000000	12.127862
1988.000000	12.139848
1989.000000	12.140524
1990.000000	12.145339
1991.000000	12.482800
1992.000000	12.502726
1993.000000	12.495428
1994.000000	12.504265
1995.000000	12.527240
1996.000000	12.516123
1997.000000	12.523817
1998.000000	12.563397
1999.000000	12.533090
2000.000000	12.561609
2001.000000	12.566735
2002.000000	12.562284
2003.000000	12.570335
2004.000000	12.595890
2005.000000	12.587475
2006.000000	12.551486
2007.000000	12.570682
2008.000000	12.599770
2009.000000	12.924130
2010.000000	12.943206
2011.000000	12.624511
2012.000000	12.618774
2013.000000	12.593116
2014.000000	12.620316
2015.000000	12.622735
2016.000000	12.584519
2017.000000	12.607780
2018.000000	12.624942
2019.000000	12.605754
2020.000000	12.615109
2021.000000	12.632018
2022.000000	12.631239
2023.000000	12.616749
2024.000000	12.616011
2025.000000	12.616555
2026.000000	12.617869
2027.000000	12.604447
2028.000000	12.267844
2029.000000	12.246550
2030.000000	12.250343
2031.000000	12.250908
2032.000000	12.222863
2033.000000	12.257076
2034.000000	12.262299
2035.000000	12.247497
2036.000000	11.868012
2037.000000	11.866674
2038.000000	11.873009
2039.000000	11.868096
2040.000000	11.878369
2041.000000	11.868294
2042.000000	11.859825
2043.000000	11.857777
2044.000000	11.496104
2045.000000	11.482539
2046.000000	11.494219
2047.000000	11.517999
2048.000000	11.506443
2049.000000	11.494233
2050.000000	11.516156
2051.000000	11.490517
2052.000000	11.501715
2053.000000	11.491373
2054.000000	11.143312
2055.000000	11.512097
2056.000000	11.491039
2057.000000	11.491285
2058.000000	11.479661
2059.000000	11.467588
2060.000000	11.482759
2061.000000	11.472587
2062.000000	11.490257
2063.000000	11.507201
2064.000000	11.509736
2065.000000	11.526000
2066.000000	11.503433
2067.000000	11.528036
2068.000000	11.558491
2069.000000	11.879280
2070.000000	11.870086
2071.000000	11.928303
2072.000000	11.965268
2073.000000	11.927538
2074.000000	11.889687
2075.000000	11.926541
2076.000000	11.967494
2077.000000	11.979572
2078.000000	12.006376
2079.000000	12.006240
2080.000000	12.013809
2081.000000	12.053950
2082.000000	12.410073
2083.000000	12.053611
2084.000000	12.057844
2085.000000	12.425747
2086.000000	12.417240
2087.000000	12.433990
2088.000000	12.443377
2089.000000	12.455863
2090.000000	12.452134
2091.000000	12.443008
2092.000000	12.468620
2093.000000	12.486208
2094.000000	12.467659
2095.000000	12.478974
2096.000000	12.509202
2097.000000	12.497517
2098.000000	12.490528
2099.000000	12.498179
2100.000000	12.538479
2101.000000	12.510649
2102.000000	12.163800
2103.000000	12.180364
2104.000000	12.510853
2105.000000	12.179227
2106.000000	12.496471
2107.000000	12.482783
2108.000000	12.492222
2109.000000	12.525479
2110.000000	12.554497
2111.000000	12.204567
2112.000000	12.193899
2113.000000	12.527089
2114.000000	12.185597
2115.000000	12.225054
2116.000000	12.586824
2117.000000	12.245951
2118.000000	12.227676
2119.000000	12.239968
2120.000000	12.273301
2121.000000	12.261734
2122.000000	12.252134
2123.000000	12.248068
2124.000000	11.948032
2125.000000	12.238697
2126.000000	12.227064
2127.000000	12.209154
2128.000000	12.191182
2129.000000	11.907761
2130.000000	11.915366
2131.000000	11.921657
2132.000000	11.930425
2133.000000	11.901744
2134.000000	11.887282
2135.000000	11.895493
2136.000000	11.905066
2137.000000	11.539483
2138.000000	11.860902
2139.000000	11.496997
2140.000000	11.530430
2141.000000	11.542285
2142.000000	11.503890
2143.000000	11.519581
2144.000000	11.443872
2145.000000	11.450428
2146.000000	11.491210
2147.000000	11.487274
2148.000000	11.485462
2149.000000	11.473411
2150.000000	11.067299
2151.000000	11.021823
2152.000000	11.021941
2153.000000	11.044754
2154.000000	11.062889
2155.000000	11.047066
2156.000000	11.061403
2157.000000	10.724769
2158.000000	10.981513
2159.000000	10.938226
2160.000000	10.943339
2161.000000	10.672526
2162.000000	10.651478
2163.000000	10.663672
2164.000000	10.629062
2165.000000	10.593675
2166.000000	10.638220
2167.000000	10.597015
2168.000000	10.576468
2169.000000	10.569522
2170.000000	10.519240
2171.000000	10.552882
2172.000000	10.564489
2173.000000	10.608073
2174.000000	10.538176
2175.000000	10.529891
2176.000000	10.482642
2177.000000	10.506133
2178.000000	10.494207
2179.000000	10.555835
2180.000000	10.495235
2181.000000	10.478714
2182.000000	10.412148
2183.000000	10.428636
2184.000000	10.424335
2185.000000	10.422962
2186.000000	10.421086
2187.000000	10.383144
2188.000000	10.385348
2189.000000	10.364296
2190.000000	10.383497
2191.000000	10.440008
2192.000000	10.483062
2193.000000	10.457781
2194.000000	10.424723
2195.000000	10.387028
2196.000000	10.395967
2197.000000	10.476150
2198.000000	10.476804
2199.000000	10.825138
2200.000000	10.377495
2201.000000	10.805610
2202.000000	10.837882
2203.000000	10.834384
2204.000000	10.823308
2205.000000	10.849765
2206.000000	10.873744
2207.000000	10.815167
2208.000000	10.819010
2209.000000	10.783146
2210.000000	10.780181
2211.000000	10.761348
2212.000000	10.738251
2213.000000	10.796249
2214.000000	11.140083
2215.000000	10.799639
2216.000000	10.761669
2217.000000	10.765272
2218.000000	10.780051
2219.000000	10.793597
2220.000000	10.766456
2221.000000	10.745915
2222.000000	10.774238
2223.000000	10.793766
2224.000000	10.795877
2225.000000	10.776662
2226.000000	10.763433
2227.000000	10.789079
2228.000000	10.830988
2229.000000	10.787998
2230.000000	10.842764
2231.000000	10.809947
2232.000000	10.807779
2233.000000	10.836659
2234.000000	10.823666
2235.000000	10.787118
2236.000000	10.789146
2237.000000	10.816866
2238.000000	10.813336
2239.000000	10.798541
2240.000000	10.438101
2241.000000	10.450381
2242.000000	10.502503
2243.000000	10.555550
2244.000000	10.486130
2245.000000	10.416020
2246.000000	10.549183
2247.000000	10.536332
2248.000000	10.507141
2249.000000	10.155044
2250.000000	10.168470
2251.000000	10.172538
2252.000000	10.084885
2253.000000	10.113382
2254.000000	9.752697
2255.000000	9.857523
2256.000000	9.816817
2257.000000	9.830665
2258.000000	9.839734
2259.000000	9.775828
2260.000000	9.835461
2261.000000	9.836831
2262.000000	9.794917
2263.000000	9.815926
2264.000000	9.462283
2265.000000	9.416463
2266.000000	9.784401
2267.000000	9.823287
2268.000000	9.402530
2269.000000	9.470237
2270.000000	9.449715
2271.000000	9.430875
2272.000000	9.474234
2273.000000	9.474973
2274.000000	9.473858
2275.000000	9.449836
2276.000000	9.444208
2277.000000	9.494658
2278.000000	9.503742
2279.000000	9.577321
2280.000000	9.614262
2281.000000	9.607471
2282.000000	9.564936
2283.000000	9.560931
2284.000000	9.510238
2285.000000	9.507016
2286.000000	9.490533
2287.000000	9.486181
2288.000000	9.489474
2289.000000	9.524300
2290.000000	9.555487
2291.000000	9.493541
2292.000000	9.508905
2293.000000	9.556526
2294.000000	9.665619
2295.000000	9.680976
2296.000000	9.583778
2297.000000	9.549995
2298.000000	9.574308
2299.000000	9.624896
2300.000000	9.540916
2301.000000	9.283019
2302.000000	9.660858
2303.000000	9.634117
2304.000000	9.724616
2305.000000	9.732378
2306.000000	9.601891
2307.000000	9.581582
2308.000000	9.682855
2309.000000	9.724474
2310.000000	9.755140
2311.000000	9.772455
2312.000000	9.680036
2313.000000	9.716001
2314.000000	9.837899
2315.000000	10.157007
2316.000000	10.099125
2317.000000	10.136324
2318.000000	10.140511
2319.000000	10.180119
2320.000000	10.258793
2321.000000	10.320554
2322.000000	10.219636
2323.000000	9.940798
2324.000000	10.232461
2325.000000	10.234631
2326.000000	10.231824
2327.000000	10.263563
2328.000000	10.294385
2329.000000	10.281880
2330.000000	10.352166
2331.000000	10.349541
2332.000000	10.063773
2333.000000	10.388282
2334.000000	10.361691
2335.000000	10.307060
2336.000000	10.423730
2337.000000	10.379369
2338.000000	10.364696
2339.000000	10.341555
2340.000000	10.313896
2341.000000	10.640062
2342.000000	10.708498
2343.000000	10.689006
2344.000000	10.455841
2345.000000	10.583991
2346.000000	10.545180
2347.000000	10.926166
2348.000000	10.901633
2349.000000	10.801262
2350.000000	10.794091
2351.000000	10.542952
2352.000000	10.859484
2353.000000	10.861040
2354.000000	10.842854
2355.000000	11.117795
2356.000000	11.199376
2357.000000	10.975614
2358.000000	10.916041
2359.000000	10.900922
2360.000000	10.883835
2361.000000	10.958855
2362.000000	10.849146
2363.000000	10.757533
2364.000000	10.828837
2365.000000	11.251187
2366.000000	11.240122
2367.000000	11.544810
2368.000000	11.350653
2369.000000	11.304554
2370.000000	11.241049
2371.000000	11.323139
2372.000000	11.078072
2373.000000	11.108656
2374.000000	11.336717
2375.000000	11.285243
2376.000000	11.408143
2377.000000	11.861595
2378.000000	11.572774
2379.000000	11.848754
2380.000000	11.830296
2381.000000	11.788966
2382.000000	11.793371
2383.000000	11.752320
2384.000000	11.285299
2385.000000	11.332750
2386.000000	11.572520
2387.000000	11.773630
2388.000000	11.635587
2389.000000	11.768168
2390.000000	11.916253
2391.000000	11.627746
2392.000000	12.056936
2393.000000	11.967088
2394.000000	11.970570
2395.000000	11.891789
2396.000000	11.830813
2397.000000	11.789635
2398.000000	11.730161
2399.000000	11.891244
2400.000000	12.050355
2401.000000	12.042390
2402.000000	11.921211
2403.000000	11.887501
2404.000000	12.202893
2405.000000	12.226599
2406.000000	12.028451
2407.000000	12.097855
2408.000000	12.392539
2409.000000	11.994371
2410.000000	12.155119
2411.000000	12.254894
2412.000000	12.119406
2413.000000	11.714995
2414.000000	12.575130
2415.000000	12.025219
2416.000000	11.957128
2417.000000	12.089494
2418.000000	12.433150
2419.000000	12.476112
2420.000000	12.363241
2421.000000	12.620255
2422.000000	12.197443
2423.000000	12.363985
2424.000000	12.173300
2425.000000	12.155005
2426.000000	12.634157
2427.000000	12.500491
2428.000000	12.098946
2429.000000	12.290382
2430.000000	12.700128
2431.000000	12.369902
2432.000000	12.238285
2433.000000	12.554155
2434.000000	11.947252
2435.000000	12.389721
2436.000000	12.330040
2437.000000	12.749993
2438.000000	12.690861
2439.000000	12.958078
2440.000000	12.491573
2441.000000	12.327779
2442.000000	12.578361
2443.000000	12.370597
2444.000000	11.903783
2445.000000	12.322913
2446.000000	12.600448
2447.000000	12.948969
2448.000000	12.801825
2449.000000	13.306079
2450.000000	12.845977
2451.000000	12.907273
2452.000000	13.768672
2453.000000	12.905779
2454.000000	13.041734
2455.000000	13.347999
2456.000000	12.747131
2457.000000	13.619047
2458.000000	14.448309
2459.000000	13.563494
2460.000000	14.173164
2461.000000	14.283790
2462.000000	13.742880
2463.000000	15.287572
2464.000000	14.823424
2465.000000	14.746150
2466.000000	14.821904
2467.000000	15.453311
2468.000000	15.080572
2469.000000	16.945261
2470.000000	16.155894
2471.000000	16.713857
2472.000000	16.560386
2473.000000	16.459661
2474.000000	16.124774
2475.000000	15.972605
2476.000000	16.837585
2477.000000	17.181531
2478.000000	18.098191
2479.000000	18.444367
2480.000000	18.319968
2481.000000	18.010307
2482.000000	18.955699
2483.000000	19.792274
2484.000000	19.894374
2485.000000	20.271282
2486.000000	20.603521
2487.000000	20.085228
2488.000000	19.870512
2489.000000	22.946273
2490.000000	21.733776
2491.000000	23.220497
2492.000000	23.775545
2493.000000	22.860770
2494.000000	23.027929
2495.000000	23.605074
2496.000000	23.233768
2497.000000	23.486317
2498.000000	26.654778
2499.000000	26.132066
2500.000000	24.698509
2501.000000	nan
2502.000000	nan
2503.000000	nan
2504.000000	nan
2505.000000	nan
2506.000000	nan
2507.000000	nan
2508.000000	nan
2509.000000	nan
2510.000000	nan
2511.000000	nan
2512.000000	nan
2513.000000	nan
2514.000000	nan
2515.000000	nan
2516.000000	nan
2517.000000	nan
2518.000000	nan
2519.000000	nan
2520.000000	nan
2521.000000	nan
2522.000000	nan
2523.000000	nan
2524.000000	nan
2525.000000	nan
2526.000000	nan
2527.000000	nan
2528.000000	nan
2529.000000	nan
2530.000000	nan
2531.000000	nan
2532.000000	nan
2533.000000	nan
2534.000000	nan
2535.000000	nan
2536.000000	nan
2537.000000	nan
2538.000000	nan
2539.000000	nan
2540.000000	nan
2541.000000	nan
2542.000000	nan
2543.000000	nan
2544.000000	nan
2545.000000	nan
2546.000000	nan
2547.000000	nan
2548.000000	nan
2549.000000	nan
2550.000000	nan
2551.000000	nan
2552.000000	nan
2553.000000	nan
2554.000000	nan
2555.000000	nan
2556.000000	nan
2557.000000	nan
2558.000000	nan
2559.000000	nan
2560.000000	nan
2561.000000	nan
2562.000000	nan
2563.000000	nan
2564.000000	nan
2565.000000	nan
2566.000000	nan
2567.000000	nan
2568.000000	nan
2569.000000	nan
2570.000000	nan
2571.000000	nan
2572.000000	nan
2573.000000	nan
2574.000000	nan
2575.000000	nan
2576.000000	nan
2577.000000	nan
2578.000000	nan
2579.000000	nan
2580.000000	nan
2581.000000	nan
2582.000000	nan
2583.000000	nan
2584.000000	nan
2585.000000	nan
2586.000000	nan
2587.000000	nan
2588.000000	nan
2589.000000	nan
2590.000000	nan
2591.000000	nan
2592.000000	nan
2593.000000	nan
2594.000000	nan
2595.000000	nan
2596.000000	nan
2597.000000	nan
2598.000000	nan
2599.000000	nan
2600.000000	nan
2601.000000	nan
2602.000000	nan
2603.000000	nan
2604.000000	nan
2605.000000	nan
2606.000000	nan
2607.000000	nan
2608.000000	nan
2609.000000	nan
2610.000000	nan
2611.000000	nan
2612.000000	nan
2613.000000	nan
2614.000000	nan
2615.000000	nan
2616.000000	nan
2617.000000	nan
2618.000000	nan
2619.000000	nan
2620.000000	nan
2621.000000	nan
2622.000000	nan
2623.000000	nan
2624.000000	nan
2625.000000	nan
2626.000000	nan
2627.000000	nan
2628.000000	nan
2629.000000	nan
2630.000000	nan
2631.000000	nan
2632.000000	nan
2633.000000	nan
2634.000000	nan
2635.000000	nan
2636.000000	nan
2637.000000	nan
2638.000000	nan
2639.000000	nan
2640.000000	nan
2641.000000	nan
2642.000000	nan
2643.000000	nan
2644.000000	nan
2645.000000	nan
2646.000000	nan
2647.000000	nan
2648.000000	nan
2649.000000	nan
2650.000000	nan
2651.000000	nan
2652.000000	nan
2653.000000	nan
2654.000000	nan
2655.000000	nan
2656.000000	nan
2657.000000	nan
2658.000000	nan
2659.000000	nan
2660.000000	nan
2661.000000	nan
2662.000000	nan
2663.000000	nan
2664.000000	nan
2665.000000	nan
2666.000000	nan
2667.000000	nan
2668.000000	nan
2669.000000	nan
2670.000000	nan
2671.000000	nan
2672.000000	nan
2673.000000	nan
2674.000000	nan
2675.000000	nan
2676.000000	nan
2677.000000	nan
2678.000000	nan
2679.000000	nan
2680.000000	nan
2681.000000	nan
2682.000000	nan
2683.000000	nan
2684.000000	nan
2685.000000	nan
2686.000000	nan
2687.000000	nan
2688.000000	nan
2689.000000	nan
2690.000000	nan
2691.000000	nan
2692.000000	nan
2693.000000	nan
2694.000000	nan
2695.000000	nan
2696.000000	nan
2697.000000	nan
2698.000000	nan
2699.000000	nan
2700.000000	nan
2701.000000	nan
2702.000000	nan
2703.000000	nan
2704.000000	nan
2705.000000	nan
2706.000000	nan
2707.000000	nan
2708.000000	nan
2709.000000	nan
2710.000000	nan
2711.000000	nan
2712.000000	nan
2713.000000	nan
2714.000000	nan
2715.000000	nan
2716.000000	nan
2717.000000	nan
2718.000000	nan
2719.000000	nan
2720.000000	nan
2721.000000	nan
2722.000000	nan
2723.000000	nan
2724.000000	nan
2725.000000	nan
2726.000000	nan
2727.000000	nan
2728.000000	nan
2729.000000	nan
2730.000000	nan
2731.000000	nan
2732.000000	nan
2733.000000	nan
2734.000000	nan
2735.000000	nan
2736.000000	nan
2737.000000	nan
2738.000000	nan
2739.000000	nan
2740.000000	nan
2741.000000	nan
2742.000000	nan
2743.000000	nan
2744.000000	nan
2745.000000	nan
2746.000000	nan
2747.000000	nan
2748.000000	nan
2749.000000	nan
2750.000000	nan
2751.000000	nan
2752.000000	nan
2753.000000	nan
2754.000000	nan
2755.000000	nan
2756.000000	nan
2757.000000	nan
2758.000000	nan
2759.000000	nan
2760.000000	nan
2761.000000	nan
2762.000000	nan
2763.000000	nan
2764.000000	nan
2765.000000	nan
2766.000000	nan
2767.000000	nan
2768.000000	nan
2769.000000	nan
2770.000000	nan
2771.000000	nan
2772.000000	nan
2773.000000	nan
2774.000000	nan
2775.000000	nan
2776.000000	nan
2777.000000	nan
2778.000000	nan
2779.000000	nan
2780.000000	nan
2781.000000	nan
2782.000000	nan
2783.000000	nan
2784.000000	nan
2785.000000	nan
2786.000000	nan
2787.000000	nan
2788.000000	nan
2789.000000	nan
2790.000000	nan
2791.000000	nan
2792.000000	nan
2793.000000	nan
2794.000000	nan
2795.000000	nan
2796.000000	nan
2797.000000	nan
2798.000000	nan
2799.000000	nan
2800.000000	nan
2801.000000	nan
2802.000000	nan
2803.000000	nan
2804.000000	nan
2805.000000	nan
2806.000000	nan
2807.000000	nan
2808.000000	nan
2809.000000	nan
2810.000000	nan
2811.000000	nan
2812.000000	nan
2813.000000	nan
2814.000000	nan
2815.000000	nan
2816.000000	nan
2817.000000	nan
2818.000000	nan
2819.000000	nan
2820.000000	nan
2821.000000	nan
2822.000000	nan
2823.000000	nan
2824.000000	nan
2825.000000	nan
2826.000000	nan
2827.000000	nan
2828.000000	nan
2829.000000	nan
2830.000000	nan
2831.000000	nan
2832.000000	nan
2833.000000	nan
2834.000000	nan
2835.000000	nan
2836.000000	nan
2837.000000	nan
2838.000000	nan
2839.000000	nan
2840.000000	nan
2841.000000	nan
2842.000000	nan
2843.000000	nan
2844.000000	nan
2845.000000	nan
2846.000000	nan
2847.000000	nan
2848.000000	nan
2849.000000	nan
2850.000000	nan
2851.000000	nan
2852.000000	nan
2853.000000	nan
2854.000000	nan
2855.000000	nan
2856.000000	nan
2857.000000	nan
2858.000000	nan
2859.000000	nan
2860.000000	nan
2861.000000	nan
2862.000000	nan
2863.000000	nan
2864.000000	nan
2865.000000	nan
2866.000000	nan
2867.000000	nan
2868.000000	nan
2869.000000	nan
2870.000000	nan
2871.000000	nan
2872.000000	nan
2873.000000	nan
2874.000000	nan
2875.000000	nan
2876.000000	nan
2877.000000	nan
2878.000000	nan
2879.000000	nan
2880.000000	nan
2881.000000	nan
2882.000000	nan
2883.000000	nan
2884.000000	nan
2885.000000	nan
2886.000000	nan
2887.000000	nan
2888.000000	nan
2889.000000	nan
2890.000000	nan
2891.000000	nan
2892.000000	nan
2893.000000	nan
2894.000000	nan
2895.000000	nan
2896.000000	nan
2897.000000	nan
2898.000000	nan
2899.000000	nan
2900.000000	nan
2901.000000	nan
2902.000000	nan
2903.000000	nan
2904.000000	nan
2905.000000	nan
2906.000000	nan
2907.000000	nan
2908.000000	nan
2909.000000	nan
2910.000000	nan
2911.000000	nan
2912.000000	nan
2913.000000	nan
2914.000000	nan
2915.000000	nan
2916.000000	nan
2917.000000	nan
2918.000000	nan
2919.000000	nan
2920.000000	nan
2921.000000	nan
2922.000000	nan
2923.000000	nan
2924.000000	nan
2925.000000	nan
2926.000000	nan
2927.000000	nan
2928.000000	nan
2929.000000	nan
2930.000000	nan
2931.000000	nan
2932.000000	nan
2933.000000	nan
2934.000000	nan
2935.000000	nan
2936.000000	nan
2937.000000	nan
2938.000000	nan
2939.000000	nan
2940.000000	nan
2941.000000	nan
2942.000000	nan
2943.000000	nan
2944.000000	nan
2945.000000	nan
2946.000000	nan
2947.000000	nan
2948.000000	nan
2949.000000	nan
2950.000000	nan
2951.000000	nan
2952.000000	nan
2953.000000	nan
2954.000000	nan
2955.000000	nan
2956.000000	nan
2957.000000	nan
2958.000000	nan
2959.000000	nan
2960.000000	nan
2961.000000	nan
2962.000000	nan
2963.000000	nan
2964.000000	nan
2965.000000	nan
2966.000000	nan
2967.000000	nan
2968.000000	nan
2969.000000	nan
2970.000000	nan
2971.000000	nan
2972.000000	nan
2973.000000	nan
2974.000000	nan
2975.000000	nan
2976.000000	nan
2977.000000	nan
2978.000000	nan
2979.000000	nan
2980.000000	nan
2981.000000	nan
2982.000000	nan
2983.000000	nan
2984.000000	nan
2985.000000	nan
2986.000000	nan
2987.000000	nan
2988.000000	nan
2989.000000	nan
2990.000000	nan
2991.000000	nan
2992.000000	nan
2993.000000	nan
2994.000000	nan
2995.000000	nan
2996.000000	nan
2997.000000	nan
2998.000000	nan
2999.000000	nan
3000.000000	nan
