Time1=100ms:Average1=5:Objective=10X:Aperture=1: (11/21/2018 12:01:39 PM)
11/21/2018 12:01:39 PM
Reflectance
10X
Ap#: 1
Avg1: 5.000000
Avg2: 0.000000
Int.Time1:100.000000

420.190645	8.730341
420.624620	8.619439
421.058582	8.518105
421.492531	8.436836
421.926468	8.367382
422.360391	8.329949
422.794301	8.294466
423.228199	8.271050
423.662083	8.268338
424.095955	8.270751
424.529813	8.275606
424.963658	8.281642
425.397491	8.275548
425.831310	8.264333
426.265116	8.243253
426.698909	8.232916
427.132689	8.219221
427.566455	8.220999
428.000209	8.229462
428.433949	8.256458
428.867676	8.289025
429.301389	8.318014
429.735090	8.338937
430.168777	8.352889
430.602451	8.355168
431.036111	8.335805
431.469759	8.326718
431.903392	8.312906
432.337013	8.302421
432.770620	8.286665
433.204213	8.294467
433.637794	8.307772
434.071360	8.344201
434.504914	8.384050
434.938453	8.430456
435.371979	8.481035
435.805492	8.528090
436.238991	8.573582
436.672477	8.623728
437.105949	8.654739
437.539407	8.675163
437.972852	8.687792
438.406283	8.705197
438.839700	8.726960
439.273104	8.759839
439.706494	8.794989
440.139871	8.832890
440.573233	8.883197
441.006582	8.933892
441.439917	8.973113
441.873238	8.999565
442.306546	9.014592
442.739839	9.016856
443.173119	9.017871
443.606385	9.019232
444.039636	9.024104
444.472874	9.044772
444.906099	9.069316
445.339309	9.106781
445.772505	9.147241
446.205687	9.201976
446.638855	9.255952
447.072009	9.310290
447.505149	9.365252
447.938275	9.424189
448.371387	9.474599
448.804485	9.517512
449.237569	9.550917
449.670638	9.572108
450.103694	9.579912
450.536735	9.590684
450.969762	9.611651
451.402774	9.639530
451.835773	9.665179
452.268757	9.698014
452.701727	9.724109
453.134683	9.768146
453.567624	9.807137
454.000551	9.839027
454.433464	9.866436
454.866362	9.885866
455.299246	9.906206
455.732116	9.915254
456.164971	9.923313
456.597811	9.932162
457.030638	9.943562
457.463449	9.951507
457.896246	9.963336
458.329029	9.975539
458.761797	9.987762
459.194551	10.001751
459.627290	10.016435
460.060014	10.031562
460.492724	10.048056
460.925419	10.061913
461.358099	10.074649
461.790765	10.084181
462.223416	10.088284
462.656052	10.085520
463.088674	10.082779
463.521281	10.076739
463.953873	10.071578
464.386450	10.062176
464.819012	10.060962
465.251560	10.059169
465.684093	10.065882
466.116611	10.079303
466.549114	10.087000
466.981602	10.103566
467.414075	10.115192
467.846533	10.126027
468.278977	10.137288
468.711405	10.140743
469.143818	10.148426
469.576216	10.156656
470.008600	10.162445
470.440968	10.161596
470.873321	10.162553
471.305659	10.159360
471.737982	10.154816
472.170289	10.142810
472.602582	10.136508
473.034859	10.129129
473.467122	10.130305
473.899369	10.130554
474.331600	10.140207
474.763817	10.157958
475.196018	10.185818
475.628204	10.227159
476.060375	10.277273
476.492530	10.333556
476.924670	10.390037
477.356795	10.444043
477.788904	10.496839
478.220998	10.539954
478.653076	10.583984
479.085139	10.623987
479.517186	10.669260
479.949219	10.716695
480.381235	10.768000
480.813236	10.832750
481.245221	10.911263
481.677191	11.005345
482.109146	11.105880
482.541084	11.203642
482.973008	11.307335
483.404915	11.407590
483.836807	11.509651
484.268683	11.601582
484.700544	11.685819
485.132388	11.768290
485.564217	11.848875
485.996031	11.923864
486.427828	12.000647
486.859610	12.076289
487.291376	12.156940
487.723126	12.242093
488.154860	12.337253
488.586579	12.440309
489.018281	12.552532
489.449968	12.681507
489.881639	12.827542
490.313293	12.989448
490.744932	13.167274
491.176555	13.344812
491.608162	13.527748
492.039753	13.701729
492.471328	13.863781
492.902886	14.005335
493.334429	14.130740
493.765956	14.241601
494.197466	14.342064
494.628960	14.436822
495.060439	14.530578
495.491901	14.628623
495.923347	14.748958
496.354776	14.879516
496.786190	15.028522
497.217587	15.180522
497.648968	15.348334
498.080332	15.515170
498.511681	15.679197
498.943013	15.829352
499.374328	15.967845
499.805628	16.088929
500.236911	16.192072
500.668177	16.269886
501.099427	16.326527
501.530661	16.363096
501.961878	16.379528
502.393079	16.383895
502.824264	16.380026
503.255431	16.363813
503.686583	16.345569
504.117717	16.333968
504.548835	16.342717
504.979937	16.362684
505.411022	16.401911
505.842090	16.460429
506.273142	16.539781
506.704177	16.640530
507.135195	16.743113
507.566197	16.845857
507.997182	16.939401
508.428150	17.023145
508.859102	17.084938
509.290036	17.123482
509.720954	17.147297
510.151855	17.149084
510.582739	17.148030
511.013607	17.143827
511.444457	17.150207
511.875291	17.167064
512.306107	17.212591
512.736907	17.281026
513.167690	17.373864
513.598456	17.488618
514.029205	17.630221
514.459936	17.785353
514.890651	17.946034
515.321349	18.106834
515.752030	18.258114
516.182693	18.398045
516.613340	18.532653
517.043969	18.651429
517.474582	18.745141
517.905177	18.817142
518.335755	18.876071
518.766315	18.919637
519.196859	18.952404
519.627385	18.977086
520.057894	18.994111
520.488386	19.022049
520.918860	19.057315
521.349318	19.109490
521.779757	19.176108
522.210180	19.276279
522.640585	19.400296
523.070973	19.548505
523.501343	19.722344
523.931696	19.913931
524.362031	20.117002
524.792349	20.322473
525.222650	20.528160
525.652933	20.720631
526.083198	20.896649
526.513446	21.051476
526.943677	21.187538
527.373890	21.312329
527.804085	21.429062
528.234262	21.544816
528.664422	21.675311
529.094565	21.823210
529.524689	21.985003
529.954796	22.170863
530.384885	22.385672
530.814957	22.627454
531.245011	22.901460
531.675047	23.191036
532.105065	23.494045
532.535065	23.807968
532.965048	24.118638
533.395013	24.417419
533.824959	24.698629
534.254888	24.958093
534.684799	25.183435
535.114693	25.387853
535.544568	25.561784
535.974425	25.705946
536.404264	25.815100
536.834086	25.900056
537.263889	25.963121
537.693674	26.015708
538.123441	26.060943
538.553190	26.099164
538.982921	26.155547
539.412634	26.226545
539.842329	26.325446
540.272006	26.444498
540.701664	26.583432
541.131304	26.752330
541.560926	26.943469
541.990530	27.153760
542.420116	27.379905
542.849683	27.613106
543.279232	27.850425
543.708763	28.073773
544.138275	28.288425
544.567769	28.474711
544.997245	28.643155
545.426702	28.789835
545.856141	28.913849
546.285562	29.024625
546.714964	29.124802
547.144347	29.219656
547.573713	29.319096
548.003059	29.435931
548.432387	29.566159
548.861697	29.716798
549.290988	29.894665
549.720260	30.101108
550.149514	30.335201
550.578750	30.594733
551.007966	30.870101
551.437164	31.167238
551.866344	31.473045
552.295504	31.766134
552.724646	32.047815
553.153769	32.308631
553.582874	32.545289
554.011960	32.740396
554.441027	32.891984
554.870075	32.999357
555.299104	33.059437
555.728115	33.069269
556.157106	33.054414
556.586079	33.002385
557.015033	32.934675
557.443968	32.856190
557.872884	32.777174
558.301781	32.704090
558.730659	32.656356
559.159518	32.622763
559.588358	32.618444
560.017180	32.645285
560.445982	32.700113
560.874765	32.785352
561.303528	32.900155
561.732273	33.033994
562.160999	33.180741
562.589705	33.342278
563.018393	33.517036
563.447061	33.696485
563.875710	33.871648
564.304340	34.044820
564.732950	34.206373
565.161542	34.365753
565.590114	34.508682
566.018666	34.644597
566.447200	34.762332
566.875714	34.868575
567.304208	34.975184
567.732684	35.077475
568.161140	35.181646
568.589576	35.290832
569.017993	35.410908
569.446391	35.538840
569.874769	35.684054
570.303128	35.846394
570.731467	36.028964
571.159787	36.227807
571.588087	36.447944
572.016368	36.676998
572.444629	36.921292
572.872870	37.165573
573.301092	37.406610
573.729294	37.634046
574.157476	37.843668
574.585639	38.016865
575.013782	38.156872
575.441906	38.261418
575.870009	38.322137
576.298093	38.337087
576.726157	38.314246
577.154202	38.258314
577.582226	38.184108
578.010231	38.078702
578.438216	37.962666
578.866181	37.848537
579.294126	37.740752
579.722051	37.655940
580.149957	37.596960
580.577842	37.558452
581.005707	37.540506
581.433553	37.547717
581.861378	37.580363
582.289184	37.632371
582.716969	37.696787
583.144734	37.770364
583.572479	37.858214
584.000205	37.948442
584.427910	38.047367
584.855594	38.141031
585.283259	38.233777
585.710904	38.329208
586.138528	38.421878
586.566132	38.509300
586.993716	38.598972
587.421280	38.686258
587.848823	38.775614
588.276346	38.861611
588.703849	38.935237
589.131332	39.006114
589.558794	39.070527
589.986236	39.120809
590.413657	39.170618
590.841058	39.206580
591.268438	39.248561
591.695799	39.286937
592.123138	39.331950
592.550458	39.386776
592.977756	39.449885
593.405034	39.522019
593.832292	39.612008
594.259529	39.721735
594.686746	39.848243
595.113942	39.986486
595.541117	40.132163
595.968272	40.288055
596.395406	40.447613
596.822519	40.594632
597.249612	40.734961
597.676684	40.848894
598.103735	40.939740
598.530766	41.007216
598.957775	41.039591
599.384764	41.039311
599.811733	41.015672
600.238680	40.974354
600.665606	40.910503
601.092512	40.834740
601.519397	40.760617
601.946261	40.695870
602.373104	40.631501
602.799926	40.579046
603.226727	40.547246
603.653507	40.527625
604.080266	40.520285
604.507004	40.529382
604.933721	40.544851
605.360417	40.566725
605.787092	40.581208
606.213746	40.584562
606.640379	40.577919
607.066991	40.559381
607.493581	40.529296
607.920150	40.484268
608.346699	40.429371
608.773226	40.370508
609.199731	40.307212
609.626216	40.241615
610.052679	40.179301
610.479121	40.116297
610.905542	40.064166
611.331941	40.023767
611.758319	39.984588
612.184676	39.958371
612.611011	39.943912
613.037325	39.929552
613.463617	39.908798
613.889888	39.893236
614.316138	39.875852
614.742366	39.850777
615.168573	39.819563
615.594758	39.789510
616.020921	39.760354
616.447063	39.732791
616.873184	39.707787
617.299283	39.689616
617.725360	39.682918
618.151416	39.694851
618.577450	39.717156
619.003462	39.760676
619.429453	39.829686
619.855422	39.917888
620.281369	40.021858
620.707295	40.141265
621.133199	40.265380
621.559081	40.389568
621.984941	40.509579
622.410779	40.618012
622.836596	40.709678
623.262391	40.783432
623.688163	40.835139
624.113914	40.867789
624.539644	40.874087
624.965351	40.854379
625.391036	40.812410
625.816699	40.750954
626.242340	40.676609
626.667960	40.589210
627.093557	40.493247
627.519132	40.400699
627.944685	40.299874
628.370216	40.204236
628.795725	40.109740
629.221212	40.009729
629.646677	39.901328
630.072119	39.793457
630.497540	39.674091
630.922938	39.540642
631.348314	39.392030
631.773668	39.230903
632.198999	39.049182
632.624308	38.852341
633.049595	38.643008
633.474860	38.423425
633.900102	38.193540
634.325322	37.967170
634.750520	37.749980
635.175695	37.543976
635.600848	37.358885
636.025978	37.200657
636.451086	37.070534
636.876171	36.973486
637.301234	36.901546
637.726275	36.870405
638.151293	36.875828
638.576288	36.908395
639.001261	36.973890
639.426211	37.070512
639.851139	37.182700
640.276044	37.311045
640.700927	37.450195
641.125787	37.600894
641.550624	37.752393
641.975438	37.899032
642.400230	38.047152
642.824999	38.190645
643.249745	38.325045
643.674469	38.462566
644.099169	38.592706
644.523847	38.719622
644.948502	38.850723
645.373135	38.981927
645.797744	39.116157
646.222330	39.251484
646.646894	39.392893
647.071435	39.536350
647.495953	39.682509
647.920447	39.822648
648.344919	39.963628
648.769368	40.092685
649.193794	40.214340
649.618197	40.319827
650.042576	40.410591
650.466933	40.491652
650.891267	40.544190
651.315577	40.580514
651.739864	40.599930
652.164129	40.597250
652.588370	40.573996
653.012587	40.540798
653.436782	40.496678
653.860953	40.436216
654.285102	40.367827
654.709226	40.291787
655.133328	40.214928
655.557406	40.131976
655.981461	40.055213
656.405493	39.976852
656.829501	39.892889
657.253486	39.811739
657.677448	39.726096
658.101386	39.634111
658.525301	39.542809
658.949192	39.447912
659.373060	39.341354
659.796904	39.227679
660.220725	39.108428
660.644522	38.976586
661.068296	38.841586
661.492046	38.704556
661.915772	38.570277
662.339475	38.438887
662.763154	38.323571
663.186810	38.220825
663.610442	38.132396
664.034050	38.071895
664.457635	38.037629
664.881196	38.033510
665.304733	38.064444
665.728247	38.127246
666.151736	38.225818
666.575202	38.354058
666.998644	38.515593
667.422062	38.704303
667.845457	38.915577
668.268827	39.144231
668.692174	39.393262
669.115496	39.646830
669.538795	39.902824
669.962070	40.156332
670.385321	40.401771
670.808547	40.632746
671.231750	40.850391
671.654929	41.045206
672.078084	41.213331
672.501214	41.359960
672.924321	41.480960
673.347404	41.583062
673.770462	41.670691
674.193496	41.737621
674.616506	41.782541
675.039492	41.815531
675.462454	41.833264
675.885391	41.833025
676.308305	41.821440
676.731194	41.809493
677.154058	41.791159
677.576899	41.763171
677.999715	41.734559
678.422507	41.705923
678.845274	41.671635
679.268017	41.633486
679.690736	41.594706
680.113430	41.550687
680.536100	41.508255
680.958746	41.465502
681.381367	41.423078
681.803963	41.372008
682.226535	41.319803
682.649083	41.270616
683.071605	41.222654
683.494104	41.178169
683.916578	41.140699
684.339027	41.107818
684.761451	41.078791
685.183851	41.054907
685.606227	41.040745
686.028577	41.027164
686.450903	41.006983
686.873204	40.983753
687.295481	40.961488
687.717733	40.936051
688.139959	40.894138
688.562162	40.839151
688.984339	40.773169
689.406492	40.691558
689.828619	40.591179
690.250722	40.468603
690.672800	40.336792
691.094853	40.187592
691.516881	40.009855
691.938884	39.822528
692.360863	39.626583
692.782816	39.420554
693.204744	39.215603
693.626647	39.007495
694.048526	38.806403
694.470379	38.616627
694.892207	38.441771
695.314010	38.291317
695.735788	38.166135
696.157540	38.067965
696.579268	37.999935
697.000970	37.963580
697.422648	37.956657
697.844300	37.983081
698.265926	38.042478
698.687528	38.123881
699.109104	38.233737
699.530655	38.369440
699.952181	38.523833
