Time1=100ms:Average1=5:Objective=10X:Aperture=1: (11/28/2018 10:37:27 AM)
11/28/2018 10:37:27 AM
Reflectance
10X
Ap#: 1
Avg1: 5.000000
Avg2: 0.000000
Int.Time1:100.000000

420.190645	8.508139
420.624620	8.397688
421.058582	8.317957
421.492531	8.228693
421.926468	8.153015
422.360391	8.085884
422.794301	8.037641
423.228199	8.008464
423.662083	7.988336
424.095955	7.982503
424.529813	7.975753
424.963658	7.994569
425.397491	7.989587
425.831310	7.995903
426.265116	8.003517
426.698909	8.008144
427.132689	8.028870
427.566455	8.059742
428.000209	8.083498
428.433949	8.105915
428.867676	8.143900
429.301389	8.177048
429.735090	8.238848
430.168777	8.285519
430.602451	8.321602
431.036111	8.338529
431.469759	8.373859
431.903392	8.401509
432.337013	8.431642
432.770620	8.470848
433.204213	8.518052
433.637794	8.574925
434.071360	8.650567
434.504914	8.726184
434.938453	8.817182
435.371979	8.901895
435.805492	8.996549
436.238991	9.088119
436.672477	9.183640
437.105949	9.280902
437.539407	9.369269
437.972852	9.456653
438.406283	9.530179
438.839700	9.620942
439.273104	9.715306
439.706494	9.813063
440.139871	9.922257
440.573233	10.023326
441.006582	10.127280
441.439917	10.237957
441.873238	10.331213
442.306546	10.418645
442.739839	10.509777
443.173119	10.576208
443.606385	10.651515
444.039636	10.721501
444.472874	10.804091
444.906099	10.881053
445.339309	10.974209
445.772505	11.077829
446.205687	11.190009
446.638855	11.301242
447.072009	11.421033
447.505149	11.544071
447.938275	11.664444
448.371387	11.788866
448.804485	11.907738
449.237569	12.020417
449.670638	12.127591
450.103694	12.220095
450.536735	12.302352
450.969762	12.388210
451.402774	12.481082
451.835773	12.582120
452.268757	12.682622
452.701727	12.785954
453.134683	12.892076
453.567624	13.003469
454.000551	13.115873
454.433464	13.221764
454.866362	13.310736
455.299246	13.402507
455.732116	13.485049
456.164971	13.569529
456.597811	13.647958
457.030638	13.731589
457.463449	13.817391
457.896246	13.910119
458.329029	14.002134
458.761797	14.090643
459.194551	14.179255
459.627290	14.271989
460.060014	14.368251
460.492724	14.469488
460.925419	14.569298
461.358099	14.672774
461.790765	14.772082
462.223416	14.868297
462.656052	14.960605
463.088674	15.046969
463.521281	15.135423
463.953873	15.223090
464.386450	15.316637
464.819012	15.411243
465.251560	15.503010
465.684093	15.601959
466.116611	15.711538
466.549114	15.818763
466.981602	15.917702
467.414075	16.024610
467.846533	16.129902
468.278977	16.238591
468.711405	16.340368
469.143818	16.436263
469.576216	16.520407
470.008600	16.611815
470.440968	16.692053
470.873321	16.769085
471.305659	16.840008
471.737982	16.912382
472.170289	16.981853
472.602582	17.051160
473.034859	17.114413
473.467122	17.189324
473.899369	17.261284
474.331600	17.334125
474.763817	17.414549
475.196018	17.497867
475.628204	17.601608
476.060375	17.707297
476.492530	17.821484
476.924670	17.931427
477.356795	18.036292
477.788904	18.126016
478.220998	18.214605
478.653076	18.297752
479.085139	18.371670
479.517186	18.438707
479.949219	18.510457
480.381235	18.589504
480.813236	18.669589
481.245221	18.759425
481.677191	18.859318
482.109146	18.963906
482.541084	19.071429
482.973008	19.176438
483.404915	19.271603
483.836807	19.358297
484.268683	19.440989
484.700544	19.510519
485.132388	19.565844
485.564217	19.609921
485.996031	19.645803
486.427828	19.670694
486.859610	19.683857
487.291376	19.692426
487.723126	19.704834
488.154860	19.708073
488.586579	19.719647
489.018281	19.727316
489.449968	19.743336
489.881639	19.769717
490.313293	19.809488
490.744932	19.858375
491.176555	19.915669
491.608162	19.965457
492.039753	20.009261
492.471328	20.042794
492.902886	20.052154
493.334429	20.042704
493.765956	20.011905
494.197466	19.967776
494.628960	19.916753
495.060439	19.859347
495.491901	19.807012
495.923347	19.768676
496.354776	19.740955
496.786190	19.727559
497.217587	19.728031
497.648968	19.730420
498.080332	19.734974
498.511681	19.737415
498.943013	19.736906
499.374328	19.729886
499.805628	19.716573
500.236911	19.690366
500.668177	19.658546
501.099427	19.611613
501.530661	19.562793
501.961878	19.505488
502.393079	19.446809
502.824264	19.390159
503.255431	19.326687
503.686583	19.271782
504.117717	19.228372
504.548835	19.197986
504.979937	19.188035
505.411022	19.203624
505.842090	19.244750
506.273142	19.313646
506.704177	19.407740
507.135195	19.526644
507.566197	19.669059
507.997182	19.820160
508.428150	19.978119
508.859102	20.145104
509.290036	20.310810
509.720954	20.483738
510.151855	20.661767
510.582739	20.849358
511.013607	21.057888
511.444457	21.287146
511.875291	21.549387
512.306107	21.843573
512.736907	22.175928
513.167690	22.539791
513.598456	22.939173
514.029205	23.368063
514.459936	23.813665
514.890651	24.281405
515.321349	24.759628
515.752030	25.250500
516.182693	25.741490
516.613340	26.239921
517.043969	26.735465
517.474582	27.229565
517.905177	27.719198
518.335755	28.200208
518.766315	28.680832
519.196859	29.152945
519.627385	29.622757
520.057894	30.084887
520.488386	30.551134
520.918860	31.015331
521.349318	31.490430
521.779757	31.981055
522.210180	32.487946
522.640585	33.014483
523.070973	33.557573
523.501343	34.117807
523.931696	34.691902
524.362031	35.267803
524.792349	35.849231
525.222650	36.420836
525.652933	36.969747
526.083198	37.499493
526.513446	38.004345
526.943677	38.487645
527.373890	38.941434
527.804085	39.386199
528.234262	39.819758
528.664422	40.251019
529.094565	40.673449
529.524689	41.101838
529.954796	41.543913
530.384885	41.988979
530.814957	42.446949
531.245011	42.915453
531.675047	43.385858
532.105065	43.853125
532.535065	44.321527
532.965048	44.777156
533.395013	45.225357
533.824959	45.642166
534.254888	46.045218
534.684799	46.422381
535.114693	46.778772
535.544568	47.100620
535.974425	47.395153
536.404264	47.665312
536.834086	47.908789
537.263889	48.117123
537.693674	48.304296
538.123441	48.473854
538.553190	48.631952
538.982921	48.788266
539.412634	48.935782
539.842329	49.092221
540.272006	49.253351
540.701664	49.415599
541.131304	49.590238
541.560926	49.767535
541.990530	49.954756
542.420116	50.149271
542.849683	50.338633
543.279232	50.513100
543.708763	50.685697
544.138275	50.844094
544.567769	50.986838
544.997245	51.110595
545.426702	51.218307
545.856141	51.314741
546.285562	51.406525
546.714964	51.480047
547.144347	51.567024
547.573713	51.651544
548.003059	51.749663
548.432387	51.863592
548.861697	51.979580
549.290988	52.110261
549.720260	52.250331
550.149514	52.408040
550.578750	52.590463
551.007966	52.783286
551.437164	52.984035
551.866344	53.192950
552.295504	53.402654
552.724646	53.607394
553.153769	53.807407
553.582874	53.991105
554.011960	54.166793
554.441027	54.318442
554.870075	54.453011
555.299104	54.564785
555.728115	54.650738
556.157106	54.722429
556.586079	54.782402
557.015033	54.825593
557.443968	54.860093
557.872884	54.897564
558.301781	54.945519
558.730659	54.990217
559.159518	55.040114
559.588358	55.095466
560.017180	55.173864
560.445982	55.261345
560.874765	55.357539
561.303528	55.458231
561.732273	55.558612
562.160999	55.674472
562.589705	55.794243
563.018393	55.914242
563.447061	56.035270
563.875710	56.143109
564.304340	56.254650
564.732950	56.368164
565.161542	56.463077
565.590114	56.561058
566.018666	56.654945
566.447200	56.739675
566.875714	56.824733
567.304208	56.907446
567.732684	56.980980
568.161140	57.052629
568.589576	57.125543
569.017993	57.204879
569.446391	57.280808
569.874769	57.367985
570.303128	57.456261
570.731467	57.548829
571.159787	57.632349
571.588087	57.720970
572.016368	57.822341
572.444629	57.921648
572.872870	58.027211
573.301092	58.119356
573.729294	58.193954
574.157476	58.266859
574.585639	58.312514
575.013782	58.346372
575.441906	58.359404
575.870009	58.335122
576.298093	58.292756
576.726157	58.221774
577.154202	58.139690
577.582226	58.039780
578.010231	57.925548
578.438216	57.805706
578.866181	57.676941
579.294126	57.549127
579.722051	57.429712
580.149957	57.309712
580.577842	57.193356
581.005707	57.089310
581.433553	56.986115
581.861378	56.884319
582.289184	56.789063
582.716969	56.696531
583.144734	56.609184
583.572479	56.529858
584.000205	56.449182
584.427910	56.380983
584.855594	56.303975
585.283259	56.229698
585.710904	56.156558
586.138528	56.082506
586.566132	56.011515
586.993716	55.949301
587.421280	55.880349
587.848823	55.824585
588.276346	55.764992
588.703849	55.697165
589.131332	55.640416
589.558794	55.576072
589.986236	55.516500
590.413657	55.445545
590.841058	55.366086
591.268438	55.286340
591.695799	55.211020
592.123138	55.136709
592.550458	55.056877
592.977756	54.978239
593.405034	54.903397
593.832292	54.840727
594.259529	54.782416
594.686746	54.735601
595.113942	54.695771
595.541117	54.659984
595.968272	54.626324
596.395406	54.579466
596.822519	54.530164
597.249612	54.468299
597.676684	54.394000
598.103735	54.299878
598.530766	54.185625
598.957775	54.052313
599.384764	53.890156
599.811733	53.711338
600.238680	53.510249
600.665606	53.286459
601.092512	53.049947
601.519397	52.790388
601.946261	52.529518
602.373104	52.259889
602.799926	51.985533
603.226727	51.695516
603.653507	51.407865
604.080266	51.119054
604.507004	50.815185
604.933721	50.502738
605.360417	50.182918
605.787092	49.852683
606.213746	49.515399
606.640379	49.163714
607.066991	48.798778
607.493581	48.431579
607.920150	48.047499
608.346699	47.655436
608.773226	47.255511
609.199731	46.860060
609.626216	46.470981
610.052679	46.075947
610.479121	45.697972
610.905542	45.317088
611.331941	44.953221
611.758319	44.589561
612.184676	44.235507
612.611011	43.887893
613.037325	43.547459
613.463617	43.215504
613.889888	42.882389
614.316138	42.547711
614.742366	42.226498
615.168573	41.906107
615.594758	41.589103
616.020921	41.283513
616.447063	40.992250
616.873184	40.714849
617.299283	40.448814
617.725360	40.209163
618.151416	39.989407
618.577450	39.791942
619.003462	39.625553
619.429453	39.478274
619.855422	39.364805
620.281369	39.273172
620.707295	39.202708
621.133199	39.161681
621.559081	39.138870
621.984941	39.129607
622.410779	39.130773
622.836596	39.136144
623.262391	39.151824
623.688163	39.165153
624.113914	39.185076
624.539644	39.209152
624.965351	39.237916
625.391036	39.266924
625.816699	39.296621
626.242340	39.334276
626.667960	39.377255
627.093557	39.432951
627.519132	39.499324
627.944685	39.572520
628.370216	39.660486
628.795725	39.758569
629.221212	39.857078
629.646677	39.963308
630.072119	40.068937
630.497540	40.178928
630.922938	40.285474
631.348314	40.389778
631.773668	40.483096
632.198999	40.565635
632.624308	40.643127
633.049595	40.709231
633.474860	40.764310
633.900102	40.814501
634.325322	40.854227
634.750520	40.890307
635.175695	40.927614
635.600848	40.963248
636.025978	41.003458
636.451086	41.050521
636.876171	41.100903
637.301234	41.158345
637.726275	41.216064
638.151293	41.280507
638.576288	41.352283
639.001261	41.433367
639.426211	41.515545
639.851139	41.592775
640.276044	41.675439
640.700927	41.754863
641.125787	41.831465
641.550624	41.894145
641.975438	41.949667
642.400230	41.999520
642.824999	42.037005
643.249745	42.070540
643.674469	42.095774
644.099169	42.113560
644.523847	42.125592
644.948502	42.137691
645.373135	42.155126
645.797744	42.169283
646.222330	42.183844
646.646894	42.205161
647.071435	42.227431
647.495953	42.248971
647.920447	42.276326
648.344919	42.302264
648.769368	42.329394
649.193794	42.353551
649.618197	42.375530
650.042576	42.395397
650.466933	42.417608
650.891267	42.435858
651.315577	42.449540
651.739864	42.464609
652.164129	42.475654
652.588370	42.483732
653.012587	42.488413
653.436782	42.484780
653.860953	42.487314
654.285102	42.487930
654.709226	42.488442
655.133328	42.492012
655.557406	42.501461
655.981461	42.513854
656.405493	42.531287
656.829501	42.544138
657.253486	42.552126
657.677448	42.558879
658.101386	42.566031
658.525301	42.561301
658.949192	42.549338
659.373060	42.532798
659.796904	42.502991
660.220725	42.463182
660.644522	42.419545
661.068296	42.362747
661.492046	42.296986
661.915772	42.227070
662.339475	42.155671
662.763154	42.081657
663.186810	42.009848
663.610442	41.937601
664.034050	41.872642
664.457635	41.817922
664.881196	41.768461
665.304733	41.728266
665.728247	41.704033
666.151736	41.693349
666.575202	41.699922
666.998644	41.714014
667.422062	41.742796
667.845457	41.782342
668.268827	41.830441
668.692174	41.880096
669.115496	41.936058
669.538795	41.985677
669.962070	42.043455
670.385321	42.104345
670.808547	42.157303
671.231750	42.201714
671.654929	42.239917
672.078084	42.273439
672.501214	42.292424
672.924321	42.306100
673.347404	42.316473
673.770462	42.320367
674.193496	42.324381
674.616506	42.325573
675.039492	42.323810
675.462454	42.319510
675.885391	42.312822
676.308305	42.312247
676.731194	42.318138
677.154058	42.328904
677.576899	42.342846
677.999715	42.363339
678.422507	42.391001
678.845274	42.421774
679.268017	42.466611
679.690736	42.505318
680.113430	42.551274
680.536100	42.597105
680.958746	42.649133
681.381367	42.698068
681.803963	42.751970
682.226535	42.806109
682.649083	42.866943
683.071605	42.927812
683.494104	42.984885
683.916578	43.051857
684.339027	43.123813
684.761451	43.202643
685.183851	43.283866
685.606227	43.366892
686.028577	43.453445
686.450903	43.542280
686.873204	43.628326
687.295481	43.709577
687.717733	43.791922
688.139959	43.872289
688.562162	43.947777
688.984339	44.017946
689.406492	44.078071
689.828619	44.126313
690.250722	44.160726
690.672800	44.183990
691.094853	44.190802
691.516881	44.193901
691.938884	44.179625
692.360863	44.148610
692.782816	44.118937
693.204744	44.078805
693.626647	44.035839
694.048526	43.989034
694.470379	43.948089
694.892207	43.911394
695.314010	43.883018
695.735788	43.863831
696.157540	43.856728
696.579268	43.862974
697.000970	43.883257
697.422648	43.918151
697.844300	43.962589
698.265926	44.023627
698.687528	44.107603
699.109104	44.208630
699.530655	44.315195
699.952181	44.439421
