PE UV       SUBTECH     SPECTRUM    ASCII       PEDS        4.00        
   -1
CICIMAUCR0004-3.Sample.ASC
24/05/03
16:17:29.00
24/05/03
16:17:29.00
Vinicio Soto Monge
C. kalinini
250,000000
1
Lambda 1050
1050L1511233
PerkinElmer UV WinLab 6.3.2.0749 / 2.02.05 Lambda 900 UV/VIS/NIR, Aug  7 2015 09:38:08

0
0
3350/servo 860,8/2
0
0
UV/VIS
1
1
1
DoubleDePol,CommonBeamDepol,RBeamAtt,SBeamAtt,60mm sphere, WB InGaAs Detector
0
0
0
0
Program
Program
3350/servo 860,8/2
3350/0,2 860,8/0,2
3350/0,2 860,8/0,2
0
15.00
 
 
 
0
 
860,8
319,2
860,8
Front
100
on
S:100 R:100
0
0
0
0
 
0
 
 
 
0
 
 
0
0
0
0
0
 
 
 
 
0
0


0
0
#HDR
-1
-1
#GR
nm
%R
1.0
0.0
2500,000000
-1,000000
2251
8
98,738200
4,896700
#DATA
250.000000	0.069072
251.000000	0.095341
252.000000	0.063084
253.000000	0.040244
254.000000	0.050852
255.000000	0.062678
256.000000	0.062105
257.000000	0.076456
258.000000	0.097823
259.000000	0.099426
260.000000	0.077763
261.000000	0.087227
262.000000	0.076022
263.000000	0.045872
264.000000	0.067873
265.000000	0.079488
266.000000	0.100299
267.000000	0.086764
268.000000	0.088795
269.000000	0.067004
270.000000	0.054324
271.000000	0.099968
272.000000	0.099769
273.000000	0.101163
274.000000	0.076701
275.000000	0.082501
276.000000	0.067637
277.000000	0.062203
278.000000	0.079938
279.000000	0.074071
280.000000	0.075331
281.000000	0.063959
282.000000	0.085943
283.000000	0.085070
284.000000	0.087638
285.000000	0.088824
286.000000	0.107986
287.000000	0.116365
288.000000	0.086838
289.000000	0.079200
290.000000	0.103709
291.000000	0.102597
292.000000	0.123585
293.000000	0.087748
294.000000	0.099010
295.000000	0.077345
296.000000	0.104151
297.000000	0.106906
298.000000	0.099934
299.000000	0.096174
300.000000	0.084492
301.000000	0.084846
302.000000	0.101546
303.000000	0.099453
304.000000	0.114666
305.000000	0.121976
306.000000	0.077767
307.000000	0.081905
308.000000	0.104770
309.000000	0.114974
310.000000	0.105561
311.000000	0.088006
312.000000	0.126144
313.000000	0.110574
314.000000	0.097731
315.000000	0.130034
316.000000	0.101869
317.000000	0.269620
318.000000	0.497109
319.000000	0.771538
320.000000	0.537040
321.000000	0.288257
322.000000	0.236785
323.000000	0.749579
324.000000	0.265159
325.000000	0.062077
326.000000	0.151842
327.000000	0.194102
328.000000	0.125732
329.000000	0.376392
330.000000	0.078853
331.000000	0.193897
332.000000	0.020607
333.000000	0.265459
334.000000	0.365946
335.000000	0.146133
336.000000	0.199710
337.000000	0.225138
338.000000	0.275098
339.000000	0.068225
340.000000	0.167310
341.000000	0.041894
342.000000	0.242355
343.000000	0.204304
344.000000	0.050839
345.000000	0.098944
346.000000	0.225049
347.000000	0.365827
348.000000	0.248047
349.000000	0.194495
350.000000	0.144952
351.000000	0.195590
352.000000	0.131345
353.000000	0.130332
354.000000	0.137644
355.000000	0.304418
356.000000	0.306752
357.000000	0.251560
358.000000	0.120292
359.000000	0.100781
360.000000	0.206556
361.000000	0.249063
362.000000	0.142023
363.000000	0.158109
364.000000	0.234997
365.000000	0.222384
366.000000	0.129420
367.000000	0.088626
368.000000	0.228875
369.000000	0.244184
370.000000	0.194911
371.000000	0.180344
372.000000	0.268943
373.000000	0.213059
374.000000	0.196159
375.000000	0.127256
376.000000	0.059363
377.000000	0.108055
378.000000	0.082247
379.000000	0.063258
380.000000	0.053068
381.000000	0.049908
382.000000	0.074144
383.000000	0.110880
384.000000	0.150571
385.000000	0.165830
386.000000	0.220041
387.000000	0.268263
388.000000	0.308763
389.000000	0.358311
390.000000	0.412798
391.000000	0.465637
392.000000	0.534411
393.000000	0.581377
394.000000	0.634276
395.000000	0.710397
396.000000	0.779025
397.000000	0.834445
398.000000	0.879647
399.000000	0.932569
400.000000	0.984127
401.000000	1.031547
402.000000	1.081082
403.000000	1.111888
404.000000	1.154057
405.000000	1.165912
406.000000	1.181723
407.000000	1.208219
408.000000	1.209008
409.000000	1.207483
410.000000	1.205109
411.000000	1.198377
412.000000	1.190135
413.000000	1.160188
414.000000	1.161237
415.000000	1.128988
416.000000	1.088463
417.000000	1.050329
418.000000	0.998514
419.000000	0.948370
420.000000	0.898929
421.000000	0.847033
422.000000	0.796016
423.000000	0.733255
424.000000	0.663205
425.000000	0.595172
426.000000	0.527975
427.000000	0.461742
428.000000	0.390764
429.000000	0.323614
430.000000	0.269461
431.000000	0.209660
432.000000	0.135340
433.000000	0.073857
434.000000	0.066600
435.000000	0.113735
436.000000	0.168668
437.000000	0.234957
438.000000	0.310339
439.000000	0.392732
440.000000	0.458593
441.000000	0.532438
442.000000	0.600291
443.000000	0.658653
444.000000	0.720303
445.000000	0.792549
446.000000	0.872892
447.000000	0.937877
448.000000	0.982045
449.000000	1.035122
450.000000	1.069918
451.000000	1.113749
452.000000	1.156731
453.000000	1.169179
454.000000	1.172913
455.000000	1.154074
456.000000	1.152564
457.000000	1.113354
458.000000	1.066347
459.000000	1.025160
460.000000	0.954423
461.000000	0.874431
462.000000	0.779616
463.000000	0.687951
464.000000	0.587764
465.000000	0.488210
466.000000	0.398440
467.000000	0.350472
468.000000	0.350949
469.000000	0.404105
470.000000	0.485039
471.000000	0.577252
472.000000	0.700622
473.000000	0.842937
474.000000	0.976231
475.000000	1.097075
476.000000	1.219398
477.000000	1.336064
478.000000	1.468637
479.000000	1.581479
480.000000	1.684545
481.000000	1.775631
482.000000	1.872645
483.000000	1.961616
484.000000	2.048430
485.000000	2.123839
486.000000	2.187752
487.000000	2.252707
488.000000	2.311817
489.000000	2.360821
490.000000	2.394629
491.000000	2.438593
492.000000	2.480983
493.000000	2.537970
494.000000	2.567275
495.000000	2.594694
496.000000	2.647134
497.000000	2.678584
498.000000	2.715473
499.000000	2.755779
500.000000	2.814687
501.000000	2.871119
502.000000	2.926825
503.000000	2.979866
504.000000	3.027400
505.000000	3.091013
506.000000	3.138539
507.000000	3.221789
508.000000	3.286120
509.000000	3.337574
510.000000	3.391166
511.000000	3.460413
512.000000	3.514257
513.000000	3.561560
514.000000	3.615799
515.000000	3.679168
516.000000	3.725510
517.000000	3.757514
518.000000	3.777835
519.000000	3.814366
520.000000	3.849497
521.000000	3.864566
522.000000	3.873843
523.000000	3.887451
524.000000	3.913428
525.000000	3.909944
526.000000	3.912374
527.000000	3.897677
528.000000	3.871491
529.000000	3.853939
530.000000	3.826495
531.000000	3.783801
532.000000	3.760277
533.000000	3.701570
534.000000	3.669173
535.000000	3.607468
536.000000	3.551440
537.000000	3.480696
538.000000	3.434598
539.000000	3.390183
540.000000	3.326201
541.000000	3.263385
542.000000	3.188513
543.000000	3.120083
544.000000	3.044671
545.000000	2.969957
546.000000	2.897853
547.000000	2.812522
548.000000	2.725444
549.000000	2.636428
550.000000	2.539868
551.000000	2.410008
552.000000	2.289094
553.000000	2.190704
554.000000	2.056924
555.000000	1.953266
556.000000	1.834472
557.000000	1.738184
558.000000	1.634109
559.000000	1.540973
560.000000	1.400528
561.000000	1.319754
562.000000	1.211108
563.000000	1.174431
564.000000	1.156618
565.000000	1.106039
566.000000	1.041852
567.000000	0.990961
568.000000	0.984676
569.000000	0.919139
570.000000	0.915269
571.000000	0.856244
572.000000	0.871865
573.000000	0.820967
574.000000	0.812149
575.000000	0.781258
576.000000	0.810252
577.000000	0.809073
578.000000	0.854956
579.000000	0.934343
580.000000	0.983282
581.000000	1.022613
582.000000	1.076965
583.000000	1.140479
584.000000	1.209443
585.000000	1.282229
586.000000	1.300957
587.000000	1.400881
588.000000	1.457136
589.000000	1.495964
590.000000	1.563340
591.000000	1.631424
592.000000	1.639652
593.000000	1.711398
594.000000	1.755967
595.000000	1.831138
596.000000	1.863118
597.000000	1.927995
598.000000	1.979649
599.000000	2.014103
600.000000	2.085454
601.000000	2.134095
602.000000	2.192670
603.000000	2.240247
604.000000	2.320331
605.000000	2.392968
606.000000	2.505247
607.000000	2.578438
608.000000	2.640314
609.000000	2.725146
610.000000	2.832154
611.000000	2.878779
612.000000	2.990904
613.000000	3.048242
614.000000	3.099999
615.000000	3.163320
616.000000	3.207438
617.000000	3.282367
618.000000	3.314129
619.000000	3.277280
620.000000	3.269562
621.000000	3.252176
622.000000	3.182786
623.000000	3.109820
624.000000	3.032569
625.000000	2.889060
626.000000	2.795613
627.000000	2.636194
628.000000	2.534226
629.000000	2.413122
630.000000	2.283621
631.000000	2.166783
632.000000	2.047844
633.000000	1.949348
634.000000	1.829067
635.000000	1.757376
636.000000	1.649524
637.000000	1.556237
638.000000	1.496931
639.000000	1.435744
640.000000	1.391762
641.000000	1.343966
642.000000	1.306428
643.000000	1.259342
644.000000	1.184482
645.000000	1.147882
646.000000	1.121532
647.000000	1.088021
648.000000	1.030779
649.000000	1.015953
650.000000	0.956436
651.000000	0.902494
652.000000	0.866512
653.000000	0.854138
654.000000	0.809333
655.000000	0.797617
656.000000	0.758675
657.000000	0.718920
658.000000	0.654997
659.000000	0.586211
660.000000	0.561493
661.000000	0.434326
662.000000	0.331368
663.000000	0.283760
664.000000	0.226240
665.000000	0.218871
666.000000	0.241235
667.000000	0.331686
668.000000	0.407998
669.000000	0.498598
670.000000	0.603262
671.000000	0.718006
672.000000	0.803272
673.000000	0.882092
674.000000	0.979174
675.000000	1.045423
676.000000	1.129972
677.000000	1.222547
678.000000	1.299388
679.000000	1.416684
680.000000	1.463230
681.000000	1.492605
682.000000	1.593582
683.000000	1.675383
684.000000	1.727111
685.000000	1.809365
686.000000	1.881731
687.000000	1.929707
688.000000	2.000775
689.000000	2.014896
690.000000	2.092537
691.000000	2.161223
692.000000	2.194952
693.000000	2.266543
694.000000	2.266441
695.000000	2.284311
696.000000	2.361968
697.000000	2.462733
698.000000	2.532611
699.000000	2.559391
700.000000	2.632516
701.000000	2.661993
702.000000	2.708648
703.000000	2.746458
704.000000	2.778682
705.000000	2.780397
706.000000	2.814325
707.000000	2.869813
708.000000	2.893363
709.000000	2.880358
710.000000	2.891853
711.000000	2.901314
712.000000	2.914611
713.000000	2.877659
714.000000	2.749266
715.000000	2.693335
716.000000	2.603658
717.000000	2.488330
718.000000	2.375527
719.000000	2.232010
720.000000	2.104285
721.000000	2.034622
722.000000	1.873133
723.000000	1.673746
724.000000	1.567363
725.000000	1.459800
726.000000	1.306321
727.000000	1.179814
728.000000	1.081176
729.000000	1.023543
730.000000	0.895132
731.000000	0.800438
732.000000	0.776128
733.000000	0.709214
734.000000	0.618978
735.000000	0.571893
736.000000	0.605679
737.000000	0.580887
738.000000	0.534009
739.000000	0.549930
740.000000	0.542722
741.000000	0.496760
742.000000	0.481885
743.000000	0.535796
744.000000	0.537411
745.000000	0.546517
746.000000	0.555669
747.000000	0.590266
748.000000	0.591284
749.000000	0.581105
750.000000	0.629720
751.000000	0.644935
752.000000	0.632899
753.000000	0.629433
754.000000	0.641926
755.000000	0.638588
756.000000	0.703023
757.000000	0.741333
758.000000	0.675912
759.000000	0.661350
760.000000	0.662657
761.000000	0.720052
762.000000	0.714654
763.000000	0.661950
764.000000	0.685520
765.000000	0.678370
766.000000	0.707530
767.000000	0.766527
768.000000	0.819738
769.000000	0.818672
770.000000	0.774963
771.000000	0.781766
772.000000	0.775111
773.000000	0.765125
774.000000	0.752873
775.000000	0.751055
776.000000	0.785592
777.000000	0.743039
778.000000	0.779311
779.000000	0.807637
780.000000	0.842274
781.000000	0.803997
782.000000	0.709851
783.000000	0.774214
784.000000	0.779714
785.000000	0.768079
786.000000	0.764477
787.000000	0.729424
788.000000	0.716090
789.000000	0.693679
790.000000	0.638589
791.000000	0.642056
792.000000	0.668864
793.000000	0.752096
794.000000	0.658086
795.000000	0.714390
796.000000	0.727308
797.000000	0.711590
798.000000	0.681553
799.000000	0.727241
800.000000	0.776662
801.000000	0.745765
802.000000	0.885277
803.000000	0.889627
804.000000	0.854234
805.000000	0.907077
806.000000	0.795433
807.000000	0.875602
808.000000	1.026472
809.000000	1.040764
810.000000	0.985986
811.000000	1.018941
812.000000	0.993698
813.000000	1.073605
814.000000	1.019886
815.000000	1.146091
816.000000	1.201314
817.000000	1.144157
818.000000	1.067993
819.000000	1.058527
820.000000	1.172471
821.000000	1.368447
822.000000	1.306722
823.000000	1.211702
824.000000	1.207656
825.000000	1.178699
826.000000	1.323021
827.000000	1.304694
828.000000	1.301968
829.000000	1.325267
830.000000	1.463216
831.000000	1.401965
832.000000	1.321761
833.000000	1.368380
834.000000	1.534949
835.000000	1.456186
836.000000	1.552520
837.000000	1.549380
838.000000	1.601064
839.000000	1.537101
840.000000	1.494559
841.000000	1.651815
842.000000	1.640503
843.000000	1.402514
844.000000	1.469587
845.000000	1.630978
846.000000	1.647116
847.000000	1.715914
848.000000	1.875376
849.000000	1.753540
850.000000	1.890385
851.000000	1.670933
852.000000	1.971483
853.000000	2.111497
854.000000	1.834035
855.000000	2.306955
856.000000	2.076796
857.000000	2.176742
858.000000	2.216424
859.000000	2.162911
860.000000	2.169830
861.000000	2.206071
862.000000	2.225680
863.000000	2.253329
864.000000	2.266186
865.000000	2.305217
866.000000	2.326273
867.000000	2.332856
868.000000	2.343172
869.000000	2.358757
870.000000	2.357001
871.000000	2.379700
872.000000	2.438366
873.000000	2.498688
874.000000	2.574791
875.000000	2.628115
876.000000	2.561163
877.000000	2.565821
878.000000	2.614931
879.000000	2.727342
880.000000	2.702161
881.000000	2.742110
882.000000	2.742816
883.000000	2.773193
884.000000	2.769257
885.000000	2.816686
886.000000	2.815831
887.000000	2.869091
888.000000	2.858588
889.000000	2.846927
890.000000	2.806298
891.000000	2.859749
892.000000	2.861213
893.000000	2.918274
894.000000	2.908888
895.000000	2.900196
896.000000	2.906286
897.000000	2.930604
898.000000	2.945770
899.000000	2.971904
900.000000	2.988197
901.000000	3.000195
902.000000	3.002543
903.000000	3.004202
904.000000	2.994851
905.000000	3.031126
906.000000	3.025569
907.000000	3.002066
908.000000	2.984052
909.000000	2.989887
910.000000	2.978983
911.000000	2.953239
912.000000	2.945042
913.000000	2.933072
914.000000	2.911749
915.000000	2.911962
916.000000	2.897855
917.000000	2.886426
918.000000	2.882294
919.000000	2.848872
920.000000	2.879632
921.000000	2.846254
922.000000	2.822315
923.000000	2.814836
924.000000	2.813222
925.000000	2.798156
926.000000	2.799934
927.000000	2.796065
928.000000	2.782917
929.000000	2.773559
930.000000	2.769179
931.000000	2.792384
932.000000	2.768481
933.000000	2.769239
934.000000	2.761331
935.000000	2.759755
936.000000	2.746680
937.000000	2.743907
938.000000	2.744410
939.000000	2.748896
940.000000	2.738356
941.000000	2.717491
942.000000	2.712650
943.000000	2.690261
944.000000	2.682506
945.000000	2.661219
946.000000	2.646254
947.000000	2.632670
948.000000	2.621900
949.000000	2.613690
950.000000	2.612925
951.000000	2.596522
952.000000	2.601463
953.000000	2.588332
954.000000	2.587968
955.000000	2.584764
956.000000	2.561921
957.000000	2.556624
958.000000	2.555242
959.000000	2.537721
960.000000	2.527824
961.000000	2.527923
962.000000	2.514218
963.000000	2.496643
964.000000	2.487781
965.000000	2.470955
966.000000	2.441185
967.000000	2.415557
968.000000	2.372489
969.000000	2.358971
970.000000	2.354890
971.000000	2.325779
972.000000	2.284245
973.000000	2.256410
974.000000	2.236903
975.000000	2.194887
976.000000	2.167015
977.000000	2.133613
978.000000	2.105911
979.000000	2.070562
980.000000	2.040827
981.000000	2.020801
982.000000	1.975829
983.000000	1.943067
984.000000	1.923847
985.000000	1.905029
986.000000	1.873927
987.000000	1.840494
988.000000	1.828520
989.000000	1.812418
990.000000	1.774483
991.000000	1.748749
992.000000	1.728326
993.000000	1.709620
994.000000	1.686755
995.000000	1.667260
996.000000	1.647818
997.000000	1.637711
998.000000	1.635337
999.000000	1.616173
1000.000000	1.597983
1001.000000	1.584278
1002.000000	1.568470
1003.000000	1.564587
1004.000000	1.553305
1005.000000	1.542333
1006.000000	1.529027
1007.000000	1.514879
1008.000000	1.505570
1009.000000	1.498707
1010.000000	1.495795
1011.000000	1.486887
1012.000000	1.483330
1013.000000	1.464878
1014.000000	1.457779
1015.000000	1.459406
1016.000000	1.442973
1017.000000	1.432178
1018.000000	1.415220
1019.000000	1.399726
1020.000000	1.391865
1021.000000	1.375026
1022.000000	1.349415
1023.000000	1.325824
1024.000000	1.316696
1025.000000	1.303408
1026.000000	1.284622
1027.000000	1.268781
1028.000000	1.245798
1029.000000	1.221385
1030.000000	1.193719
1031.000000	1.173798
1032.000000	1.156095
1033.000000	1.142261
1034.000000	1.129519
1035.000000	1.105496
1036.000000	1.098255
1037.000000	1.094066
1038.000000	1.074710
1039.000000	1.054772
1040.000000	1.046009
1041.000000	1.032994
1042.000000	1.023260
1043.000000	1.020787
1044.000000	1.011583
1045.000000	1.010247
1046.000000	1.007494
1047.000000	0.997966
1048.000000	0.996008
1049.000000	0.992387
1050.000000	0.994838
1051.000000	0.986209
1052.000000	0.998040
1053.000000	1.010374
1054.000000	1.002953
1055.000000	1.005806
1056.000000	1.009817
1057.000000	1.006423
1058.000000	1.008758
1059.000000	1.021839
1060.000000	1.028636
1061.000000	1.030521
1062.000000	1.041006
1063.000000	1.047304
1064.000000	1.065963
1065.000000	1.068185
1066.000000	1.075981
1067.000000	1.079091
1068.000000	1.086670
1069.000000	1.086689
1070.000000	1.090660
1071.000000	1.094194
1072.000000	1.084452
1073.000000	1.085413
1074.000000	1.085655
1075.000000	1.087783
1076.000000	1.081654
1077.000000	1.080027
1078.000000	1.075987
1079.000000	1.063727
1080.000000	1.058500
1081.000000	1.050216
1082.000000	1.047975
1083.000000	1.039480
1084.000000	1.023985
1085.000000	1.012730
1086.000000	0.997726
1087.000000	0.976806
1088.000000	0.967303
1089.000000	0.961904
1090.000000	0.939932
1091.000000	0.948466
1092.000000	0.934688
1093.000000	0.922016
1094.000000	0.904464
1095.000000	0.889535
1096.000000	0.885788
1097.000000	0.888847
1098.000000	0.882904
1099.000000	0.866112
1100.000000	0.855290
1101.000000	0.858760
1102.000000	0.849470
1103.000000	0.846353
1104.000000	0.843716
1105.000000	0.832024
1106.000000	0.849160
1107.000000	0.854567
1108.000000	0.843772
1109.000000	0.859107
1110.000000	0.857540
1111.000000	0.864916
1112.000000	0.857149
1113.000000	0.872897
1114.000000	0.871202
1115.000000	0.877138
1116.000000	0.889027
1117.000000	0.884171
1118.000000	0.892203
1119.000000	0.895593
1120.000000	0.896822
1121.000000	0.914753
1122.000000	0.914885
1123.000000	0.925909
1124.000000	0.935061
1125.000000	0.942089
1126.000000	0.958810
1127.000000	0.966735
1128.000000	0.976551
1129.000000	0.988954
1130.000000	0.979613
1131.000000	1.001837
1132.000000	1.031555
1133.000000	1.058800
1134.000000	1.078970
1135.000000	1.092943
1136.000000	1.124037
1137.000000	1.163646
1138.000000	1.208893
1139.000000	1.239550
1140.000000	1.286787
1141.000000	1.315951
1142.000000	1.348064
1143.000000	1.358747
1144.000000	1.392990
1145.000000	1.420660
1146.000000	1.437626
1147.000000	1.444839
1148.000000	1.458484
1149.000000	1.433974
1150.000000	1.419630
1151.000000	1.414070
1152.000000	1.393175
1153.000000	1.385070
1154.000000	1.365579
1155.000000	1.370299
1156.000000	1.367987
1157.000000	1.382632
1158.000000	1.408466
1159.000000	1.420133
1160.000000	1.447703
1161.000000	1.474343
1162.000000	1.513008
1163.000000	1.533600
1164.000000	1.582342
1165.000000	1.592312
1166.000000	1.634598
1167.000000	1.662395
1168.000000	1.694677
1169.000000	1.710924
1170.000000	1.737958
1171.000000	1.770051
1172.000000	1.791775
1173.000000	1.802848
1174.000000	1.840587
1175.000000	1.853538
1176.000000	1.857487
1177.000000	1.875885
1178.000000	1.886751
1179.000000	1.898098
1180.000000	1.917862
1181.000000	1.948780
1182.000000	1.969326
1183.000000	1.991194
1184.000000	2.022426
1185.000000	2.037102
1186.000000	2.049491
1187.000000	2.069666
1188.000000	2.068171
1189.000000	2.066789
1190.000000	2.062969
1191.000000	2.040967
1192.000000	2.023151
1193.000000	1.990035
1194.000000	1.971784
1195.000000	1.942284
1196.000000	1.915845
1197.000000	1.913115
1198.000000	1.910313
1199.000000	1.900730
1200.000000	1.890440
1201.000000	1.896072
1202.000000	1.899825
1203.000000	1.900684
1204.000000	1.908270
1205.000000	1.920368
1206.000000	1.938539
1207.000000	1.951578
1208.000000	1.968778
1209.000000	1.981239
1210.000000	1.983566
1211.000000	2.001616
1212.000000	2.006800
1213.000000	2.022795
1214.000000	2.030747
1215.000000	2.033083
1216.000000	2.038915
1217.000000	2.031722
1218.000000	2.040028
1219.000000	2.043603
1220.000000	2.047177
1221.000000	2.041138
1222.000000	2.034064
1223.000000	2.044266
1224.000000	2.041879
1225.000000	2.031817
1226.000000	2.024401
1227.000000	2.002168
1228.000000	1.998887
1229.000000	1.986944
1230.000000	1.972045
1231.000000	1.960622
1232.000000	1.943742
1233.000000	1.927007
1234.000000	1.905271
1235.000000	1.903857
1236.000000	1.891892
1237.000000	1.871946
1238.000000	1.854521
1239.000000	1.834752
1240.000000	1.812120
1241.000000	1.798945
1242.000000	1.778362
1243.000000	1.761994
1244.000000	1.741653
1245.000000	1.726548
1246.000000	1.713273
1247.000000	1.695241
1248.000000	1.680018
1249.000000	1.682579
1250.000000	1.671877
1251.000000	1.661458
1252.000000	1.650881
1253.000000	1.645087
1254.000000	1.632947
1255.000000	1.624834
1256.000000	1.612780
1257.000000	1.600571
1258.000000	1.596666
1259.000000	1.577184
1260.000000	1.571626
1261.000000	1.570034
1262.000000	1.559753
1263.000000	1.551273
1264.000000	1.545156
1265.000000	1.538102
1266.000000	1.530043
1267.000000	1.528424
1268.000000	1.512973
1269.000000	1.498272
1270.000000	1.494612
1271.000000	1.487326
1272.000000	1.476950
1273.000000	1.463395
1274.000000	1.456445
1275.000000	1.452891
1276.000000	1.436589
1277.000000	1.426877
1278.000000	1.420191
1279.000000	1.414139
1280.000000	1.401174
1281.000000	1.390918
1282.000000	1.388675
1283.000000	1.377214
1284.000000	1.362216
1285.000000	1.355985
1286.000000	1.356252
1287.000000	1.359460
1288.000000	1.346872
1289.000000	1.339150
1290.000000	1.342829
1291.000000	1.337985
1292.000000	1.336891
1293.000000	1.334464
1294.000000	1.337238
1295.000000	1.338139
1296.000000	1.329341
1297.000000	1.324780
1298.000000	1.320596
1299.000000	1.323142
1300.000000	1.331048
1301.000000	1.323681
1302.000000	1.313768
1303.000000	1.314033
1304.000000	1.310970
1305.000000	1.304480
1306.000000	1.300977
1307.000000	1.299051
1308.000000	1.300591
1309.000000	1.289969
1310.000000	1.281259
1311.000000	1.289157
1312.000000	1.291314
1313.000000	1.288613
1314.000000	1.288592
1315.000000	1.274949
1316.000000	1.276759
1317.000000	1.280492
1318.000000	1.282528
1319.000000	1.282837
1320.000000	1.283030
1321.000000	1.276276
1322.000000	1.269860
1323.000000	1.266590
1324.000000	1.268329
1325.000000	1.265406
1326.000000	1.260604
1327.000000	1.256498
1328.000000	1.248092
1329.000000	1.245296
1330.000000	1.252279
1331.000000	1.249979
1332.000000	1.254769
1333.000000	1.253193
1334.000000	1.255746
1335.000000	1.263486
1336.000000	1.272375
1337.000000	1.269636
1338.000000	1.273249
1339.000000	1.296815
1340.000000	1.302699
1341.000000	1.322093
1342.000000	1.343878
1343.000000	1.371008
1344.000000	1.398150
1345.000000	1.409446
1346.000000	1.445689
1347.000000	1.498022
1348.000000	1.525939
1349.000000	1.562732
1350.000000	1.604905
1351.000000	1.646155
1352.000000	1.687359
1353.000000	1.743889
1354.000000	1.808135
1355.000000	1.858442
1356.000000	1.899883
1357.000000	1.949373
1358.000000	1.963293
1359.000000	1.972889
1360.000000	2.004469
1361.000000	1.987002
1362.000000	1.966440
1363.000000	1.968309
1364.000000	1.982027
1365.000000	1.971181
1366.000000	1.977888
1367.000000	1.982907
1368.000000	1.993306
1369.000000	2.006725
1370.000000	2.021783
1371.000000	2.037747
1372.000000	2.043258
1373.000000	2.054476
1374.000000	2.088169
1375.000000	2.101557
1376.000000	2.118288
1377.000000	2.115351
1378.000000	2.105381
1379.000000	2.076047
1380.000000	2.045211
1381.000000	2.019753
1382.000000	1.967943
1383.000000	1.920416
1384.000000	1.873486
1385.000000	1.839859
1386.000000	1.821511
1387.000000	1.815940
1388.000000	1.810502
1389.000000	1.792800
1390.000000	1.765392
1391.000000	1.752587
1392.000000	1.732055
1393.000000	1.708464
1394.000000	1.696383
1395.000000	1.690831
1396.000000	1.641692
1397.000000	1.603606
1398.000000	1.590367
1399.000000	1.600523
1400.000000	1.586600
1401.000000	1.565361
1402.000000	1.556559
1403.000000	1.558422
1404.000000	1.545858
1405.000000	1.536677
1406.000000	1.527914
1407.000000	1.510029
1408.000000	1.530186
1409.000000	1.528267
1410.000000	1.515496
1411.000000	1.485989
1412.000000	1.485690
1413.000000	1.470060
1414.000000	1.464823
1415.000000	1.442068
1416.000000	1.420381
1417.000000	1.415201
1418.000000	1.416967
1419.000000	1.406997
1420.000000	1.394325
1421.000000	1.395504
1422.000000	1.398207
1423.000000	1.393711
1424.000000	1.415625
1425.000000	1.405040
1426.000000	1.404105
1427.000000	1.432091
1428.000000	1.422274
1429.000000	1.422674
1430.000000	1.420746
1431.000000	1.423143
1432.000000	1.427996
1433.000000	1.452449
1434.000000	1.437269
1435.000000	1.444236
1436.000000	1.440661
1437.000000	1.446312
1438.000000	1.447268
1439.000000	1.433808
1440.000000	1.448618
1441.000000	1.462055
1442.000000	1.468719
1443.000000	1.475591
1444.000000	1.476727
1445.000000	1.499041
1446.000000	1.524722
1447.000000	1.520489
1448.000000	1.532828
1449.000000	1.533723
1450.000000	1.557323
1451.000000	1.539456
1452.000000	1.547782
1453.000000	1.559614
1454.000000	1.579958
1455.000000	1.595774
1456.000000	1.598265
1457.000000	1.602617
1458.000000	1.594863
1459.000000	1.618247
1460.000000	1.628335
1461.000000	1.633218
1462.000000	1.649078
1463.000000	1.648976
1464.000000	1.670047
1465.000000	1.678347
1466.000000	1.683244
1467.000000	1.702267
1468.000000	1.711154
1469.000000	1.729061
1470.000000	1.736060
1471.000000	1.742248
1472.000000	1.751922
1473.000000	1.753712
1474.000000	1.767134
1475.000000	1.783019
1476.000000	1.796697
1477.000000	1.818895
1478.000000	1.807970
1479.000000	1.821696
1480.000000	1.841735
1481.000000	1.843387
1482.000000	1.845754
1483.000000	1.851078
1484.000000	1.859360
1485.000000	1.849292
1486.000000	1.871775
1487.000000	1.874561
1488.000000	1.879850
1489.000000	1.889952
1490.000000	1.888251
1491.000000	1.896404
1492.000000	1.905896
1493.000000	1.914924
1494.000000	1.919684
1495.000000	1.922685
1496.000000	1.923564
1497.000000	1.930112
1498.000000	1.934333
1499.000000	1.936010
1500.000000	1.940898
1501.000000	1.946802
1502.000000	1.968080
1503.000000	1.966266
1504.000000	1.963944
1505.000000	1.959495
1506.000000	1.965890
1507.000000	1.973334
1508.000000	1.979903
1509.000000	1.985278
1510.000000	1.986393
1511.000000	1.985953
1512.000000	1.996882
1513.000000	1.989673
1514.000000	1.998326
1515.000000	2.008944
1516.000000	2.021793
1517.000000	2.021272
1518.000000	2.018534
1519.000000	2.025115
1520.000000	2.035342
1521.000000	2.036185
1522.000000	2.037855
1523.000000	2.047151
1524.000000	2.051928
1525.000000	2.060900
1526.000000	2.066412
1527.000000	2.060279
1528.000000	2.065361
1529.000000	2.066994
1530.000000	2.080764
1531.000000	2.087576
1532.000000	2.090243
1533.000000	2.093032
1534.000000	2.094538
1535.000000	2.108345
1536.000000	2.121889
1537.000000	2.119481
1538.000000	2.129714
1539.000000	2.128242
1540.000000	2.128998
1541.000000	2.134397
1542.000000	2.137453
1543.000000	2.142314
1544.000000	2.151156
1545.000000	2.154814
1546.000000	2.160417
1547.000000	2.162061
1548.000000	2.166116
1549.000000	2.174823
1550.000000	2.182278
1551.000000	2.190019
1552.000000	2.198032
1553.000000	2.204842
1554.000000	2.209186
1555.000000	2.214898
1556.000000	2.223580
1557.000000	2.222708
1558.000000	2.218615
1559.000000	2.224513
1560.000000	2.229824
1561.000000	2.236028
1562.000000	2.246994
1563.000000	2.252934
1564.000000	2.257566
1565.000000	2.265884
1566.000000	2.276487
1567.000000	2.281859
1568.000000	2.282678
1569.000000	2.287604
1570.000000	2.297044
1571.000000	2.301501
1572.000000	2.303694
1573.000000	2.311353
1574.000000	2.319174
1575.000000	2.321507
1576.000000	2.326007
1577.000000	2.330493
1578.000000	2.326364
1579.000000	2.322063
1580.000000	2.331679
1581.000000	2.338318
1582.000000	2.333461
1583.000000	2.337879
1584.000000	2.346017
1585.000000	2.354053
1586.000000	2.353674
1587.000000	2.352392
1588.000000	2.347824
1589.000000	2.346999
1590.000000	2.344634
1591.000000	2.352321
1592.000000	2.350027
1593.000000	2.352903
1594.000000	2.354833
1595.000000	2.359605
1596.000000	2.363632
1597.000000	2.359884
1598.000000	2.355397
1599.000000	2.356150
1600.000000	2.356181
1601.000000	2.347594
1602.000000	2.349880
1603.000000	2.353335
1604.000000	2.345558
1605.000000	2.342363
1606.000000	2.345914
1607.000000	2.340933
1608.000000	2.333846
1609.000000	2.327446
1610.000000	2.328543
1611.000000	2.324376
1612.000000	2.325151
1613.000000	2.326620
1614.000000	2.325638
1615.000000	2.317593
1616.000000	2.310685
1617.000000	2.311043
1618.000000	2.308751
1619.000000	2.308123
1620.000000	2.313134
1621.000000	2.306874
1622.000000	2.310959
1623.000000	2.313130
1624.000000	2.301698
1625.000000	2.302989
1626.000000	2.303348
1627.000000	2.313069
1628.000000	2.304854
1629.000000	2.302474
1630.000000	2.305543
1631.000000	2.304797
1632.000000	2.302944
1633.000000	2.310101
1634.000000	2.315151
1635.000000	2.306529
1636.000000	2.304342
1637.000000	2.314802
1638.000000	2.317323
1639.000000	2.316109
1640.000000	2.313401
1641.000000	2.318526
1642.000000	2.324246
1643.000000	2.321467
1644.000000	2.313991
1645.000000	2.314399
1646.000000	2.324355
1647.000000	2.325096
1648.000000	2.316918
1649.000000	2.321399
1650.000000	2.327796
1651.000000	2.339694
1652.000000	2.338761
1653.000000	2.335574
1654.000000	2.336328
1655.000000	2.338625
1656.000000	2.340939
1657.000000	2.340169
1658.000000	2.342454
1659.000000	2.352944
1660.000000	2.348914
1661.000000	2.371703
1662.000000	2.368605
1663.000000	2.370987
1664.000000	2.368780
1665.000000	2.374523
1666.000000	2.376007
1667.000000	2.370584
1668.000000	2.383894
1669.000000	2.380156
1670.000000	2.375085
1671.000000	2.403514
1672.000000	2.384172
1673.000000	2.371694
1674.000000	2.378923
1675.000000	2.378795
1676.000000	2.357822
1677.000000	2.360313
1678.000000	2.361504
1679.000000	2.356473
1680.000000	2.362150
1681.000000	2.360514
1682.000000	2.369275
1683.000000	2.384554
1684.000000	2.373135
1685.000000	2.383136
1686.000000	2.399753
1687.000000	2.397667
1688.000000	2.387497
1689.000000	2.373804
1690.000000	2.363404
1691.000000	2.362409
1692.000000	2.348082
1693.000000	2.344308
1694.000000	2.343284
1695.000000	2.330597
1696.000000	2.349411
1697.000000	2.348952
1698.000000	2.359167
1699.000000	2.358267
1700.000000	2.355630
1701.000000	2.362719
1702.000000	2.362610
1703.000000	2.364045
1704.000000	2.357165
1705.000000	2.373878
1706.000000	2.377119
1707.000000	2.364280
1708.000000	2.364481
1709.000000	2.373773
1710.000000	2.372010
1711.000000	2.366763
1712.000000	2.374754
1713.000000	2.371854
1714.000000	2.362494
1715.000000	2.379200
1716.000000	2.393880
1717.000000	2.396071
1718.000000	2.386895
1719.000000	2.371048
1720.000000	2.396144
1721.000000	2.388509
1722.000000	2.393672
1723.000000	2.389992
1724.000000	2.379178
1725.000000	2.367469
1726.000000	2.370990
1727.000000	2.369210
1728.000000	2.345211
1729.000000	2.346270
1730.000000	2.340765
1731.000000	2.334057
1732.000000	2.331849
1733.000000	2.332327
1734.000000	2.340044
1735.000000	2.346038
1736.000000	2.333788
1737.000000	2.314955
1738.000000	2.323907
1739.000000	2.314988
1740.000000	2.313590
1741.000000	2.300930
1742.000000	2.297002
1743.000000	2.279645
1744.000000	2.264076
1745.000000	2.261390
1746.000000	2.246804
1747.000000	2.245701
1748.000000	2.233117
1749.000000	2.224327
1750.000000	2.216418
1751.000000	2.206813
1752.000000	2.205338
1753.000000	2.202726
1754.000000	2.189619
1755.000000	2.196543
1756.000000	2.198525
1757.000000	2.191017
1758.000000	2.190322
1759.000000	2.175563
1760.000000	2.183836
1761.000000	2.177331
1762.000000	2.196025
1763.000000	2.201611
1764.000000	2.188700
1765.000000	2.197189
1766.000000	2.186600
1767.000000	2.186850
1768.000000	2.191007
1769.000000	2.200346
1770.000000	2.191829
1771.000000	2.186000
1772.000000	2.182320
1773.000000	2.173563
1774.000000	2.171582
1775.000000	2.169712
1776.000000	2.160797
1777.000000	2.144482
1778.000000	2.150645
1779.000000	2.145989
1780.000000	2.134668
1781.000000	2.132404
1782.000000	2.124708
1783.000000	2.130950
1784.000000	2.131022
1785.000000	2.127398
1786.000000	2.127131
1787.000000	2.124746
1788.000000	2.117901
1789.000000	2.124952
1790.000000	2.124527
1791.000000	2.123001
1792.000000	2.129815
1793.000000	2.125284
1794.000000	2.125431
1795.000000	2.125513
1796.000000	2.115235
1797.000000	2.118747
1798.000000	2.124629
1799.000000	2.129574
1800.000000	2.133884
1801.000000	2.132649
1802.000000	2.128642
1803.000000	2.130990
1804.000000	2.137960
1805.000000	2.132305
1806.000000	2.125814
1807.000000	2.132830
1808.000000	2.131411
1809.000000	2.134360
1810.000000	2.143272
1811.000000	2.139278
1812.000000	2.130539
1813.000000	2.135226
1814.000000	2.140677
1815.000000	2.137902
1816.000000	2.135140
1817.000000	2.137987
1818.000000	2.138487
1819.000000	2.146428
1820.000000	2.159873
1821.000000	2.157142
1822.000000	2.139928
1823.000000	2.137198
1824.000000	2.155261
1825.000000	2.164490
1826.000000	2.167607
1827.000000	2.165296
1828.000000	2.158603
1829.000000	2.154039
1830.000000	2.153430
1831.000000	2.146843
1832.000000	2.138151
1833.000000	2.137465
1834.000000	2.139565
1835.000000	2.147726
1836.000000	2.145129
1837.000000	2.121853
1838.000000	2.114676
1839.000000	2.113512
1840.000000	2.109320
1841.000000	2.099240
1842.000000	2.072985
1843.000000	2.060805
1844.000000	2.064701
1845.000000	2.077237
1846.000000	2.094588
1847.000000	2.091863
1848.000000	2.059655
1849.000000	2.030761
1850.000000	2.010914
1851.000000	2.002682
1852.000000	1.997353
1853.000000	1.980657
1854.000000	1.976717
1855.000000	1.950551
1856.000000	1.929400
1857.000000	1.914895
1858.000000	1.893093
1859.000000	1.874542
1860.000000	1.852599
1861.000000	1.828886
1862.000000	1.806379
1863.000000	1.774546
1864.000000	1.767379
1865.000000	1.760291
1866.000000	1.736516
1867.000000	1.725895
1868.000000	1.703711
1869.000000	1.692534
1870.000000	1.647221
1871.000000	1.592466
1872.000000	1.538580
1873.000000	1.503442
1874.000000	1.467124
1875.000000	1.415638
1876.000000	1.365369
1877.000000	1.330020
1878.000000	1.288667
1879.000000	1.256645
1880.000000	1.235280
1881.000000	1.217418
1882.000000	1.190060
1883.000000	1.149880
1884.000000	1.131196
1885.000000	1.106220
1886.000000	1.078722
1887.000000	1.053436
1888.000000	1.050023
1889.000000	1.032931
1890.000000	1.023772
1891.000000	1.012244
1892.000000	0.993297
1893.000000	0.960058
1894.000000	0.955021
1895.000000	0.962566
1896.000000	0.957077
1897.000000	0.952743
1898.000000	0.945168
1899.000000	0.956202
1900.000000	0.930340
1901.000000	0.918340
1902.000000	0.895092
1903.000000	0.895723
1904.000000	0.886133
1905.000000	0.887561
1906.000000	0.876815
1907.000000	0.872830
1908.000000	0.853032
1909.000000	0.848257
1910.000000	0.849708
1911.000000	0.838314
1912.000000	0.843660
1913.000000	0.826055
1914.000000	0.819710
1915.000000	0.830629
1916.000000	0.810570
1917.000000	0.808907
1918.000000	0.814017
1919.000000	0.804888
1920.000000	0.803107
1921.000000	0.805429
1922.000000	0.790121
1923.000000	0.781884
1924.000000	0.773525
1925.000000	0.787754
1926.000000	0.783774
1927.000000	0.763535
1928.000000	0.764318
1929.000000	0.767855
1930.000000	0.753280
1931.000000	0.766422
1932.000000	0.761634
1933.000000	0.745526
1934.000000	0.740574
1935.000000	0.749112
1936.000000	0.744566
1937.000000	0.730877
1938.000000	0.735666
1939.000000	0.732129
1940.000000	0.720943
1941.000000	0.734980
1942.000000	0.736765
1943.000000	0.737662
1944.000000	0.731566
1945.000000	0.737251
1946.000000	0.730708
1947.000000	0.733164
1948.000000	0.737797
1949.000000	0.731263
1950.000000	0.722797
1951.000000	0.724165
1952.000000	0.725308
1953.000000	0.730183
1954.000000	0.735545
1955.000000	0.736950
1956.000000	0.741850
1957.000000	0.737667
1958.000000	0.744018
1959.000000	0.747125
1960.000000	0.738780
1961.000000	0.754722
1962.000000	0.745417
1963.000000	0.742752
1964.000000	0.756945
1965.000000	0.766140
1966.000000	0.760451
1967.000000	0.758261
1968.000000	0.771675
1969.000000	0.780896
1970.000000	0.786029
1971.000000	0.781290
1972.000000	0.785025
1973.000000	0.782216
1974.000000	0.797226
1975.000000	0.778052
1976.000000	0.794374
1977.000000	0.791645
1978.000000	0.812547
1979.000000	0.810423
1980.000000	0.801854
1981.000000	0.823727
1982.000000	0.811087
1983.000000	0.815773
1984.000000	0.827148
1985.000000	0.839919
1986.000000	0.830827
1987.000000	0.847699
1988.000000	0.850554
1989.000000	0.863813
1990.000000	0.873553
1991.000000	0.880871
1992.000000	0.879396
1993.000000	0.879801
1994.000000	0.874252
1995.000000	0.885799
1996.000000	0.896217
1997.000000	0.897144
1998.000000	0.915459
1999.000000	0.922053
2000.000000	0.937700
2001.000000	0.942326
2002.000000	0.941244
2003.000000	0.946235
2004.000000	0.967485
2005.000000	0.985020
2006.000000	0.997656
2007.000000	0.996396
2008.000000	0.991558
2009.000000	1.022937
2010.000000	1.043149
2011.000000	1.036123
2012.000000	1.040827
2013.000000	1.046579
2014.000000	1.066106
2015.000000	1.083971
2016.000000	1.086711
2017.000000	1.103749
2018.000000	1.112012
2019.000000	1.124277
2020.000000	1.122582
2021.000000	1.130616
2022.000000	1.142415
2023.000000	1.147659
2024.000000	1.160260
2025.000000	1.162486
2026.000000	1.179413
2027.000000	1.202104
2028.000000	1.192959
2029.000000	1.202121
2030.000000	1.209728
2031.000000	1.210586
2032.000000	1.218378
2033.000000	1.227282
2034.000000	1.232288
2035.000000	1.243177
2036.000000	1.241135
2037.000000	1.248694
2038.000000	1.251386
2039.000000	1.265126
2040.000000	1.276041
2041.000000	1.276337
2042.000000	1.274850
2043.000000	1.276010
2044.000000	1.286539
2045.000000	1.291663
2046.000000	1.298987
2047.000000	1.289468
2048.000000	1.288637
2049.000000	1.300636
2050.000000	1.297586
2051.000000	1.292691
2052.000000	1.282245
2053.000000	1.284393
2054.000000	1.291739
2055.000000	1.299505
2056.000000	1.295870
2057.000000	1.291694
2058.000000	1.293392
2059.000000	1.293555
2060.000000	1.293840
2061.000000	1.297586
2062.000000	1.298708
2063.000000	1.296884
2064.000000	1.297614
2065.000000	1.303729
2066.000000	1.317563
2067.000000	1.321714
2068.000000	1.318302
2069.000000	1.320944
2070.000000	1.322892
2071.000000	1.335593
2072.000000	1.343261
2073.000000	1.347044
2074.000000	1.350415
2075.000000	1.353059
2076.000000	1.358424
2077.000000	1.362701
2078.000000	1.362509
2079.000000	1.352084
2080.000000	1.364178
2081.000000	1.373943
2082.000000	1.390202
2083.000000	1.395589
2084.000000	1.387525
2085.000000	1.386982
2086.000000	1.386125
2087.000000	1.390835
2088.000000	1.398088
2089.000000	1.397185
2090.000000	1.396506
2091.000000	1.402326
2092.000000	1.398740
2093.000000	1.406693
2094.000000	1.422402
2095.000000	1.414634
2096.000000	1.405522
2097.000000	1.409107
2098.000000	1.416665
2099.000000	1.420672
2100.000000	1.422333
2101.000000	1.429580
2102.000000	1.435363
2103.000000	1.431624
2104.000000	1.429417
2105.000000	1.430065
2106.000000	1.425703
2107.000000	1.422172
2108.000000	1.422993
2109.000000	1.426180
2110.000000	1.422602
2111.000000	1.425082
2112.000000	1.431399
2113.000000	1.427559
2114.000000	1.427761
2115.000000	1.422926
2116.000000	1.423633
2117.000000	1.428755
2118.000000	1.434265
2119.000000	1.431415
2120.000000	1.412798
2121.000000	1.407823
2122.000000	1.410718
2123.000000	1.417294
2124.000000	1.414970
2125.000000	1.415714
2126.000000	1.400942
2127.000000	1.391707
2128.000000	1.402547
2129.000000	1.398645
2130.000000	1.391230
2131.000000	1.382372
2132.000000	1.384137
2133.000000	1.385825
2134.000000	1.380722
2135.000000	1.372316
2136.000000	1.365867
2137.000000	1.376358
2138.000000	1.368814
2139.000000	1.354950
2140.000000	1.350800
2141.000000	1.355119
2142.000000	1.357182
2143.000000	1.342192
2144.000000	1.348186
2145.000000	1.354086
2146.000000	1.340702
2147.000000	1.334345
2148.000000	1.326504
2149.000000	1.335013
2150.000000	1.336653
2151.000000	1.327828
2152.000000	1.317174
2153.000000	1.313794
2154.000000	1.311784
2155.000000	1.304640
2156.000000	1.296619
2157.000000	1.287095
2158.000000	1.295023
2159.000000	1.306879
2160.000000	1.293282
2161.000000	1.283368
2162.000000	1.287395
2163.000000	1.287731
2164.000000	1.292406
2165.000000	1.278445
2166.000000	1.287938
2167.000000	1.306863
2168.000000	1.298247
2169.000000	1.287556
2170.000000	1.296364
2171.000000	1.298716
2172.000000	1.297764
2173.000000	1.303740
2174.000000	1.299498
2175.000000	1.310076
2176.000000	1.312919
2177.000000	1.310703
2178.000000	1.311346
2179.000000	1.317024
2180.000000	1.308732
2181.000000	1.313359
2182.000000	1.329522
2183.000000	1.330964
2184.000000	1.334450
2185.000000	1.331804
2186.000000	1.324478
2187.000000	1.338990
2188.000000	1.335262
2189.000000	1.337314
2190.000000	1.344689
2191.000000	1.348080
2192.000000	1.341945
2193.000000	1.338082
2194.000000	1.345020
2195.000000	1.347918
2196.000000	1.357942
2197.000000	1.354459
2198.000000	1.360346
2199.000000	1.368289
2200.000000	1.355972
2201.000000	1.357682
2202.000000	1.363482
2203.000000	1.365016
2204.000000	1.360689
2205.000000	1.375951
2206.000000	1.365021
2207.000000	1.375903
2208.000000	1.382353
2209.000000	1.379528
2210.000000	1.390125
2211.000000	1.397020
2212.000000	1.394136
2213.000000	1.410474
2214.000000	1.383339
2215.000000	1.393590
2216.000000	1.393063
2217.000000	1.422710
2218.000000	1.434373
2219.000000	1.411953
2220.000000	1.432898
2221.000000	1.434166
2222.000000	1.435876
2223.000000	1.443987
2224.000000	1.448456
2225.000000	1.436384
2226.000000	1.450065
2227.000000	1.447703
2228.000000	1.437914
2229.000000	1.459659
2230.000000	1.444859
2231.000000	1.464778
2232.000000	1.456570
2233.000000	1.455605
2234.000000	1.460279
2235.000000	1.457561
2236.000000	1.445386
2237.000000	1.448904
2238.000000	1.445779
2239.000000	1.447160
2240.000000	1.430553
2241.000000	1.419490
2242.000000	1.436233
2243.000000	1.421808
2244.000000	1.397794
2245.000000	1.385212
2246.000000	1.375421
2247.000000	1.362628
2248.000000	1.334648
2249.000000	1.332221
2250.000000	1.300000
2251.000000	1.283605
2252.000000	1.262796
2253.000000	1.231786
2254.000000	1.207065
2255.000000	1.180488
2256.000000	1.151000
2257.000000	1.130568
2258.000000	1.097391
2259.000000	1.067773
2260.000000	1.044420
2261.000000	1.022573
2262.000000	1.005597
2263.000000	0.962487
2264.000000	0.951242
2265.000000	0.938297
2266.000000	0.899824
2267.000000	0.896557
2268.000000	0.888144
2269.000000	0.885474
2270.000000	0.862304
2271.000000	0.873905
2272.000000	0.859904
2273.000000	0.878510
2274.000000	0.863596
2275.000000	0.887452
2276.000000	0.894770
2277.000000	0.917089
2278.000000	0.927602
2279.000000	0.925382
2280.000000	0.943042
2281.000000	0.946458
2282.000000	0.952393
2283.000000	0.943173
2284.000000	0.945021
2285.000000	0.966887
2286.000000	0.980414
2287.000000	0.977467
2288.000000	0.987882
2289.000000	0.984647
2290.000000	0.978688
2291.000000	0.982002
2292.000000	0.973670
2293.000000	0.962135
2294.000000	0.953590
2295.000000	0.928730
2296.000000	0.927822
2297.000000	0.920634
2298.000000	0.906575
2299.000000	0.902221
2300.000000	0.885045
2301.000000	0.875290
2302.000000	0.863453
2303.000000	0.844987
2304.000000	0.843600
2305.000000	0.835394
2306.000000	0.839864
2307.000000	0.845732
2308.000000	0.859126
2309.000000	0.855236
2310.000000	0.858931
2311.000000	0.881242
2312.000000	0.894945
2313.000000	0.907798
2314.000000	0.918406
2315.000000	0.924366
2316.000000	0.933320
2317.000000	0.961737
2318.000000	0.972578
2319.000000	0.988005
2320.000000	0.979745
2321.000000	0.986676
2322.000000	1.009668
2323.000000	1.017135
2324.000000	1.031243
2325.000000	1.035769
2326.000000	1.043103
2327.000000	1.049200
2328.000000	1.048783
2329.000000	1.053387
2330.000000	1.054210
2331.000000	1.049858
2332.000000	1.049107
2333.000000	1.038395
2334.000000	1.038061
2335.000000	1.034174
2336.000000	1.037152
2337.000000	1.036590
2338.000000	1.030762
2339.000000	1.028267
2340.000000	1.028449
2341.000000	1.020734
2342.000000	0.995976
2343.000000	0.978411
2344.000000	0.983496
2345.000000	0.978831
2346.000000	0.961836
2347.000000	0.959588
2348.000000	0.959700
2349.000000	0.956297
2350.000000	0.950327
2351.000000	0.947163
2352.000000	0.942854
2353.000000	0.937992
2354.000000	0.939378
2355.000000	0.938932
2356.000000	0.935739
2357.000000	0.934227
2358.000000	0.938660
2359.000000	0.956193
2360.000000	0.962628
2361.000000	0.955876
2362.000000	0.955794
2363.000000	0.962297
2364.000000	0.974215
2365.000000	0.975396
2366.000000	0.969240
2367.000000	0.968395
2368.000000	0.964409
2369.000000	0.965968
2370.000000	0.968505
2371.000000	0.961394
2372.000000	0.957996
2373.000000	0.959280
2374.000000	0.957422
2375.000000	0.952501
2376.000000	0.956160
2377.000000	0.955307
2378.000000	0.957175
2379.000000	0.954645
2380.000000	0.949040
2381.000000	0.949175
2382.000000	0.938706
2383.000000	0.939734
2384.000000	0.940279
2385.000000	0.930451
2386.000000	0.928990
2387.000000	0.922800
2388.000000	0.914265
2389.000000	0.907302
2390.000000	0.909280
2391.000000	0.914973
2392.000000	0.901765
2393.000000	0.892865
2394.000000	0.886971
2395.000000	0.884317
2396.000000	0.875024
2397.000000	0.859316
2398.000000	0.839578
2399.000000	0.838844
2400.000000	0.838442
2401.000000	0.830233
2402.000000	0.827691
2403.000000	0.835408
2404.000000	0.831266
2405.000000	0.824147
2406.000000	0.825269
2407.000000	0.823238
2408.000000	0.820131
2409.000000	0.809448
2410.000000	0.815581
2411.000000	0.808623
2412.000000	0.795578
2413.000000	0.799417
2414.000000	0.790983
2415.000000	0.777071
2416.000000	0.779673
2417.000000	0.778848
2418.000000	0.780543
2419.000000	0.783845
2420.000000	0.775905
2421.000000	0.764922
2422.000000	0.766510
2423.000000	0.767820
2424.000000	0.761966
2425.000000	0.763310
2426.000000	0.756580
2427.000000	0.746717
2428.000000	0.740287
2429.000000	0.729846
2430.000000	0.720885
2431.000000	0.729084
2432.000000	0.718857
2433.000000	0.720916
2434.000000	0.710003
2435.000000	0.697186
2436.000000	0.696022
2437.000000	0.689501
2438.000000	0.704993
2439.000000	0.696991
2440.000000	0.677846
2441.000000	0.667154
2442.000000	0.657907
2443.000000	0.657153
2444.000000	0.634542
2445.000000	0.649057
2446.000000	0.637636
2447.000000	0.617691
2448.000000	0.604722
2449.000000	0.610080
2450.000000	0.609160
2451.000000	0.593076
2452.000000	0.593913
2453.000000	0.568916
2454.000000	0.559016
2455.000000	0.554603
2456.000000	0.557867
2457.000000	0.560570
2458.000000	0.543695
2459.000000	0.532733
2460.000000	0.520094
2461.000000	0.515632
2462.000000	0.517604
2463.000000	0.532033
2464.000000	0.498468
2465.000000	0.498103
2466.000000	0.515803
2467.000000	0.521342
2468.000000	0.515387
2469.000000	0.552782
2470.000000	0.533960
2471.000000	0.519314
2472.000000	0.500660
2473.000000	0.540127
2474.000000	0.485505
2475.000000	0.514881
2476.000000	0.514485
2477.000000	0.513947
2478.000000	0.507371
2479.000000	0.506911
2480.000000	0.503356
2481.000000	0.535063
2482.000000	0.481453
2483.000000	0.503307
2484.000000	0.513971
2485.000000	0.469211
2486.000000	0.474423
2487.000000	0.493946
2488.000000	0.547879
2489.000000	0.498803
2490.000000	0.529625
2491.000000	0.531618
2492.000000	0.487255
2493.000000	0.536853
2494.000000	0.457075
2495.000000	0.509684
2496.000000	0.437115
2497.000000	0.539511
2498.000000	0.537387
2499.000000	0.630124
2500.000000	0.447750
