PE UV       SUBTECH     SPECTRUM    ASCII       PEDS        4.00        
   -1
CICIMAUCR0141-3.Sample.ASC
24/04/04
11:43:11.00
24/04/04
11:43:11.00
Vinicio Soto Monge
C. kalinini
250,000000
1
Lambda 1050
1050L1511233
PerkinElmer UV WinLab 6.3.2.0749 / 2.02.05 Lambda 900 UV/VIS/NIR, Aug  7 2015 09:38:08

0
0
3350/servo 860,8/2
0
0
UV/VIS
1
1
1
DoubleDePol,CommonBeamDepol,RBeamAtt,SBeamAtt,60mm sphere, WB InGaAs Detector
0
0
0
0
Program
Program
3350/servo 860,8/2
3350/0,2 860,8/0,2
3350/0,2 860,8/0,2
0
15.00
 
 
 
0
 
860,8
319,2
860,8
Front
100
on
S:100 R:100
0
0
0
0
 
0
 
 
 
0
 
 
0
0
0
0
0
 
 
 
 
0
0


0
0
#HDR
-1
-1
#GR
nm
%R
1.0
0.0
2500,000000
-1,000000
2251
8
77,545500
5,529700
#DATA
250.000000	0.066894
251.000000	0.065223
252.000000	0.047500
253.000000	0.060207
254.000000	0.091997
255.000000	0.084126
256.000000	0.061694
257.000000	0.068410
258.000000	0.051745
259.000000	0.061803
260.000000	0.043932
261.000000	0.077220
262.000000	0.061661
263.000000	0.041494
264.000000	0.068377
265.000000	0.052118
266.000000	0.068787
267.000000	0.074249
268.000000	0.077049
269.000000	0.073596
270.000000	0.079687
271.000000	0.054861
272.000000	0.095662
273.000000	0.050474
274.000000	0.074045
275.000000	0.081022
276.000000	0.066376
277.000000	0.076744
278.000000	0.093146
279.000000	0.071837
280.000000	0.078943
281.000000	0.065984
282.000000	0.078545
283.000000	0.075120
284.000000	0.108996
285.000000	0.054536
286.000000	0.046948
287.000000	0.076639
288.000000	0.069724
289.000000	0.040272
290.000000	0.041596
291.000000	0.105428
292.000000	0.055378
293.000000	0.055817
294.000000	0.068709
295.000000	0.079149
296.000000	0.085366
297.000000	0.081685
298.000000	0.026447
299.000000	0.062895
300.000000	0.043593
301.000000	0.060900
302.000000	0.066189
303.000000	0.054882
304.000000	0.085330
305.000000	0.066802
306.000000	0.078648
307.000000	0.065326
308.000000	0.064522
309.000000	0.051794
310.000000	0.082932
311.000000	0.114944
312.000000	0.083435
313.000000	0.080877
314.000000	0.123650
315.000000	0.086306
316.000000	0.115821
317.000000	0.185868
318.000000	0.099880
319.000000	0.106044
320.000000	0.061545
321.000000	0.075994
322.000000	0.161858
323.000000	0.045455
324.000000	0.072512
325.000000	0.134696
326.000000	0.214432
327.000000	0.138929
328.000000	0.058368
329.000000	0.135236
330.000000	0.078220
331.000000	0.061074
332.000000	0.060076
333.000000	0.098023
334.000000	0.130634
335.000000	0.154075
336.000000	0.107876
337.000000	0.059534
338.000000	0.064514
339.000000	0.059855
340.000000	0.140892
341.000000	0.056978
342.000000	0.046015
343.000000	0.091072
344.000000	0.114763
345.000000	0.121497
346.000000	0.082787
347.000000	0.090071
348.000000	0.054259
349.000000	0.059519
350.000000	0.025726
351.000000	0.076904
352.000000	0.035490
353.000000	0.037104
354.000000	0.026578
355.000000	0.020903
356.000000	0.095775
357.000000	0.069737
358.000000	0.055285
359.000000	0.064511
360.000000	0.009270
361.000000	0.023148
362.000000	0.055100
363.000000	0.075498
364.000000	0.078597
365.000000	0.054027
366.000000	0.083904
367.000000	0.049263
368.000000	0.024021
369.000000	0.015948
370.000000	0.047839
371.000000	0.104244
372.000000	0.098180
373.000000	0.119303
374.000000	0.090432
375.000000	0.068976
376.000000	0.100789
377.000000	0.044016
378.000000	0.040229
379.000000	0.049090
380.000000	0.043280
381.000000	0.048493
382.000000	0.062325
383.000000	0.068160
384.000000	0.058554
385.000000	0.067582
386.000000	0.068804
387.000000	0.069191
388.000000	0.087446
389.000000	0.091040
390.000000	0.087505
391.000000	0.083197
392.000000	0.098422
393.000000	0.113406
394.000000	0.121794
395.000000	0.131297
396.000000	0.139410
397.000000	0.147307
398.000000	0.166345
399.000000	0.185663
400.000000	0.196729
401.000000	0.209685
402.000000	0.229148
403.000000	0.244125
404.000000	0.266613
405.000000	0.286864
406.000000	0.313473
407.000000	0.351161
408.000000	0.382374
409.000000	0.395638
410.000000	0.421823
411.000000	0.461190
412.000000	0.501593
413.000000	0.534158
414.000000	0.566522
415.000000	0.611812
416.000000	0.660313
417.000000	0.711037
418.000000	0.752391
419.000000	0.788516
420.000000	0.835298
421.000000	0.887450
422.000000	0.941074
423.000000	0.984474
424.000000	1.023848
425.000000	1.076836
426.000000	1.121674
427.000000	1.165097
428.000000	1.205666
429.000000	1.241050
430.000000	1.288034
431.000000	1.319745
432.000000	1.343185
433.000000	1.372315
434.000000	1.399287
435.000000	1.421954
436.000000	1.438824
437.000000	1.448455
438.000000	1.449552
439.000000	1.459123
440.000000	1.473080
441.000000	1.464777
442.000000	1.460811
443.000000	1.471938
444.000000	1.459976
445.000000	1.424588
446.000000	1.420828
447.000000	1.424470
448.000000	1.400408
449.000000	1.374699
450.000000	1.350573
451.000000	1.322281
452.000000	1.311155
453.000000	1.290932
454.000000	1.253067
455.000000	1.232579
456.000000	1.201723
457.000000	1.161849
458.000000	1.144970
459.000000	1.124424
460.000000	1.102609
461.000000	1.086515
462.000000	1.056727
463.000000	1.020483
464.000000	0.995841
465.000000	0.966195
466.000000	0.936266
467.000000	0.921523
468.000000	0.912912
469.000000	0.890184
470.000000	0.871853
471.000000	0.853598
472.000000	0.831013
473.000000	0.819596
474.000000	0.806244
475.000000	0.799932
476.000000	0.786970
477.000000	0.765826
478.000000	0.752967
479.000000	0.743645
480.000000	0.739938
481.000000	0.740353
482.000000	0.731492
483.000000	0.721899
484.000000	0.697701
485.000000	0.681723
486.000000	0.655169
487.000000	0.621606
488.000000	0.586933
489.000000	0.537572
490.000000	0.499520
491.000000	0.462990
492.000000	0.404285
493.000000	0.347507
494.000000	0.286082
495.000000	0.238177
496.000000	0.199903
497.000000	0.206631
498.000000	0.265364
499.000000	0.345871
500.000000	0.455606
501.000000	0.571216
502.000000	0.695492
503.000000	0.825739
504.000000	0.965960
505.000000	1.089749
506.000000	1.214839
507.000000	1.346336
508.000000	1.469160
509.000000	1.590424
510.000000	1.709352
511.000000	1.829231
512.000000	1.926167
513.000000	2.034007
514.000000	2.128236
515.000000	2.187316
516.000000	2.266195
517.000000	2.338721
518.000000	2.406214
519.000000	2.478457
520.000000	2.544961
521.000000	2.596952
522.000000	2.664837
523.000000	2.700469
524.000000	2.741435
525.000000	2.777109
526.000000	2.809975
527.000000	2.834363
528.000000	2.855577
529.000000	2.870830
530.000000	2.899820
531.000000	2.946507
532.000000	2.977206
533.000000	2.991527
534.000000	3.020460
535.000000	3.053311
536.000000	3.075419
537.000000	3.135959
538.000000	3.193573
539.000000	3.211434
540.000000	3.230168
541.000000	3.251740
542.000000	3.263053
543.000000	3.269809
544.000000	3.284094
545.000000	3.298360
546.000000	3.330669
547.000000	3.348935
548.000000	3.334414
549.000000	3.300838
550.000000	3.277749
551.000000	3.224324
552.000000	3.154435
553.000000	3.119299
554.000000	3.074890
555.000000	3.007701
556.000000	2.953186
557.000000	2.871361
558.000000	2.778328
559.000000	2.660549
560.000000	2.565729
561.000000	2.511840
562.000000	2.427220
563.000000	2.349296
564.000000	2.306050
565.000000	2.243304
566.000000	2.171748
567.000000	2.113379
568.000000	2.026974
569.000000	1.930651
570.000000	1.847569
571.000000	1.766676
572.000000	1.715787
573.000000	1.648480
574.000000	1.626631
575.000000	1.590564
576.000000	1.580448
577.000000	1.582869
578.000000	1.581263
579.000000	1.546790
580.000000	1.510985
581.000000	1.458008
582.000000	1.440697
583.000000	1.433293
584.000000	1.433440
585.000000	1.426867
586.000000	1.470648
587.000000	1.526067
588.000000	1.568888
589.000000	1.608050
590.000000	1.641392
591.000000	1.655233
592.000000	1.623196
593.000000	1.607563
594.000000	1.599306
595.000000	1.639738
596.000000	1.593734
597.000000	1.629572
598.000000	1.658373
599.000000	1.673424
600.000000	1.743560
601.000000	1.813431
602.000000	1.884789
603.000000	1.898915
604.000000	1.929104
605.000000	1.972812
606.000000	1.946240
607.000000	1.959838
608.000000	1.929533
609.000000	1.956175
610.000000	1.980264
611.000000	2.001126
612.000000	2.007821
613.000000	1.994323
614.000000	2.006336
615.000000	1.984164
616.000000	2.009685
617.000000	1.964028
618.000000	1.911105
619.000000	1.833721
620.000000	1.774268
621.000000	1.693230
622.000000	1.604740
623.000000	1.494267
624.000000	1.380977
625.000000	1.265248
626.000000	1.173027
627.000000	1.047454
628.000000	0.930649
629.000000	0.874814
630.000000	0.805026
631.000000	0.741672
632.000000	0.707473
633.000000	0.715153
634.000000	0.723998
635.000000	0.756162
636.000000	0.823171
637.000000	0.867333
638.000000	0.895130
639.000000	0.923484
640.000000	1.002707
641.000000	1.013938
642.000000	1.046659
643.000000	1.089048
644.000000	1.138846
645.000000	1.160483
646.000000	1.194222
647.000000	1.259434
648.000000	1.315513
649.000000	1.378175
650.000000	1.446930
651.000000	1.491259
652.000000	1.527127
653.000000	1.576415
654.000000	1.608236
655.000000	1.638279
656.000000	1.655856
657.000000	1.662769
658.000000	1.661799
659.000000	1.632483
660.000000	1.586936
661.000000	1.501554
662.000000	1.468916
663.000000	1.426030
664.000000	1.366430
665.000000	1.346051
666.000000	1.368837
667.000000	1.418059
668.000000	1.473879
669.000000	1.567960
670.000000	1.665142
671.000000	1.787942
672.000000	1.918781
673.000000	2.054711
674.000000	2.151729
675.000000	2.283418
676.000000	2.409063
677.000000	2.455473
678.000000	2.525955
679.000000	2.581113
680.000000	2.626780
681.000000	2.675273
682.000000	2.719379
683.000000	2.737506
684.000000	2.740443
685.000000	2.795576
686.000000	2.797527
687.000000	2.843481
688.000000	2.868625
689.000000	2.908585
690.000000	2.967930
691.000000	3.021525
692.000000	3.072741
693.000000	3.094718
694.000000	3.130758
695.000000	3.176052
696.000000	3.198470
697.000000	3.197995
698.000000	3.169341
699.000000	3.151998
700.000000	3.137716
701.000000	3.097193
702.000000	3.000399
703.000000	2.913397
704.000000	2.852588
705.000000	2.748956
706.000000	2.640143
707.000000	2.572833
708.000000	2.492426
709.000000	2.405640
710.000000	2.384639
711.000000	2.319028
712.000000	2.348104
713.000000	2.345785
714.000000	2.363327
715.000000	2.369721
716.000000	2.362859
717.000000	2.380207
718.000000	2.412168
719.000000	2.436575
720.000000	2.465743
721.000000	2.525817
722.000000	2.549276
723.000000	2.546762
724.000000	2.591392
725.000000	2.622919
726.000000	2.559045
727.000000	2.557694
728.000000	2.575404
729.000000	2.619452
730.000000	2.628213
731.000000	2.581597
732.000000	2.555475
733.000000	2.546193
734.000000	2.553997
735.000000	2.550125
736.000000	2.568239
737.000000	2.575537
738.000000	2.580771
739.000000	2.572349
740.000000	2.583226
741.000000	2.545770
742.000000	2.460480
743.000000	2.460905
744.000000	2.484797
745.000000	2.481694
746.000000	2.389316
747.000000	2.309183
748.000000	2.302232
749.000000	2.270389
750.000000	2.207768
751.000000	2.154088
752.000000	2.105612
753.000000	2.062770
754.000000	1.992236
755.000000	1.941970
756.000000	1.969987
757.000000	1.958105
758.000000	1.912973
759.000000	1.883611
760.000000	1.855912
761.000000	1.854326
762.000000	1.834239
763.000000	1.838573
764.000000	1.842536
765.000000	1.829434
766.000000	1.829653
767.000000	1.831080
768.000000	1.784506
769.000000	1.711307
770.000000	1.683506
771.000000	1.641142
772.000000	1.606947
773.000000	1.578092
774.000000	1.507942
775.000000	1.516373
776.000000	1.529900
777.000000	1.446016
778.000000	1.421025
779.000000	1.412947
780.000000	1.381783
781.000000	1.343270
782.000000	1.362622
783.000000	1.351447
784.000000	1.324543
785.000000	1.276622
786.000000	1.227361
787.000000	1.217783
788.000000	1.205070
789.000000	1.231390
790.000000	1.229879
791.000000	1.189786
792.000000	1.214381
793.000000	1.227313
794.000000	1.226272
795.000000	1.220678
796.000000	1.158133
797.000000	1.167258
798.000000	1.178553
799.000000	1.114900
800.000000	1.108047
801.000000	1.172432
802.000000	1.271448
803.000000	1.190384
804.000000	1.156410
805.000000	1.208746
806.000000	1.214063
807.000000	1.172739
808.000000	1.153845
809.000000	1.179537
810.000000	1.184437
811.000000	1.203449
812.000000	1.156059
813.000000	1.169579
814.000000	1.212974
815.000000	1.274777
816.000000	1.248539
817.000000	1.276720
818.000000	1.254166
819.000000	1.313250
820.000000	1.301258
821.000000	1.347987
822.000000	1.426109
823.000000	1.438347
824.000000	1.321951
825.000000	1.383124
826.000000	1.454868
827.000000	1.420189
828.000000	1.420266
829.000000	1.361953
830.000000	1.398287
831.000000	1.357554
832.000000	1.301573
833.000000	1.258745
834.000000	1.269387
835.000000	1.235983
836.000000	1.152641
837.000000	1.232432
838.000000	1.266070
839.000000	1.346025
840.000000	1.384981
841.000000	1.339728
842.000000	1.359495
843.000000	1.535535
844.000000	1.497744
845.000000	1.391307
846.000000	1.283425
847.000000	1.211935
848.000000	1.205759
849.000000	1.110584
850.000000	1.035343
851.000000	1.109014
852.000000	1.081356
853.000000	1.002047
854.000000	1.139361
855.000000	1.062756
856.000000	0.849953
857.000000	1.018011
858.000000	2.267002
859.000000	1.102458
860.000000	1.039499
861.000000	0.978700
862.000000	0.932465
863.000000	0.893526
864.000000	0.882017
865.000000	0.859589
866.000000	0.860026
867.000000	0.853579
868.000000	0.863434
869.000000	0.869595
870.000000	0.872679
871.000000	0.877176
872.000000	0.897548
873.000000	0.909472
874.000000	0.928679
875.000000	0.937193
876.000000	0.937604
877.000000	0.932264
878.000000	0.939467
879.000000	0.942954
880.000000	0.950447
881.000000	0.937457
882.000000	0.924503
883.000000	0.913342
884.000000	0.926185
885.000000	0.940805
886.000000	0.944493
887.000000	0.931591
888.000000	0.935999
889.000000	0.941972
890.000000	0.937543
891.000000	0.958401
892.000000	0.970573
893.000000	0.995239
894.000000	1.019715
895.000000	1.032909
896.000000	1.040126
897.000000	1.067533
898.000000	1.071464
899.000000	1.104421
900.000000	1.133732
901.000000	1.169722
902.000000	1.176223
903.000000	1.197204
904.000000	1.234244
905.000000	1.249183
906.000000	1.278104
907.000000	1.298427
908.000000	1.325706
909.000000	1.362211
910.000000	1.363285
911.000000	1.403304
912.000000	1.441228
913.000000	1.450068
914.000000	1.468330
915.000000	1.489629
916.000000	1.495887
917.000000	1.500913
918.000000	1.509465
919.000000	1.511464
920.000000	1.513878
921.000000	1.510921
922.000000	1.519618
923.000000	1.505236
924.000000	1.491818
925.000000	1.469623
926.000000	1.462406
927.000000	1.441873
928.000000	1.421093
929.000000	1.426887
930.000000	1.400191
931.000000	1.378294
932.000000	1.356524
933.000000	1.334937
934.000000	1.333234
935.000000	1.326732
936.000000	1.305617
937.000000	1.295754
938.000000	1.284586
939.000000	1.279791
940.000000	1.262691
941.000000	1.255832
942.000000	1.252964
943.000000	1.228265
944.000000	1.230844
945.000000	1.246741
946.000000	1.256669
947.000000	1.269114
948.000000	1.272976
949.000000	1.280026
950.000000	1.297588
951.000000	1.298371
952.000000	1.314165
953.000000	1.335551
954.000000	1.340823
955.000000	1.351559
956.000000	1.367770
957.000000	1.378266
958.000000	1.386958
959.000000	1.389168
960.000000	1.392266
961.000000	1.402851
962.000000	1.397347
963.000000	1.410284
964.000000	1.409555
965.000000	1.399407
966.000000	1.401008
967.000000	1.387200
968.000000	1.399237
969.000000	1.398034
970.000000	1.390791
971.000000	1.382410
972.000000	1.367704
973.000000	1.363545
974.000000	1.351822
975.000000	1.346138
976.000000	1.338346
977.000000	1.319277
978.000000	1.307219
979.000000	1.301662
980.000000	1.296177
981.000000	1.267119
982.000000	1.265502
983.000000	1.266708
984.000000	1.257607
985.000000	1.249078
986.000000	1.252585
987.000000	1.239300
988.000000	1.239632
989.000000	1.234194
990.000000	1.221897
991.000000	1.212706
992.000000	1.212279
993.000000	1.207474
994.000000	1.202213
995.000000	1.195244
996.000000	1.199099
997.000000	1.191110
998.000000	1.181898
999.000000	1.176495
1000.000000	1.168683
1001.000000	1.174448
1002.000000	1.167460
1003.000000	1.164476
1004.000000	1.162021
1005.000000	1.167206
1006.000000	1.166268
1007.000000	1.162335
1008.000000	1.163477
1009.000000	1.164684
1010.000000	1.159549
1011.000000	1.148055
1012.000000	1.148760
1013.000000	1.138352
1014.000000	1.129556
1015.000000	1.122120
1016.000000	1.103999
1017.000000	1.102977
1018.000000	1.099126
1019.000000	1.086120
1020.000000	1.077713
1021.000000	1.074847
1022.000000	1.065728
1023.000000	1.052608
1024.000000	1.049243
1025.000000	1.045846
1026.000000	1.034028
1027.000000	1.025308
1028.000000	1.023147
1029.000000	1.012992
1030.000000	1.003823
1031.000000	1.007226
1032.000000	0.997690
1033.000000	0.978644
1034.000000	0.972966
1035.000000	0.974714
1036.000000	0.974603
1037.000000	0.975962
1038.000000	0.969349
1039.000000	0.961575
1040.000000	0.957103
1041.000000	0.956993
1042.000000	0.948826
1043.000000	0.938919
1044.000000	0.938798
1045.000000	0.929118
1046.000000	0.926382
1047.000000	0.920018
1048.000000	0.912068
1049.000000	0.905501
1050.000000	0.904470
1051.000000	0.897574
1052.000000	0.891784
1053.000000	0.880962
1054.000000	0.881825
1055.000000	0.882264
1056.000000	0.864976
1057.000000	0.858352
1058.000000	0.858911
1059.000000	0.843005
1060.000000	0.828093
1061.000000	0.828781
1062.000000	0.824120
1063.000000	0.820400
1064.000000	0.811161
1065.000000	0.804775
1066.000000	0.799082
1067.000000	0.805546
1068.000000	0.807919
1069.000000	0.806061
1070.000000	0.813978
1071.000000	0.816833
1072.000000	0.824351
1073.000000	0.830607
1074.000000	0.826016
1075.000000	0.821315
1076.000000	0.821408
1077.000000	0.829131
1078.000000	0.838230
1079.000000	0.838256
1080.000000	0.836067
1081.000000	0.839080
1082.000000	0.853813
1083.000000	0.861991
1084.000000	0.875858
1085.000000	0.868301
1086.000000	0.866031
1087.000000	0.880564
1088.000000	0.875042
1089.000000	0.878396
1090.000000	0.882375
1091.000000	0.890809
1092.000000	0.886796
1093.000000	0.880554
1094.000000	0.877045
1095.000000	0.867710
1096.000000	0.865446
1097.000000	0.865332
1098.000000	0.865621
1099.000000	0.856509
1100.000000	0.851257
1101.000000	0.854601
1102.000000	0.842954
1103.000000	0.840661
1104.000000	0.848132
1105.000000	0.843395
1106.000000	0.832599
1107.000000	0.828820
1108.000000	0.820999
1109.000000	0.814641
1110.000000	0.819086
1111.000000	0.816642
1112.000000	0.818185
1113.000000	0.815951
1114.000000	0.825554
1115.000000	0.814337
1116.000000	0.803665
1117.000000	0.806575
1118.000000	0.812637
1119.000000	0.822449
1120.000000	0.827342
1121.000000	0.827519
1122.000000	0.834799
1123.000000	0.844531
1124.000000	0.833895
1125.000000	0.854031
1126.000000	0.854923
1127.000000	0.872266
1128.000000	0.878651
1129.000000	0.874522
1130.000000	0.892850
1131.000000	0.902844
1132.000000	0.899575
1133.000000	0.908810
1134.000000	0.913484
1135.000000	0.923712
1136.000000	0.939373
1137.000000	0.946158
1138.000000	0.947360
1139.000000	0.945868
1140.000000	0.957584
1141.000000	0.953229
1142.000000	0.946125
1143.000000	0.939318
1144.000000	0.952948
1145.000000	0.951991
1146.000000	0.939943
1147.000000	0.947186
1148.000000	0.931263
1149.000000	0.942843
1150.000000	0.928773
1151.000000	0.918186
1152.000000	0.912087
1153.000000	0.907818
1154.000000	0.915417
1155.000000	0.895744
1156.000000	0.883681
1157.000000	0.880129
1158.000000	0.873279
1159.000000	0.877233
1160.000000	0.880200
1161.000000	0.871111
1162.000000	0.862648
1163.000000	0.852145
1164.000000	0.842766
1165.000000	0.858842
1166.000000	0.848553
1167.000000	0.855450
1168.000000	0.853832
1169.000000	0.851026
1170.000000	0.846934
1171.000000	0.864220
1172.000000	0.853835
1173.000000	0.866566
1174.000000	0.866773
1175.000000	0.875434
1176.000000	0.866538
1177.000000	0.874604
1178.000000	0.877508
1179.000000	0.880353
1180.000000	0.880518
1181.000000	0.885876
1182.000000	0.896181
1183.000000	0.904251
1184.000000	0.915561
1185.000000	0.913029
1186.000000	0.921566
1187.000000	0.925733
1188.000000	0.938778
1189.000000	0.940615
1190.000000	0.943312
1191.000000	0.947813
1192.000000	0.958497
1193.000000	0.960920
1194.000000	0.963977
1195.000000	0.966615
1196.000000	0.971868
1197.000000	0.957719
1198.000000	0.958194
1199.000000	0.968313
1200.000000	0.962131
1201.000000	0.966362
1202.000000	0.957078
1203.000000	0.952169
1204.000000	0.951974
1205.000000	0.954437
1206.000000	0.947886
1207.000000	0.948688
1208.000000	0.961142
1209.000000	0.951059
1210.000000	0.947464
1211.000000	0.931714
1212.000000	0.930857
1213.000000	0.920247
1214.000000	0.925429
1215.000000	0.924031
1216.000000	0.926246
1217.000000	0.911980
1218.000000	0.913673
1219.000000	0.912075
1220.000000	0.909601
1221.000000	0.906915
1222.000000	0.906428
1223.000000	0.907085
1224.000000	0.904992
1225.000000	0.905426
1226.000000	0.902416
1227.000000	0.901089
1228.000000	0.902724
1229.000000	0.909579
1230.000000	0.908350
1231.000000	0.911487
1232.000000	0.913397
1233.000000	0.907793
1234.000000	0.907867
1235.000000	0.905481
1236.000000	0.918685
1237.000000	0.915474
1238.000000	0.924382
1239.000000	0.926998
1240.000000	0.928195
1241.000000	0.937664
1242.000000	0.948200
1243.000000	0.956313
1244.000000	0.951678
1245.000000	0.957895
1246.000000	0.958103
1247.000000	0.968602
1248.000000	0.968539
1249.000000	0.983299
1250.000000	0.982482
1251.000000	0.981196
1252.000000	0.993384
1253.000000	0.993946
1254.000000	0.990600
1255.000000	0.994115
1256.000000	1.004701
1257.000000	1.005966
1258.000000	1.002331
1259.000000	1.007480
1260.000000	1.002577
1261.000000	0.999240
1262.000000	1.002745
1263.000000	1.002785
1264.000000	1.003467
1265.000000	1.003876
1266.000000	1.000562
1267.000000	1.003299
1268.000000	1.005549
1269.000000	1.002082
1270.000000	0.994677
1271.000000	0.987418
1272.000000	0.984845
1273.000000	0.976895
1274.000000	0.973061
1275.000000	0.970429
1276.000000	0.971059
1277.000000	0.962078
1278.000000	0.948949
1279.000000	0.949292
1280.000000	0.957161
1281.000000	0.956118
1282.000000	0.953529
1283.000000	0.958979
1284.000000	0.954718
1285.000000	0.943463
1286.000000	0.939536
1287.000000	0.934162
1288.000000	0.938658
1289.000000	0.943497
1290.000000	0.937957
1291.000000	0.934697
1292.000000	0.927409
1293.000000	0.925710
1294.000000	0.932524
1295.000000	0.933326
1296.000000	0.929835
1297.000000	0.929696
1298.000000	0.924080
1299.000000	0.926362
1300.000000	0.930012
1301.000000	0.925809
1302.000000	0.931532
1303.000000	0.941186
1304.000000	0.940883
1305.000000	0.937881
1306.000000	0.932469
1307.000000	0.939266
1308.000000	0.939454
1309.000000	0.933113
1310.000000	0.935165
1311.000000	0.934670
1312.000000	0.942036
1313.000000	0.946166
1314.000000	0.949922
1315.000000	0.951527
1316.000000	0.950335
1317.000000	0.949469
1318.000000	0.959355
1319.000000	0.957479
1320.000000	0.952784
1321.000000	0.962261
1322.000000	0.963769
1323.000000	0.958501
1324.000000	0.960470
1325.000000	0.957178
1326.000000	0.962173
1327.000000	0.963030
1328.000000	0.960090
1329.000000	0.957052
1330.000000	0.948758
1331.000000	0.956359
1332.000000	0.957112
1333.000000	0.957392
1334.000000	0.954034
1335.000000	0.960703
1336.000000	0.954792
1337.000000	0.952205
1338.000000	0.950693
1339.000000	0.944086
1340.000000	0.934973
1341.000000	0.938640
1342.000000	0.940556
1343.000000	0.943807
1344.000000	0.942811
1345.000000	0.931348
1346.000000	0.922095
1347.000000	0.934682
1348.000000	0.948252
1349.000000	0.940840
1350.000000	0.939487
1351.000000	0.941388
1352.000000	0.938994
1353.000000	0.949659
1354.000000	0.940364
1355.000000	0.938469
1356.000000	0.931234
1357.000000	0.935381
1358.000000	0.926663
1359.000000	0.926161
1360.000000	0.911196
1361.000000	0.909811
1362.000000	0.907936
1363.000000	0.914206
1364.000000	0.934501
1365.000000	0.924999
1366.000000	0.918320
1367.000000	0.905457
1368.000000	0.909627
1369.000000	0.876650
1370.000000	0.877697
1371.000000	0.875369
1372.000000	0.878653
1373.000000	0.855480
1374.000000	0.828819
1375.000000	0.843284
1376.000000	0.827350
1377.000000	0.818967
1378.000000	0.816531
1379.000000	0.799102
1380.000000	0.771514
1381.000000	0.794450
1382.000000	0.816046
1383.000000	0.840327
1384.000000	0.879062
1385.000000	0.860817
1386.000000	0.864280
1387.000000	0.883184
1388.000000	0.911502
1389.000000	0.904166
1390.000000	0.920925
1391.000000	0.914298
1392.000000	0.909700
1393.000000	0.916944
1394.000000	0.930545
1395.000000	0.930872
1396.000000	0.940370
1397.000000	0.953241
1398.000000	0.945450
1399.000000	0.944326
1400.000000	0.955045
1401.000000	0.967979
1402.000000	0.966336
1403.000000	0.957120
1404.000000	0.947722
1405.000000	0.951797
1406.000000	0.947789
1407.000000	0.968192
1408.000000	0.958135
1409.000000	0.962268
1410.000000	0.954672
1411.000000	0.948268
1412.000000	0.976028
1413.000000	0.969090
1414.000000	0.971455
1415.000000	0.976150
1416.000000	0.970969
1417.000000	0.983635
1418.000000	0.966340
1419.000000	0.977343
1420.000000	0.962805
1421.000000	0.961905
1422.000000	0.956538
1423.000000	0.954979
1424.000000	0.960563
1425.000000	0.967953
1426.000000	0.960708
1427.000000	0.950961
1428.000000	0.969702
1429.000000	0.957148
1430.000000	0.944098
1431.000000	0.946712
1432.000000	0.964725
1433.000000	0.950393
1434.000000	0.962660
1435.000000	0.954478
1436.000000	0.954279
1437.000000	0.968918
1438.000000	0.953490
1439.000000	0.957522
1440.000000	0.964602
1441.000000	0.948685
1442.000000	0.975409
1443.000000	0.950361
1444.000000	0.971375
1445.000000	0.958937
1446.000000	0.973046
1447.000000	0.978631
1448.000000	0.977514
1449.000000	0.988706
1450.000000	0.981115
1451.000000	1.010219
1452.000000	0.994799
1453.000000	0.995017
1454.000000	1.017493
1455.000000	1.023014
1456.000000	1.011730
1457.000000	1.025955
1458.000000	1.021221
1459.000000	1.024260
1460.000000	1.047892
1461.000000	1.049137
1462.000000	1.042445
1463.000000	1.047757
1464.000000	1.044674
1465.000000	1.049651
1466.000000	1.064387
1467.000000	1.059150
1468.000000	1.068971
1469.000000	1.073323
1470.000000	1.059683
1471.000000	1.069560
1472.000000	1.076906
1473.000000	1.080180
1474.000000	1.074116
1475.000000	1.084490
1476.000000	1.079018
1477.000000	1.082783
1478.000000	1.082607
1479.000000	1.090142
1480.000000	1.087816
1481.000000	1.081806
1482.000000	1.091521
1483.000000	1.085501
1484.000000	1.078077
1485.000000	1.084299
1486.000000	1.086929
1487.000000	1.082147
1488.000000	1.075891
1489.000000	1.072866
1490.000000	1.069844
1491.000000	1.063724
1492.000000	1.057688
1493.000000	1.056830
1494.000000	1.049412
1495.000000	1.050108
1496.000000	1.046140
1497.000000	1.052119
1498.000000	1.037011
1499.000000	1.030144
1500.000000	1.029404
1501.000000	1.032553
1502.000000	1.022330
1503.000000	1.012208
1504.000000	1.014666
1505.000000	1.009456
1506.000000	0.992951
1507.000000	0.989873
1508.000000	0.981049
1509.000000	0.975232
1510.000000	0.973999
1511.000000	0.974072
1512.000000	0.978134
1513.000000	0.962484
1514.000000	0.955183
1515.000000	0.950991
1516.000000	0.944534
1517.000000	0.945957
1518.000000	0.946263
1519.000000	0.941133
1520.000000	0.935461
1521.000000	0.932016
1522.000000	0.930672
1523.000000	0.928216
1524.000000	0.923962
1525.000000	0.934196
1526.000000	0.936673
1527.000000	0.926626
1528.000000	0.924540
1529.000000	0.930550
1530.000000	0.918569
1531.000000	0.912123
1532.000000	0.921824
1533.000000	0.920687
1534.000000	0.920523
1535.000000	0.919748
1536.000000	0.921156
1537.000000	0.928999
1538.000000	0.925286
1539.000000	0.926169
1540.000000	0.937561
1541.000000	0.942827
1542.000000	0.945143
1543.000000	0.945350
1544.000000	0.948216
1545.000000	0.954009
1546.000000	0.958538
1547.000000	0.958597
1548.000000	0.957946
1549.000000	0.967521
1550.000000	0.973189
1551.000000	0.968075
1552.000000	0.968158
1553.000000	0.975567
1554.000000	0.975892
1555.000000	0.975278
1556.000000	0.977318
1557.000000	0.979715
1558.000000	0.988621
1559.000000	0.989721
1560.000000	0.982781
1561.000000	0.980904
1562.000000	0.985861
1563.000000	0.991094
1564.000000	0.995469
1565.000000	0.997403
1566.000000	0.993600
1567.000000	0.990981
1568.000000	0.992557
1569.000000	0.986639
1570.000000	0.990796
1571.000000	0.992913
1572.000000	0.991326
1573.000000	0.995820
1574.000000	0.995620
1575.000000	0.993272
1576.000000	0.989046
1577.000000	0.992910
1578.000000	0.991962
1579.000000	0.993948
1580.000000	1.000239
1581.000000	0.987148
1582.000000	0.984238
1583.000000	0.984977
1584.000000	0.979780
1585.000000	0.971408
1586.000000	0.969849
1587.000000	0.971824
1588.000000	0.963397
1589.000000	0.959567
1590.000000	0.956359
1591.000000	0.949472
1592.000000	0.946491
1593.000000	0.946365
1594.000000	0.938370
1595.000000	0.937713
1596.000000	0.935894
1597.000000	0.924184
1598.000000	0.926931
1599.000000	0.920335
1600.000000	0.904942
1601.000000	0.903123
1602.000000	0.905717
1603.000000	0.899385
1604.000000	0.890380
1605.000000	0.891688
1606.000000	0.890372
1607.000000	0.883776
1608.000000	0.877220
1609.000000	0.871568
1610.000000	0.872058
1611.000000	0.870488
1612.000000	0.861728
1613.000000	0.863822
1614.000000	0.856666
1615.000000	0.844631
1616.000000	0.853316
1617.000000	0.852682
1618.000000	0.850907
1619.000000	0.840878
1620.000000	0.836977
1621.000000	0.844644
1622.000000	0.836739
1623.000000	0.839469
1624.000000	0.839181
1625.000000	0.841356
1626.000000	0.838432
1627.000000	0.838438
1628.000000	0.837860
1629.000000	0.838394
1630.000000	0.836746
1631.000000	0.832988
1632.000000	0.840523
1633.000000	0.846281
1634.000000	0.843612
1635.000000	0.839998
1636.000000	0.839160
1637.000000	0.849976
1638.000000	0.851547
1639.000000	0.849068
1640.000000	0.846952
1641.000000	0.850543
1642.000000	0.848287
1643.000000	0.855000
1644.000000	0.856289
1645.000000	0.862353
1646.000000	0.870430
1647.000000	0.859370
1648.000000	0.870153
1649.000000	0.879196
1650.000000	0.883978
1651.000000	0.878245
1652.000000	0.876772
1653.000000	0.869937
1654.000000	0.886474
1655.000000	0.889491
1656.000000	0.882869
1657.000000	0.894231
1658.000000	0.897039
1659.000000	0.900811
1660.000000	0.890589
1661.000000	0.901455
1662.000000	0.897638
1663.000000	0.910471
1664.000000	0.906984
1665.000000	0.909445
1666.000000	0.924571
1667.000000	0.928434
1668.000000	0.921876
1669.000000	0.939230
1670.000000	0.938035
1671.000000	0.937332
1672.000000	0.932688
1673.000000	0.941039
1674.000000	0.941614
1675.000000	0.938143
1676.000000	0.936155
1677.000000	0.937711
1678.000000	0.922363
1679.000000	0.933269
1680.000000	0.931320
1681.000000	0.931222
1682.000000	0.929946
1683.000000	0.928574
1684.000000	0.926288
1685.000000	0.925329
1686.000000	0.929047
1687.000000	0.923114
1688.000000	0.923219
1689.000000	0.934544
1690.000000	0.925145
1691.000000	0.937878
1692.000000	0.921309
1693.000000	0.920223
1694.000000	0.894121
1695.000000	0.897283
1696.000000	0.881340
1697.000000	0.868609
1698.000000	0.863790
1699.000000	0.857729
1700.000000	0.839964
1701.000000	0.850293
1702.000000	0.848082
1703.000000	0.833232
1704.000000	0.828507
1705.000000	0.819469
1706.000000	0.829178
1707.000000	0.812668
1708.000000	0.812571
1709.000000	0.788210
1710.000000	0.799263
1711.000000	0.799187
1712.000000	0.798788
1713.000000	0.787459
1714.000000	0.792140
1715.000000	0.790868
1716.000000	0.786059
1717.000000	0.784648
1718.000000	0.797642
1719.000000	0.797385
1720.000000	0.791824
1721.000000	0.799012
1722.000000	0.800473
1723.000000	0.794509
1724.000000	0.817915
1725.000000	0.806506
1726.000000	0.802998
1727.000000	0.812623
1728.000000	0.812063
1729.000000	0.816914
1730.000000	0.800102
1731.000000	0.802077
1732.000000	0.809755
1733.000000	0.820062
1734.000000	0.807770
1735.000000	0.804177
1736.000000	0.809766
1737.000000	0.817430
1738.000000	0.812638
1739.000000	0.800273
1740.000000	0.807439
1741.000000	0.795974
1742.000000	0.798375
1743.000000	0.801394
1744.000000	0.804905
1745.000000	0.807331
1746.000000	0.804898
1747.000000	0.799016
1748.000000	0.796213
1749.000000	0.794198
1750.000000	0.785114
1751.000000	0.798281
1752.000000	0.809081
1753.000000	0.799197
1754.000000	0.799108
1755.000000	0.805585
1756.000000	0.801915
1757.000000	0.810329
1758.000000	0.813226
1759.000000	0.816442
1760.000000	0.805833
1761.000000	0.818591
1762.000000	0.832326
1763.000000	0.843335
1764.000000	0.840299
1765.000000	0.845306
1766.000000	0.846238
1767.000000	0.849552
1768.000000	0.853599
1769.000000	0.854177
1770.000000	0.855286
1771.000000	0.860379
1772.000000	0.869033
1773.000000	0.860567
1774.000000	0.867665
1775.000000	0.866799
1776.000000	0.862812
1777.000000	0.862778
1778.000000	0.867827
1779.000000	0.873928
1780.000000	0.873147
1781.000000	0.873441
1782.000000	0.877115
1783.000000	0.883061
1784.000000	0.875142
1785.000000	0.869875
1786.000000	0.875685
1787.000000	0.878285
1788.000000	0.877884
1789.000000	0.876319
1790.000000	0.881250
1791.000000	0.879050
1792.000000	0.876474
1793.000000	0.878121
1794.000000	0.887521
1795.000000	0.885791
1796.000000	0.881423
1797.000000	0.871878
1798.000000	0.873025
1799.000000	0.866229
1800.000000	0.866646
1801.000000	0.867482
1802.000000	0.862329
1803.000000	0.862837
1804.000000	0.857017
1805.000000	0.854915
1806.000000	0.861138
1807.000000	0.858176
1808.000000	0.857140
1809.000000	0.847139
1810.000000	0.838641
1811.000000	0.836720
1812.000000	0.831426
1813.000000	0.823213
1814.000000	0.828539
1815.000000	0.827789
1816.000000	0.822089
1817.000000	0.818611
1818.000000	0.801567
1819.000000	0.792320
1820.000000	0.795646
1821.000000	0.794617
1822.000000	0.791650
1823.000000	0.789467
1824.000000	0.793873
1825.000000	0.788373
1826.000000	0.783169
1827.000000	0.774564
1828.000000	0.777708
1829.000000	0.779076
1830.000000	0.776503
1831.000000	0.768494
1832.000000	0.752862
1833.000000	0.754392
1834.000000	0.751356
1835.000000	0.750127
1836.000000	0.743997
1837.000000	0.724658
1838.000000	0.724354
1839.000000	0.731538
1840.000000	0.726163
1841.000000	0.719815
1842.000000	0.722673
1843.000000	0.718536
1844.000000	0.708071
1845.000000	0.701779
1846.000000	0.695776
1847.000000	0.686757
1848.000000	0.690608
1849.000000	0.693264
1850.000000	0.697849
1851.000000	0.700645
1852.000000	0.690429
1853.000000	0.671529
1854.000000	0.672278
1855.000000	0.676173
1856.000000	0.671012
1857.000000	0.665230
1858.000000	0.657686
1859.000000	0.659694
1860.000000	0.666561
1861.000000	0.672080
1862.000000	0.672631
1863.000000	0.664185
1864.000000	0.656207
1865.000000	0.650191
1866.000000	0.636980
1867.000000	0.632649
1868.000000	0.630519
1869.000000	0.614203
1870.000000	0.617002
1871.000000	0.614463
1872.000000	0.620891
1873.000000	0.627989
1874.000000	0.632812
1875.000000	0.634099
1876.000000	0.642604
1877.000000	0.647378
1878.000000	0.643306
1879.000000	0.643169
1880.000000	0.638393
1881.000000	0.625318
1882.000000	0.629034
1883.000000	0.622125
1884.000000	0.627789
1885.000000	0.632518
1886.000000	0.633691
1887.000000	0.631659
1888.000000	0.624409
1889.000000	0.622595
1890.000000	0.623762
1891.000000	0.625395
1892.000000	0.621603
1893.000000	0.637608
1894.000000	0.641061
1895.000000	0.637255
1896.000000	0.634100
1897.000000	0.619495
1898.000000	0.611636
1899.000000	0.606047
1900.000000	0.596171
1901.000000	0.598081
1902.000000	0.606504
1903.000000	0.604103
1904.000000	0.594505
1905.000000	0.584945
1906.000000	0.593737
1907.000000	0.587093
1908.000000	0.585307
1909.000000	0.598974
1910.000000	0.588570
1911.000000	0.579323
1912.000000	0.568747
1913.000000	0.563176
1914.000000	0.559441
1915.000000	0.557299
1916.000000	0.565092
1917.000000	0.553979
1918.000000	0.550934
1919.000000	0.548513
1920.000000	0.554364
1921.000000	0.544472
1922.000000	0.539982
1923.000000	0.539739
1924.000000	0.543656
1925.000000	0.548258
1926.000000	0.545702
1927.000000	0.545675
1928.000000	0.547692
1929.000000	0.548287
1930.000000	0.543100
1931.000000	0.545406
1932.000000	0.550091
1933.000000	0.553215
1934.000000	0.566734
1935.000000	0.546029
1936.000000	0.562699
1937.000000	0.547557
1938.000000	0.556491
1939.000000	0.565831
1940.000000	0.565367
1941.000000	0.578279
1942.000000	0.561576
1943.000000	0.565462
1944.000000	0.579838
1945.000000	0.580495
1946.000000	0.588907
1947.000000	0.580217
1948.000000	0.582211
1949.000000	0.573640
1950.000000	0.589514
1951.000000	0.588421
1952.000000	0.573412
1953.000000	0.579353
1954.000000	0.579427
1955.000000	0.562446
1956.000000	0.579926
1957.000000	0.570536
1958.000000	0.570861
1959.000000	0.568826
1960.000000	0.577092
1961.000000	0.576154
1962.000000	0.572294
1963.000000	0.573011
1964.000000	0.562585
1965.000000	0.572539
1966.000000	0.574716
1967.000000	0.575750
1968.000000	0.575610
1969.000000	0.586226
1970.000000	0.565131
1971.000000	0.566990
1972.000000	0.567834
1973.000000	0.554205
1974.000000	0.544603
1975.000000	0.559151
1976.000000	0.528438
1977.000000	0.542214
1978.000000	0.557308
1979.000000	0.540851
1980.000000	0.542999
1981.000000	0.534797
1982.000000	0.531450
1983.000000	0.519974
1984.000000	0.522617
1985.000000	0.518752
1986.000000	0.520014
1987.000000	0.514623
1988.000000	0.521201
1989.000000	0.514540
1990.000000	0.496798
1991.000000	0.507690
1992.000000	0.511019
1993.000000	0.495325
1994.000000	0.495542
1995.000000	0.500254
1996.000000	0.490875
1997.000000	0.496768
1998.000000	0.499684
1999.000000	0.485192
2000.000000	0.488342
2001.000000	0.481999
2002.000000	0.482610
2003.000000	0.487207
2004.000000	0.463663
2005.000000	0.466849
2006.000000	0.461600
2007.000000	0.459480
2008.000000	0.453334
2009.000000	0.448992
2010.000000	0.451479
2011.000000	0.449058
2012.000000	0.451337
2013.000000	0.431127
2014.000000	0.447480
2015.000000	0.441968
2016.000000	0.442067
2017.000000	0.433892
2018.000000	0.426277
2019.000000	0.434157
2020.000000	0.417215
2021.000000	0.438503
2022.000000	0.441375
2023.000000	0.440720
2024.000000	0.430578
2025.000000	0.430899
2026.000000	0.439853
2027.000000	0.437209
2028.000000	0.426583
2029.000000	0.420485
2030.000000	0.438558
2031.000000	0.432169
2032.000000	0.432111
2033.000000	0.418614
2034.000000	0.430049
2035.000000	0.434377
2036.000000	0.429702
2037.000000	0.420798
2038.000000	0.415503
2039.000000	0.418994
2040.000000	0.423500
2041.000000	0.410621
2042.000000	0.413138
2043.000000	0.424650
2044.000000	0.416815
2045.000000	0.404846
2046.000000	0.411677
2047.000000	0.410654
2048.000000	0.417362
2049.000000	0.411237
2050.000000	0.408157
2051.000000	0.423043
2052.000000	0.425419
2053.000000	0.424305
2054.000000	0.439052
2055.000000	0.441526
2056.000000	0.446259
2057.000000	0.452764
2058.000000	0.449005
2059.000000	0.457709
2060.000000	0.464056
2061.000000	0.459907
2062.000000	0.469261
2063.000000	0.469055
2064.000000	0.472103
2065.000000	0.484298
2066.000000	0.490589
2067.000000	0.489902
2068.000000	0.486045
2069.000000	0.495056
2070.000000	0.498443
2071.000000	0.502277
2072.000000	0.502459
2073.000000	0.497896
2074.000000	0.501865
2075.000000	0.509335
2076.000000	0.505088
2077.000000	0.510418
2078.000000	0.514305
2079.000000	0.516998
2080.000000	0.512237
2081.000000	0.510372
2082.000000	0.502375
2083.000000	0.501817
2084.000000	0.513315
2085.000000	0.507693
2086.000000	0.499615
2087.000000	0.498257
2088.000000	0.503417
2089.000000	0.506828
2090.000000	0.504531
2091.000000	0.502846
2092.000000	0.502760
2093.000000	0.498487
2094.000000	0.494294
2095.000000	0.496835
2096.000000	0.502329
2097.000000	0.511286
2098.000000	0.510068
2099.000000	0.498809
2100.000000	0.497016
2101.000000	0.500909
2102.000000	0.496906
2103.000000	0.491850
2104.000000	0.492772
2105.000000	0.484773
2106.000000	0.480331
2107.000000	0.482822
2108.000000	0.484459
2109.000000	0.476525
2110.000000	0.470750
2111.000000	0.466134
2112.000000	0.469523
2113.000000	0.471707
2114.000000	0.465639
2115.000000	0.458516
2116.000000	0.445800
2117.000000	0.447598
2118.000000	0.446202
2119.000000	0.435385
2120.000000	0.426201
2121.000000	0.424609
2122.000000	0.423156
2123.000000	0.416952
2124.000000	0.415550
2125.000000	0.404868
2126.000000	0.394237
2127.000000	0.394460
2128.000000	0.388711
2129.000000	0.384123
2130.000000	0.376959
2131.000000	0.371867
2132.000000	0.368896
2133.000000	0.360609
2134.000000	0.357636
2135.000000	0.358217
2136.000000	0.343211
2137.000000	0.339450
2138.000000	0.331259
2139.000000	0.326756
2140.000000	0.321968
2141.000000	0.319463
2142.000000	0.322868
2143.000000	0.321850
2144.000000	0.303591
2145.000000	0.300465
2146.000000	0.303938
2147.000000	0.296958
2148.000000	0.294250
2149.000000	0.291306
2150.000000	0.292317
2151.000000	0.280437
2152.000000	0.288636
2153.000000	0.291649
2154.000000	0.285908
2155.000000	0.277960
2156.000000	0.280823
2157.000000	0.266781
2158.000000	0.273466
2159.000000	0.280512
2160.000000	0.269415
2161.000000	0.279573
2162.000000	0.282671
2163.000000	0.266751
2164.000000	0.259307
2165.000000	0.258453
2166.000000	0.266954
2167.000000	0.258728
2168.000000	0.252726
2169.000000	0.266617
2170.000000	0.263604
2171.000000	0.262986
2172.000000	0.258987
2173.000000	0.256911
2174.000000	0.270214
2175.000000	0.266405
2176.000000	0.258580
2177.000000	0.257188
2178.000000	0.265222
2179.000000	0.258963
2180.000000	0.268995
2181.000000	0.267940
2182.000000	0.263404
2183.000000	0.255891
2184.000000	0.256949
2185.000000	0.272507
2186.000000	0.264117
2187.000000	0.260960
2188.000000	0.253869
2189.000000	0.251597
2190.000000	0.247248
2191.000000	0.246205
2192.000000	0.229151
2193.000000	0.235838
2194.000000	0.254964
2195.000000	0.241019
2196.000000	0.222692
2197.000000	0.226841
2198.000000	0.236280
2199.000000	0.225432
2200.000000	0.224351
2201.000000	0.220098
2202.000000	0.214824
2203.000000	0.205466
2204.000000	0.221713
2205.000000	0.216268
2206.000000	0.217171
2207.000000	0.217260
2208.000000	0.207395
2209.000000	0.220407
2210.000000	0.220383
2211.000000	0.225211
2212.000000	0.224208
2213.000000	0.239648
2214.000000	0.230741
2215.000000	0.231745
2216.000000	0.242874
2217.000000	0.247569
2218.000000	0.251808
2219.000000	0.251257
2220.000000	0.255939
2221.000000	0.256933
2222.000000	0.227942
2223.000000	0.255989
2224.000000	0.274218
2225.000000	0.250149
2226.000000	0.265751
2227.000000	0.265518
2228.000000	0.275755
2229.000000	0.261799
2230.000000	0.268765
2231.000000	0.271046
2232.000000	0.262461
2233.000000	0.286485
2234.000000	0.266729
2235.000000	0.260585
2236.000000	0.268549
2237.000000	0.276982
2238.000000	0.261165
2239.000000	0.270415
2240.000000	0.266867
2241.000000	0.276894
2242.000000	0.259898
2243.000000	0.259820
2244.000000	0.272225
2245.000000	0.257863
2246.000000	0.251941
2247.000000	0.256059
2248.000000	0.253985
2249.000000	0.264735
2250.000000	0.258679
2251.000000	0.265408
2252.000000	0.254196
2253.000000	0.266299
2254.000000	0.251834
2255.000000	0.249031
2256.000000	0.246141
2257.000000	0.256900
2258.000000	0.257372
2259.000000	0.252306
2260.000000	0.250412
2261.000000	0.269409
2262.000000	0.258137
2263.000000	0.254873
2264.000000	0.256573
2265.000000	0.257630
2266.000000	0.258925
2267.000000	0.260033
2268.000000	0.265225
2269.000000	0.277861
2270.000000	0.267419
2271.000000	0.259029
2272.000000	0.261006
2273.000000	0.263400
2274.000000	0.268662
2275.000000	0.263512
2276.000000	0.261670
2277.000000	0.264453
2278.000000	0.258305
2279.000000	0.256941
2280.000000	0.254630
2281.000000	0.260554
2282.000000	0.268604
2283.000000	0.268355
2284.000000	0.253576
2285.000000	0.259577
2286.000000	0.261988
2287.000000	0.256837
2288.000000	0.265531
2289.000000	0.251969
2290.000000	0.246914
2291.000000	0.255734
2292.000000	0.253228
2293.000000	0.246485
2294.000000	0.246616
2295.000000	0.248059
2296.000000	0.238643
2297.000000	0.253773
2298.000000	0.248464
2299.000000	0.245559
2300.000000	0.242977
2301.000000	0.244037
2302.000000	0.244662
2303.000000	0.232462
2304.000000	0.234974
2305.000000	0.240683
2306.000000	0.240688
2307.000000	0.252771
2308.000000	0.236126
2309.000000	0.229139
2310.000000	0.238254
2311.000000	0.241995
2312.000000	0.228312
2313.000000	0.219573
2314.000000	0.219699
2315.000000	0.216675
2316.000000	0.208897
2317.000000	0.213246
2318.000000	0.211394
2319.000000	0.213782
2320.000000	0.198973
2321.000000	0.201091
2322.000000	0.208715
2323.000000	0.202128
2324.000000	0.191413
2325.000000	0.187169
2326.000000	0.186213
2327.000000	0.175139
2328.000000	0.181517
2329.000000	0.187339
2330.000000	0.184087
2331.000000	0.178136
2332.000000	0.170796
2333.000000	0.170126
2334.000000	0.168578
2335.000000	0.157437
2336.000000	0.157895
2337.000000	0.154287
2338.000000	0.154713
2339.000000	0.147616
2340.000000	0.147915
2341.000000	0.156678
2342.000000	0.150318
2343.000000	0.142892
2344.000000	0.146843
2345.000000	0.151635
2346.000000	0.135245
2347.000000	0.133426
2348.000000	0.135736
2349.000000	0.129332
2350.000000	0.124745
2351.000000	0.126944
2352.000000	0.128027
2353.000000	0.137360
2354.000000	0.142948
2355.000000	0.133473
2356.000000	0.126959
2357.000000	0.133811
2358.000000	0.139138
2359.000000	0.131993
2360.000000	0.126216
2361.000000	0.128502
2362.000000	0.129897
2363.000000	0.131959
2364.000000	0.130883
2365.000000	0.126459
2366.000000	0.131239
2367.000000	0.129532
2368.000000	0.129704
2369.000000	0.131849
2370.000000	0.134269
2371.000000	0.139356
2372.000000	0.130591
2373.000000	0.122021
2374.000000	0.126664
2375.000000	0.126696
2376.000000	0.133091
2377.000000	0.131188
2378.000000	0.129224
2379.000000	0.135758
2380.000000	0.139394
2381.000000	0.132391
2382.000000	0.130075
2383.000000	0.131646
2384.000000	0.125445
2385.000000	0.123396
2386.000000	0.131869
2387.000000	0.132468
2388.000000	0.130478
2389.000000	0.134878
2390.000000	0.139231
2391.000000	0.131052
2392.000000	0.131138
2393.000000	0.135681
2394.000000	0.128454
2395.000000	0.124412
2396.000000	0.123127
2397.000000	0.115325
2398.000000	0.115311
2399.000000	0.119672
2400.000000	0.119683
2401.000000	0.125901
2402.000000	0.129668
2403.000000	0.129159
2404.000000	0.129946
2405.000000	0.123861
2406.000000	0.124115
2407.000000	0.122750
2408.000000	0.122704
2409.000000	0.114143
2410.000000	0.121998
2411.000000	0.126590
2412.000000	0.120131
2413.000000	0.117450
2414.000000	0.117301
2415.000000	0.118975
2416.000000	0.130517
2417.000000	0.129202
2418.000000	0.133999
2419.000000	0.119186
2420.000000	0.125012
2421.000000	0.133518
2422.000000	0.135922
2423.000000	0.138110
2424.000000	0.135384
2425.000000	0.127234
2426.000000	0.141519
2427.000000	0.140771
2428.000000	0.135317
2429.000000	0.152129
2430.000000	0.152720
2431.000000	0.141343
2432.000000	0.142908
2433.000000	0.144289
2434.000000	0.149183
2435.000000	0.141152
2436.000000	0.150703
2437.000000	0.156677
2438.000000	0.139001
2439.000000	0.141912
2440.000000	0.148617
2441.000000	0.156068
2442.000000	0.151269
2443.000000	0.157936
2444.000000	0.156403
2445.000000	0.144581
2446.000000	0.136380
2447.000000	0.153624
2448.000000	0.141583
2449.000000	0.150651
2450.000000	0.148487
2451.000000	0.138997
2452.000000	0.147022
2453.000000	0.142863
2454.000000	0.156016
2455.000000	0.136742
2456.000000	0.146230
2457.000000	0.150902
2458.000000	0.142600
2459.000000	0.124207
2460.000000	0.133864
2461.000000	0.146382
2462.000000	0.151627
2463.000000	0.153399
2464.000000	0.159112
2465.000000	0.133734
2466.000000	0.141127
2467.000000	0.139874
2468.000000	0.165455
2469.000000	0.130779
2470.000000	0.166861
2471.000000	0.166713
2472.000000	0.150158
2473.000000	0.171181
2474.000000	0.127415
2475.000000	0.139667
2476.000000	0.156653
2477.000000	0.195597
2478.000000	0.155409
2479.000000	0.135146
2480.000000	0.182294
2481.000000	0.151358
2482.000000	0.137660
2483.000000	0.128694
2484.000000	0.164944
2485.000000	0.184276
2486.000000	0.214082
2487.000000	0.143272
2488.000000	0.124880
2489.000000	0.180317
2490.000000	0.162293
2491.000000	0.189677
2492.000000	0.172574
2493.000000	0.200863
2494.000000	0.175866
2495.000000	0.167591
2496.000000	0.163961
2497.000000	0.135671
2498.000000	0.121700
2499.000000	0.186808
2500.000000	0.107973
