PE UV       SUBTECH     SPECTRUM    ASCII       PEDS        4.00        
   -1
CICIMAUCR0014-3.Sample.ASC
24/04/04
11:17:51.00
24/04/04
11:17:51.00
Vinicio Soto Monge
C. cupreomarginata
250,000000
1
Lambda 1050
1050L1511233
PerkinElmer UV WinLab 6.3.2.0749 / 2.02.05 Lambda 900 UV/VIS/NIR, Aug  7 2015 09:38:08

0
0
3350/servo 860,8/2
0
0
UV/VIS
1
1
1
DoubleDePol,CommonBeamDepol,RBeamAtt,SBeamAtt,60mm sphere, WB InGaAs Detector
0
0
0
0
Program
Program
3350/servo 860,8/2
3350/0,2 860,8/0,2
3350/0,2 860,8/0,2
0
15.00
 
 
 
0
 
860,8
319,2
860,8
Front
100
on
S:100 R:100
0
0
0
0
 
0
 
 
 
0
 
 
0
0
0
0
0
 
 
 
 
0
0


0
0
#HDR
-1
-1
#GR
nm
%R
1.0
0.0
2500,000000
-1,000000
2251
8
67,923300
5,031600
#DATA
250.000000	0.135143
251.000000	0.135920
252.000000	0.132024
253.000000	0.117982
254.000000	0.124169
255.000000	0.119090
256.000000	0.132185
257.000000	0.142521
258.000000	0.118750
259.000000	0.113327
260.000000	0.098979
261.000000	0.112143
262.000000	0.153463
263.000000	0.125607
264.000000	0.089030
265.000000	0.085379
266.000000	0.113088
267.000000	0.088100
268.000000	0.116084
269.000000	0.108572
270.000000	0.094365
271.000000	0.112865
272.000000	0.108284
273.000000	0.096137
274.000000	0.088879
275.000000	0.087973
276.000000	0.098996
277.000000	0.054992
278.000000	0.107713
279.000000	0.101116
280.000000	0.119312
281.000000	0.059718
282.000000	0.069911
283.000000	0.090330
284.000000	0.093466
285.000000	0.091107
286.000000	0.084222
287.000000	0.059836
288.000000	0.107554
289.000000	0.065710
290.000000	0.063835
291.000000	0.043680
292.000000	0.086652
293.000000	0.045528
294.000000	0.067897
295.000000	0.034340
296.000000	0.044640
297.000000	0.076977
298.000000	0.060605
299.000000	0.054336
300.000000	0.041903
301.000000	0.064849
302.000000	0.069488
303.000000	0.088781
304.000000	0.034451
305.000000	0.054199
306.000000	0.058508
307.000000	0.078973
308.000000	0.051487
309.000000	0.054575
310.000000	0.063583
311.000000	0.055972
312.000000	0.033674
313.000000	0.039172
314.000000	0.048553
315.000000	0.039998
316.000000	0.069171
317.000000	0.125491
318.000000	0.035634
319.000000	0.196010
320.000000	0.203418
321.000000	0.074280
322.000000	0.048662
323.000000	0.089303
324.000000	0.152454
325.000000	0.301033
326.000000	0.090788
327.000000	0.087473
328.000000	0.027222
329.000000	0.097589
330.000000	0.063061
331.000000	0.069232
332.000000	0.091285
333.000000	0.047409
334.000000	0.061922
335.000000	0.046317
336.000000	0.072414
337.000000	0.058766
338.000000	0.063155
339.000000	0.133949
340.000000	0.063740
341.000000	0.059238
342.000000	0.077271
343.000000	0.082020
344.000000	0.052270
345.000000	0.060465
346.000000	0.061449
347.000000	0.072223
348.000000	0.039685
349.000000	0.003063
350.000000	0.033347
351.000000	0.039467
352.000000	0.092294
353.000000	0.037087
354.000000	0.055604
355.000000	0.056783
356.000000	0.026022
357.000000	0.062375
358.000000	0.063070
359.000000	0.029096
360.000000	0.076873
361.000000	0.024579
362.000000	0.056049
363.000000	0.099213
364.000000	0.056453
365.000000	0.091514
366.000000	0.045925
367.000000	0.046295
368.000000	0.106800
369.000000	0.124101
370.000000	0.087729
371.000000	0.122281
372.000000	0.132443
373.000000	0.143290
374.000000	0.181411
375.000000	0.151212
376.000000	0.053686
377.000000	0.071234
378.000000	0.074032
379.000000	0.073665
380.000000	0.069571
381.000000	0.073960
382.000000	0.078350
383.000000	0.079614
384.000000	0.094631
385.000000	0.096525
386.000000	0.095102
387.000000	0.110351
388.000000	0.116856
389.000000	0.117770
390.000000	0.130678
391.000000	0.136341
392.000000	0.148854
393.000000	0.156002
394.000000	0.164971
395.000000	0.183661
396.000000	0.198975
397.000000	0.213692
398.000000	0.222249
399.000000	0.241270
400.000000	0.258342
401.000000	0.281956
402.000000	0.307241
403.000000	0.322206
404.000000	0.341773
405.000000	0.372944
406.000000	0.402031
407.000000	0.427870
408.000000	0.454961
409.000000	0.480421
410.000000	0.506546
411.000000	0.542313
412.000000	0.566425
413.000000	0.589787
414.000000	0.614000
415.000000	0.643027
416.000000	0.665136
417.000000	0.688607
418.000000	0.711474
419.000000	0.728187
420.000000	0.743872
421.000000	0.759598
422.000000	0.778709
423.000000	0.795524
424.000000	0.813163
425.000000	0.833880
426.000000	0.838709
427.000000	0.839543
428.000000	0.850084
429.000000	0.869332
430.000000	0.879801
431.000000	0.885553
432.000000	0.888942
433.000000	0.894820
434.000000	0.909379
435.000000	0.918761
436.000000	0.924583
437.000000	0.927117
438.000000	0.937876
439.000000	0.954066
440.000000	0.960004
441.000000	0.957016
442.000000	0.963199
443.000000	0.974084
444.000000	0.979159
445.000000	0.982309
446.000000	0.988489
447.000000	0.992381
448.000000	0.998352
449.000000	1.000153
450.000000	0.993578
451.000000	0.997499
452.000000	0.996203
453.000000	0.990575
454.000000	0.989796
455.000000	0.991315
456.000000	0.985152
457.000000	0.979613
458.000000	0.975999
459.000000	0.967308
460.000000	0.952035
461.000000	0.934403
462.000000	0.921386
463.000000	0.899886
464.000000	0.886170
465.000000	0.864625
466.000000	0.840072
467.000000	0.815699
468.000000	0.789773
469.000000	0.761838
470.000000	0.726902
471.000000	0.689555
472.000000	0.665620
473.000000	0.639338
474.000000	0.598896
475.000000	0.555316
476.000000	0.519286
477.000000	0.478663
478.000000	0.436017
479.000000	0.381163
480.000000	0.325988
481.000000	0.267704
482.000000	0.220218
483.000000	0.178777
484.000000	0.139457
485.000000	0.137253
486.000000	0.172942
487.000000	0.225548
488.000000	0.283779
489.000000	0.334000
490.000000	0.394970
491.000000	0.454788
492.000000	0.501311
493.000000	0.545642
494.000000	0.600947
495.000000	0.642609
496.000000	0.685442
497.000000	0.723195
498.000000	0.762408
499.000000	0.814614
500.000000	0.865262
501.000000	0.904586
502.000000	0.947776
503.000000	0.980007
504.000000	1.014406
505.000000	1.050595
506.000000	1.089980
507.000000	1.117251
508.000000	1.130796
509.000000	1.136251
510.000000	1.148956
511.000000	1.174418
512.000000	1.191509
513.000000	1.206384
514.000000	1.226353
515.000000	1.228397
516.000000	1.224722
517.000000	1.212233
518.000000	1.197418
519.000000	1.197116
520.000000	1.208269
521.000000	1.217772
522.000000	1.230903
523.000000	1.252010
524.000000	1.285793
525.000000	1.323537
526.000000	1.382642
527.000000	1.481182
528.000000	1.591049
529.000000	1.730806
530.000000	1.870639
531.000000	2.012371
532.000000	2.167210
533.000000	2.295609
534.000000	2.422242
535.000000	2.508983
536.000000	2.585856
537.000000	2.646935
538.000000	2.686841
539.000000	2.713591
540.000000	2.739510
541.000000	2.756418
542.000000	2.763954
543.000000	2.743957
544.000000	2.729411
545.000000	2.728880
546.000000	2.734390
547.000000	2.746052
548.000000	2.778322
549.000000	2.817883
550.000000	2.866224
551.000000	2.927404
552.000000	2.966767
553.000000	3.051453
554.000000	3.095741
555.000000	3.154759
556.000000	3.198072
557.000000	3.244458
558.000000	3.296485
559.000000	3.341562
560.000000	3.353233
561.000000	3.413820
562.000000	3.460755
563.000000	3.491203
564.000000	3.542857
565.000000	3.585196
566.000000	3.637733
567.000000	3.642819
568.000000	3.669521
569.000000	3.680552
570.000000	3.696037
571.000000	3.685230
572.000000	3.689926
573.000000	3.667770
574.000000	3.669932
575.000000	3.640150
576.000000	3.625712
577.000000	3.582899
578.000000	3.571511
579.000000	3.564070
580.000000	3.547138
581.000000	3.558752
582.000000	3.568506
583.000000	3.604185
584.000000	3.684561
585.000000	3.725947
586.000000	3.797401
587.000000	3.856909
588.000000	3.945357
589.000000	4.021159
590.000000	4.072447
591.000000	4.096485
592.000000	4.157106
593.000000	4.180453
594.000000	4.191357
595.000000	4.188201
596.000000	4.139242
597.000000	4.105205
598.000000	4.070890
599.000000	4.037254
600.000000	3.976878
601.000000	3.904581
602.000000	3.872347
603.000000	3.822463
604.000000	3.837534
605.000000	3.850494
606.000000	3.885857
607.000000	3.894913
608.000000	3.941907
609.000000	4.007342
610.000000	4.111219
611.000000	4.215701
612.000000	4.339866
613.000000	4.422545
614.000000	4.564293
615.000000	4.622079
616.000000	4.720396
617.000000	4.769485
618.000000	4.824317
619.000000	4.852000
620.000000	4.848327
621.000000	4.817253
622.000000	4.780567
623.000000	4.702063
624.000000	4.648477
625.000000	4.568908
626.000000	4.514437
627.000000	4.438266
628.000000	4.403222
629.000000	4.341670
630.000000	4.291204
631.000000	4.277771
632.000000	4.263302
633.000000	4.202213
634.000000	4.190922
635.000000	4.151296
636.000000	4.119275
637.000000	4.063155
638.000000	3.984925
639.000000	3.867587
640.000000	3.750992
641.000000	3.598710
642.000000	3.389411
643.000000	3.166096
644.000000	2.913468
645.000000	2.662718
646.000000	2.391529
647.000000	2.146434
648.000000	1.905202
649.000000	1.712131
650.000000	1.557216
651.000000	1.463763
652.000000	1.440158
653.000000	1.452260
654.000000	1.472362
655.000000	1.527865
656.000000	1.582054
657.000000	1.642595
658.000000	1.667444
659.000000	1.694547
660.000000	1.724123
661.000000	1.747195
662.000000	1.789178
663.000000	1.790793
664.000000	1.796080
665.000000	1.811979
666.000000	1.812332
667.000000	1.820423
668.000000	1.832042
669.000000	1.850220
670.000000	1.849792
671.000000	1.832540
672.000000	1.809041
673.000000	1.836299
674.000000	1.826952
675.000000	1.815979
676.000000	1.807734
677.000000	1.848543
678.000000	1.832809
679.000000	1.838415
680.000000	1.867111
681.000000	1.908534
682.000000	1.945768
683.000000	1.997404
684.000000	2.054554
685.000000	2.089210
686.000000	2.148356
687.000000	2.194849
688.000000	2.249428
689.000000	2.293296
690.000000	2.329881
691.000000	2.385536
692.000000	2.378862
693.000000	2.396480
694.000000	2.403495
695.000000	2.389588
696.000000	2.395629
697.000000	2.377151
698.000000	2.349515
699.000000	2.310248
700.000000	2.291988
701.000000	2.246546
702.000000	2.172795
703.000000	2.154538
704.000000	2.138066
705.000000	2.127838
706.000000	2.107544
707.000000	2.071161
708.000000	2.065115
709.000000	2.033811
710.000000	1.998513
711.000000	1.995854
712.000000	1.991960
713.000000	1.975797
714.000000	1.946206
715.000000	1.943455
716.000000	1.952967
717.000000	1.961017
718.000000	1.935870
719.000000	1.912522
720.000000	1.910187
721.000000	1.904900
722.000000	1.916095
723.000000	1.913048
724.000000	1.897242
725.000000	1.885311
726.000000	1.885133
727.000000	1.901381
728.000000	1.914623
729.000000	1.937797
730.000000	1.971279
731.000000	1.987338
732.000000	2.023504
733.000000	2.072126
734.000000	2.093882
735.000000	2.114397
736.000000	2.189250
737.000000	2.252074
738.000000	2.269979
739.000000	2.303483
740.000000	2.377909
741.000000	2.419646
742.000000	2.481401
743.000000	2.565355
744.000000	2.584569
745.000000	2.592696
746.000000	2.623167
747.000000	2.624092
748.000000	2.653442
749.000000	2.701641
750.000000	2.719796
751.000000	2.710779
752.000000	2.721725
753.000000	2.728260
754.000000	2.722932
755.000000	2.749497
756.000000	2.723705
757.000000	2.701029
758.000000	2.718319
759.000000	2.688651
760.000000	2.685145
761.000000	2.697333
762.000000	2.680677
763.000000	2.675961
764.000000	2.692357
765.000000	2.689208
766.000000	2.633397
767.000000	2.618171
768.000000	2.640605
769.000000	2.631809
770.000000	2.589540
771.000000	2.564981
772.000000	2.588598
773.000000	2.632191
774.000000	2.668913
775.000000	2.676115
776.000000	2.631450
777.000000	2.604889
778.000000	2.610901
779.000000	2.668368
780.000000	2.685125
781.000000	2.674130
782.000000	2.701739
783.000000	2.687835
784.000000	2.675695
785.000000	2.676870
786.000000	2.638756
787.000000	2.651244
788.000000	2.628128
789.000000	2.621873
790.000000	2.602036
791.000000	2.603772
792.000000	2.636796
793.000000	2.682593
794.000000	2.603477
795.000000	2.610069
796.000000	2.602101
797.000000	2.515702
798.000000	2.527077
799.000000	2.524842
800.000000	2.501138
801.000000	2.470259
802.000000	2.504015
803.000000	2.487262
804.000000	2.458630
805.000000	2.527075
806.000000	2.534467
807.000000	2.553605
808.000000	2.527186
809.000000	2.437024
810.000000	2.391037
811.000000	2.386215
812.000000	2.360890
813.000000	2.399465
814.000000	2.388488
815.000000	2.336741
816.000000	2.375215
817.000000	2.247520
818.000000	2.200705
819.000000	2.287279
820.000000	2.343687
821.000000	2.421053
822.000000	2.335614
823.000000	2.300478
824.000000	2.332602
825.000000	2.379304
826.000000	2.366680
827.000000	2.300305
828.000000	2.337624
829.000000	2.311035
830.000000	2.278673
831.000000	2.329418
832.000000	2.324345
833.000000	2.367805
834.000000	2.339303
835.000000	2.476515
836.000000	2.362129
837.000000	2.375069
838.000000	2.392768
839.000000	2.446224
840.000000	2.402765
841.000000	2.337854
842.000000	2.259892
843.000000	2.345769
844.000000	2.330392
845.000000	2.346171
846.000000	2.374171
847.000000	2.398966
848.000000	2.489282
849.000000	2.295730
850.000000	2.306386
851.000000	2.387748
852.000000	2.417118
853.000000	2.346840
854.000000	2.519009
855.000000	2.369427
856.000000	2.576957
857.000000	2.340703
858.000000	3.736131
859.000000	2.451843
860.000000	2.422574
861.000000	2.412113
862.000000	2.408875
863.000000	2.390237
864.000000	2.360682
865.000000	2.350824
866.000000	2.318055
867.000000	2.294037
868.000000	2.258664
869.000000	2.234911
870.000000	2.201575
871.000000	2.164287
872.000000	2.124973
873.000000	2.108495
874.000000	2.071658
875.000000	2.030944
876.000000	1.979525
877.000000	1.960837
878.000000	1.947298
879.000000	1.911235
880.000000	1.884473
881.000000	1.857460
882.000000	1.820603
883.000000	1.793548
884.000000	1.769455
885.000000	1.747316
886.000000	1.719572
887.000000	1.686631
888.000000	1.665252
889.000000	1.645468
890.000000	1.632400
891.000000	1.622853
892.000000	1.603876
893.000000	1.593189
894.000000	1.558699
895.000000	1.543251
896.000000	1.516101
897.000000	1.498651
898.000000	1.488699
899.000000	1.471094
900.000000	1.454241
901.000000	1.438742
902.000000	1.418241
903.000000	1.405243
904.000000	1.370934
905.000000	1.348197
906.000000	1.344892
907.000000	1.354668
908.000000	1.329192
909.000000	1.339804
910.000000	1.339545
911.000000	1.330120
912.000000	1.318037
913.000000	1.316382
914.000000	1.329538
915.000000	1.330993
916.000000	1.324846
917.000000	1.308468
918.000000	1.325435
919.000000	1.321645
920.000000	1.329402
921.000000	1.328064
922.000000	1.336187
923.000000	1.346602
924.000000	1.320362
925.000000	1.323822
926.000000	1.325622
927.000000	1.321649
928.000000	1.305584
929.000000	1.321794
930.000000	1.313839
931.000000	1.316797
932.000000	1.329524
933.000000	1.329311
934.000000	1.341820
935.000000	1.327114
936.000000	1.343615
937.000000	1.367141
938.000000	1.363402
939.000000	1.363614
940.000000	1.368631
941.000000	1.393697
942.000000	1.397335
943.000000	1.397492
944.000000	1.404206
945.000000	1.393008
946.000000	1.396887
947.000000	1.392230
948.000000	1.390721
949.000000	1.374848
950.000000	1.389434
951.000000	1.388124
952.000000	1.378934
953.000000	1.390257
954.000000	1.389799
955.000000	1.386794
956.000000	1.393653
957.000000	1.406017
958.000000	1.410397
959.000000	1.401597
960.000000	1.415986
961.000000	1.418187
962.000000	1.431662
963.000000	1.430430
964.000000	1.454461
965.000000	1.467044
966.000000	1.471676
967.000000	1.474133
968.000000	1.474960
969.000000	1.476988
970.000000	1.478886
971.000000	1.471329
972.000000	1.471195
973.000000	1.463003
974.000000	1.467884
975.000000	1.460132
976.000000	1.442653
977.000000	1.437901
978.000000	1.429277
979.000000	1.413534
980.000000	1.403151
981.000000	1.395166
982.000000	1.383352
983.000000	1.364705
984.000000	1.365089
985.000000	1.354994
986.000000	1.343135
987.000000	1.332755
988.000000	1.323116
989.000000	1.311713
990.000000	1.301006
991.000000	1.291883
992.000000	1.280507
993.000000	1.272319
994.000000	1.258464
995.000000	1.241853
996.000000	1.226200
997.000000	1.210857
998.000000	1.202414
999.000000	1.195704
1000.000000	1.192228
1001.000000	1.187351
1002.000000	1.173849
1003.000000	1.154162
1004.000000	1.137627
1005.000000	1.135655
1006.000000	1.122421
1007.000000	1.104788
1008.000000	1.099651
1009.000000	1.087763
1010.000000	1.080575
1011.000000	1.079257
1012.000000	1.071733
1013.000000	1.066642
1014.000000	1.071139
1015.000000	1.071886
1016.000000	1.058782
1017.000000	1.056163
1018.000000	1.058478
1019.000000	1.064666
1020.000000	1.075645
1021.000000	1.078820
1022.000000	1.082169
1023.000000	1.092709
1024.000000	1.098091
1025.000000	1.096430
1026.000000	1.101360
1027.000000	1.107876
1028.000000	1.117338
1029.000000	1.121109
1030.000000	1.115421
1031.000000	1.121414
1032.000000	1.131277
1033.000000	1.134755
1034.000000	1.133204
1035.000000	1.122424
1036.000000	1.122956
1037.000000	1.126403
1038.000000	1.124251
1039.000000	1.132557
1040.000000	1.126479
1041.000000	1.119356
1042.000000	1.128395
1043.000000	1.131568
1044.000000	1.128708
1045.000000	1.128010
1046.000000	1.130456
1047.000000	1.124963
1048.000000	1.114938
1049.000000	1.113668
1050.000000	1.112196
1051.000000	1.109366
1052.000000	1.109112
1053.000000	1.099416
1054.000000	1.092251
1055.000000	1.089315
1056.000000	1.073497
1057.000000	1.065957
1058.000000	1.058888
1059.000000	1.047382
1060.000000	1.045368
1061.000000	1.045781
1062.000000	1.035926
1063.000000	1.026577
1064.000000	1.012530
1065.000000	1.010353
1066.000000	1.001693
1067.000000	0.992221
1068.000000	0.991850
1069.000000	0.989688
1070.000000	0.979875
1071.000000	0.970520
1072.000000	0.956505
1073.000000	0.954756
1074.000000	0.945792
1075.000000	0.935781
1076.000000	0.936870
1077.000000	0.931024
1078.000000	0.920585
1079.000000	0.925316
1080.000000	0.914868
1081.000000	0.907651
1082.000000	0.896101
1083.000000	0.888805
1084.000000	0.896597
1085.000000	0.888834
1086.000000	0.889782
1087.000000	0.883690
1088.000000	0.894729
1089.000000	0.889375
1090.000000	0.886405
1091.000000	0.875800
1092.000000	0.884591
1093.000000	0.888561
1094.000000	0.895888
1095.000000	0.894984
1096.000000	0.893400
1097.000000	0.907504
1098.000000	0.899687
1099.000000	0.915645
1100.000000	0.912385
1101.000000	0.913363
1102.000000	0.927044
1103.000000	0.926518
1104.000000	0.928863
1105.000000	0.926032
1106.000000	0.921837
1107.000000	0.930835
1108.000000	0.947896
1109.000000	0.952603
1110.000000	0.957448
1111.000000	0.951111
1112.000000	0.960334
1113.000000	0.973032
1114.000000	0.978321
1115.000000	0.977670
1116.000000	0.988506
1117.000000	0.992065
1118.000000	1.007238
1119.000000	0.999252
1120.000000	0.997687
1121.000000	1.007945
1122.000000	1.015504
1123.000000	1.016765
1124.000000	1.027939
1125.000000	1.013973
1126.000000	1.023849
1127.000000	1.019284
1128.000000	1.023481
1129.000000	1.019008
1130.000000	1.029401
1131.000000	1.019732
1132.000000	1.027017
1133.000000	1.008232
1134.000000	0.988302
1135.000000	0.990298
1136.000000	0.960595
1137.000000	0.966365
1138.000000	0.948483
1139.000000	0.928324
1140.000000	0.921027
1141.000000	0.904250
1142.000000	0.885126
1143.000000	0.874191
1144.000000	0.868709
1145.000000	0.838817
1146.000000	0.847659
1147.000000	0.833523
1148.000000	0.826959
1149.000000	0.826364
1150.000000	0.830142
1151.000000	0.847468
1152.000000	0.826544
1153.000000	0.843144
1154.000000	0.830013
1155.000000	0.840912
1156.000000	0.835277
1157.000000	0.820565
1158.000000	0.821221
1159.000000	0.795629
1160.000000	0.800197
1161.000000	0.795150
1162.000000	0.752420
1163.000000	0.751716
1164.000000	0.729636
1165.000000	0.711762
1166.000000	0.686392
1167.000000	0.676869
1168.000000	0.660719
1169.000000	0.639178
1170.000000	0.625921
1171.000000	0.615873
1172.000000	0.577007
1173.000000	0.570726
1174.000000	0.551158
1175.000000	0.542502
1176.000000	0.516596
1177.000000	0.500364
1178.000000	0.492104
1179.000000	0.472243
1180.000000	0.452748
1181.000000	0.415447
1182.000000	0.392957
1183.000000	0.357506
1184.000000	0.328321
1185.000000	0.314010
1186.000000	0.299341
1187.000000	0.297142
1188.000000	0.301244
1189.000000	0.301271
1190.000000	0.323790
1191.000000	0.337597
1192.000000	0.359186
1193.000000	0.376324
1194.000000	0.395223
1195.000000	0.421919
1196.000000	0.439264
1197.000000	0.460654
1198.000000	0.464338
1199.000000	0.454216
1200.000000	0.458585
1201.000000	0.477505
1202.000000	0.474061
1203.000000	0.472998
1204.000000	0.467380
1205.000000	0.476221
1206.000000	0.459347
1207.000000	0.476426
1208.000000	0.480386
1209.000000	0.467084
1210.000000	0.480599
1211.000000	0.485946
1212.000000	0.496024
1213.000000	0.503984
1214.000000	0.502204
1215.000000	0.507241
1216.000000	0.512772
1217.000000	0.524579
1218.000000	0.539889
1219.000000	0.551579
1220.000000	0.555015
1221.000000	0.560423
1222.000000	0.576209
1223.000000	0.592519
1224.000000	0.616161
1225.000000	0.619180
1226.000000	0.625809
1227.000000	0.635454
1228.000000	0.646338
1229.000000	0.661248
1230.000000	0.671920
1231.000000	0.683136
1232.000000	0.700015
1233.000000	0.710975
1234.000000	0.716414
1235.000000	0.715995
1236.000000	0.720708
1237.000000	0.735732
1238.000000	0.743396
1239.000000	0.743103
1240.000000	0.751372
1241.000000	0.749001
1242.000000	0.760782
1243.000000	0.773146
1244.000000	0.775742
1245.000000	0.765434
1246.000000	0.780766
1247.000000	0.788497
1248.000000	0.792988
1249.000000	0.801179
1250.000000	0.796470
1251.000000	0.810360
1252.000000	0.810146
1253.000000	0.806144
1254.000000	0.809052
1255.000000	0.810472
1256.000000	0.815703
1257.000000	0.809815
1258.000000	0.809235
1259.000000	0.808599
1260.000000	0.826293
1261.000000	0.836721
1262.000000	0.833128
1263.000000	0.840808
1264.000000	0.844773
1265.000000	0.850982
1266.000000	0.854232
1267.000000	0.851024
1268.000000	0.841228
1269.000000	0.836754
1270.000000	0.848566
1271.000000	0.847946
1272.000000	0.849545
1273.000000	0.861279
1274.000000	0.859532
1275.000000	0.858252
1276.000000	0.857698
1277.000000	0.853545
1278.000000	0.854378
1279.000000	0.863918
1280.000000	0.861065
1281.000000	0.858677
1282.000000	0.859499
1283.000000	0.866476
1284.000000	0.869641
1285.000000	0.862846
1286.000000	0.858799
1287.000000	0.859624
1288.000000	0.859357
1289.000000	0.861578
1290.000000	0.868933
1291.000000	0.863127
1292.000000	0.865618
1293.000000	0.869791
1294.000000	0.868081
1295.000000	0.872813
1296.000000	0.873320
1297.000000	0.878669
1298.000000	0.879424
1299.000000	0.874762
1300.000000	0.879230
1301.000000	0.886748
1302.000000	0.884548
1303.000000	0.877579
1304.000000	0.869413
1305.000000	0.871975
1306.000000	0.869671
1307.000000	0.872320
1308.000000	0.881182
1309.000000	0.883408
1310.000000	0.885267
1311.000000	0.879815
1312.000000	0.882679
1313.000000	0.880819
1314.000000	0.879828
1315.000000	0.889023
1316.000000	0.891811
1317.000000	0.883621
1318.000000	0.880449
1319.000000	0.876175
1320.000000	0.872077
1321.000000	0.876849
1322.000000	0.882229
1323.000000	0.878977
1324.000000	0.873008
1325.000000	0.871991
1326.000000	0.870725
1327.000000	0.862862
1328.000000	0.863718
1329.000000	0.865231
1330.000000	0.858991
1331.000000	0.844315
1332.000000	0.851145
1333.000000	0.852754
1334.000000	0.843304
1335.000000	0.847646
1336.000000	0.840391
1337.000000	0.835364
1338.000000	0.831434
1339.000000	0.826549
1340.000000	0.816255
1341.000000	0.810513
1342.000000	0.804329
1343.000000	0.802672
1344.000000	0.797007
1345.000000	0.797423
1346.000000	0.780470
1347.000000	0.797526
1348.000000	0.791860
1349.000000	0.784521
1350.000000	0.769578
1351.000000	0.752733
1352.000000	0.737692
1353.000000	0.710242
1354.000000	0.700677
1355.000000	0.693235
1356.000000	0.678129
1357.000000	0.654954
1358.000000	0.641505
1359.000000	0.643634
1360.000000	0.655021
1361.000000	0.656905
1362.000000	0.660434
1363.000000	0.678922
1364.000000	0.663850
1365.000000	0.654153
1366.000000	0.660201
1367.000000	0.657244
1368.000000	0.648740
1369.000000	0.646253
1370.000000	0.631361
1371.000000	0.638606
1372.000000	0.634743
1373.000000	0.615208
1374.000000	0.609493
1375.000000	0.612911
1376.000000	0.594151
1377.000000	0.586959
1378.000000	0.585075
1379.000000	0.577750
1380.000000	0.631807
1381.000000	0.575280
1382.000000	0.555174
1383.000000	0.530519
1384.000000	0.486010
1385.000000	0.514253
1386.000000	0.489058
1387.000000	0.475204
1388.000000	0.461656
1389.000000	0.485712
1390.000000	0.488283
1391.000000	0.480038
1392.000000	0.495787
1393.000000	0.524469
1394.000000	0.528827
1395.000000	0.527199
1396.000000	0.574916
1397.000000	0.584465
1398.000000	0.604181
1399.000000	0.608279
1400.000000	0.608332
1401.000000	0.599990
1402.000000	0.666636
1403.000000	0.669877
1404.000000	0.688550
1405.000000	0.681226
1406.000000	0.713472
1407.000000	0.721792
1408.000000	0.735182
1409.000000	0.735138
1410.000000	0.748132
1411.000000	0.772650
1412.000000	0.775087
1413.000000	0.782247
1414.000000	0.792019
1415.000000	0.820470
1416.000000	0.836479
1417.000000	0.843353
1418.000000	0.845089
1419.000000	0.860033
1420.000000	0.863402
1421.000000	0.874902
1422.000000	0.862003
1423.000000	0.868409
1424.000000	0.880798
1425.000000	0.885780
1426.000000	0.898836
1427.000000	0.904585
1428.000000	0.892606
1429.000000	0.899220
1430.000000	0.911950
1431.000000	0.899487
1432.000000	0.899582
1433.000000	0.899278
1434.000000	0.906055
1435.000000	0.901347
1436.000000	0.894370
1437.000000	0.896442
1438.000000	0.907697
1439.000000	0.904267
1440.000000	0.916333
1441.000000	0.905998
1442.000000	0.900083
1443.000000	0.902475
1444.000000	0.914428
1445.000000	0.902249
1446.000000	0.895550
1447.000000	0.906331
1448.000000	0.914207
1449.000000	0.904955
1450.000000	0.909122
1451.000000	0.900926
1452.000000	0.893269
1453.000000	0.896836
1454.000000	0.895279
1455.000000	0.906235
1456.000000	0.901556
1457.000000	0.911086
1458.000000	0.924935
1459.000000	0.907557
1460.000000	0.906460
1461.000000	0.916090
1462.000000	0.925011
1463.000000	0.929207
1464.000000	0.929327
1465.000000	0.944213
1466.000000	0.941390
1467.000000	0.956839
1468.000000	0.957882
1469.000000	0.961149
1470.000000	0.961941
1471.000000	0.966861
1472.000000	0.959278
1473.000000	0.966016
1474.000000	0.969675
1475.000000	0.982699
1476.000000	0.981211
1477.000000	0.979635
1478.000000	0.982963
1479.000000	0.994551
1480.000000	1.004070
1481.000000	1.002224
1482.000000	1.000366
1483.000000	1.001663
1484.000000	0.998986
1485.000000	1.000910
1486.000000	1.005946
1487.000000	1.009171
1488.000000	1.011384
1489.000000	1.011855
1490.000000	1.007758
1491.000000	1.019107
1492.000000	1.015481
1493.000000	1.017751
1494.000000	1.029076
1495.000000	1.038244
1496.000000	1.028705
1497.000000	1.016696
1498.000000	1.013332
1499.000000	1.017393
1500.000000	1.013656
1501.000000	1.018362
1502.000000	0.998442
1503.000000	1.002429
1504.000000	1.006007
1505.000000	1.008803
1506.000000	1.005825
1507.000000	0.997443
1508.000000	0.988420
1509.000000	0.984995
1510.000000	0.985239
1511.000000	0.981387
1512.000000	0.982832
1513.000000	0.979459
1514.000000	0.976522
1515.000000	0.974681
1516.000000	0.973032
1517.000000	0.964621
1518.000000	0.964936
1519.000000	0.967168
1520.000000	0.958666
1521.000000	0.957790
1522.000000	0.953982
1523.000000	0.954121
1524.000000	0.947691
1525.000000	0.947526
1526.000000	0.945720
1527.000000	0.940100
1528.000000	0.928874
1529.000000	0.929444
1530.000000	0.919115
1531.000000	0.922612
1532.000000	0.923178
1533.000000	0.918212
1534.000000	0.905487
1535.000000	0.903864
1536.000000	0.904842
1537.000000	0.905201
1538.000000	0.897468
1539.000000	0.894200
1540.000000	0.899711
1541.000000	0.886620
1542.000000	0.885369
1543.000000	0.885074
1544.000000	0.871080
1545.000000	0.866345
1546.000000	0.861043
1547.000000	0.846283
1548.000000	0.838493
1549.000000	0.823915
1550.000000	0.817131
1551.000000	0.812821
1552.000000	0.806926
1553.000000	0.799318
1554.000000	0.784808
1555.000000	0.777029
1556.000000	0.777169
1557.000000	0.777576
1558.000000	0.769354
1559.000000	0.765785
1560.000000	0.767638
1561.000000	0.756038
1562.000000	0.746025
1563.000000	0.751245
1564.000000	0.745861
1565.000000	0.738793
1566.000000	0.745680
1567.000000	0.744292
1568.000000	0.746459
1569.000000	0.748777
1570.000000	0.742074
1571.000000	0.734402
1572.000000	0.732225
1573.000000	0.727471
1574.000000	0.727826
1575.000000	0.726983
1576.000000	0.720014
1577.000000	0.719915
1578.000000	0.715339
1579.000000	0.705462
1580.000000	0.705359
1581.000000	0.699926
1582.000000	0.683551
1583.000000	0.676269
1584.000000	0.682369
1585.000000	0.678301
1586.000000	0.666749
1587.000000	0.661115
1588.000000	0.662415
1589.000000	0.656592
1590.000000	0.644990
1591.000000	0.644442
1592.000000	0.645310
1593.000000	0.636342
1594.000000	0.622126
1595.000000	0.623266
1596.000000	0.625159
1597.000000	0.617144
1598.000000	0.603621
1599.000000	0.599640
1600.000000	0.598663
1601.000000	0.601569
1602.000000	0.600862
1603.000000	0.589790
1604.000000	0.592622
1605.000000	0.589852
1606.000000	0.575642
1607.000000	0.572984
1608.000000	0.567247
1609.000000	0.568840
1610.000000	0.567888
1611.000000	0.555529
1612.000000	0.550984
1613.000000	0.558184
1614.000000	0.555973
1615.000000	0.552324
1616.000000	0.554592
1617.000000	0.552832
1618.000000	0.544925
1619.000000	0.555882
1620.000000	0.551929
1621.000000	0.551959
1622.000000	0.559023
1623.000000	0.549264
1624.000000	0.548984
1625.000000	0.553880
1626.000000	0.555223
1627.000000	0.553347
1628.000000	0.562881
1629.000000	0.560635
1630.000000	0.566023
1631.000000	0.563448
1632.000000	0.557149
1633.000000	0.559720
1634.000000	0.571508
1635.000000	0.576171
1636.000000	0.579013
1637.000000	0.585993
1638.000000	0.591296
1639.000000	0.588760
1640.000000	0.600581
1641.000000	0.599459
1642.000000	0.599831
1643.000000	0.605867
1644.000000	0.611052
1645.000000	0.616378
1646.000000	0.625243
1647.000000	0.629926
1648.000000	0.631138
1649.000000	0.634768
1650.000000	0.633937
1651.000000	0.648768
1652.000000	0.661955
1653.000000	0.645995
1654.000000	0.664360
1655.000000	0.663526
1656.000000	0.689837
1657.000000	0.690476
1658.000000	0.704561
1659.000000	0.711638
1660.000000	0.726431
1661.000000	0.740602
1662.000000	0.753085
1663.000000	0.766108
1664.000000	0.779245
1665.000000	0.790651
1666.000000	0.800113
1667.000000	0.812934
1668.000000	0.825266
1669.000000	0.838437
1670.000000	0.843723
1671.000000	0.853269
1672.000000	0.855549
1673.000000	0.856457
1674.000000	0.858854
1675.000000	0.856144
1676.000000	0.848824
1677.000000	0.826171
1678.000000	0.810619
1679.000000	0.799282
1680.000000	0.785083
1681.000000	0.784577
1682.000000	0.776358
1683.000000	0.762385
1684.000000	0.760900
1685.000000	0.770536
1686.000000	0.765936
1687.000000	0.774527
1688.000000	0.770757
1689.000000	0.772822
1690.000000	0.762470
1691.000000	0.743506
1692.000000	0.711606
1693.000000	0.694410
1694.000000	0.671841
1695.000000	0.673247
1696.000000	0.665918
1697.000000	0.647298
1698.000000	0.654307
1699.000000	0.677816
1700.000000	0.675469
1701.000000	0.700371
1702.000000	0.706414
1703.000000	0.714043
1704.000000	0.736898
1705.000000	0.749509
1706.000000	0.752836
1707.000000	0.771837
1708.000000	0.782656
1709.000000	0.790387
1710.000000	0.802469
1711.000000	0.820380
1712.000000	0.837351
1713.000000	0.863382
1714.000000	0.880235
1715.000000	0.905494
1716.000000	0.908538
1717.000000	0.946838
1718.000000	0.957103
1719.000000	0.975801
1720.000000	1.006084
1721.000000	1.015068
1722.000000	1.017270
1723.000000	1.019180
1724.000000	1.017005
1725.000000	1.020309
1726.000000	1.013306
1727.000000	0.996595
1728.000000	0.985483
1729.000000	0.969736
1730.000000	0.958342
1731.000000	0.938136
1732.000000	0.939969
1733.000000	0.928634
1734.000000	0.916080
1735.000000	0.908262
1736.000000	0.897974
1737.000000	0.899405
1738.000000	0.897389
1739.000000	0.895016
1740.000000	0.896192
1741.000000	0.904755
1742.000000	0.900533
1743.000000	0.907309
1744.000000	0.913921
1745.000000	0.912458
1746.000000	0.915650
1747.000000	0.916286
1748.000000	0.913647
1749.000000	0.924257
1750.000000	0.920786
1751.000000	0.920127
1752.000000	0.911337
1753.000000	0.915083
1754.000000	0.922495
1755.000000	0.914632
1756.000000	0.922219
1757.000000	0.920840
1758.000000	0.911147
1759.000000	0.907933
1760.000000	0.910098
1761.000000	0.905581
1762.000000	0.892411
1763.000000	0.883337
1764.000000	0.876208
1765.000000	0.871475
1766.000000	0.873305
1767.000000	0.872930
1768.000000	0.868889
1769.000000	0.860833
1770.000000	0.867769
1771.000000	0.866824
1772.000000	0.873541
1773.000000	0.879200
1774.000000	0.879288
1775.000000	0.866198
1776.000000	0.871097
1777.000000	0.880203
1778.000000	0.874100
1779.000000	0.879604
1780.000000	0.889524
1781.000000	0.885978
1782.000000	0.889193
1783.000000	0.887722
1784.000000	0.887987
1785.000000	0.899124
1786.000000	0.893999
1787.000000	0.900351
1788.000000	0.911453
1789.000000	0.902221
1790.000000	0.901281
1791.000000	0.906748
1792.000000	0.901584
1793.000000	0.905683
1794.000000	0.907419
1795.000000	0.917682
1796.000000	0.915003
1797.000000	0.898857
1798.000000	0.901518
1799.000000	0.903296
1800.000000	0.904657
1801.000000	0.910047
1802.000000	0.907243
1803.000000	0.903875
1804.000000	0.909013
1805.000000	0.912431
1806.000000	0.901366
1807.000000	0.894829
1808.000000	0.901266
1809.000000	0.912675
1810.000000	0.911393
1811.000000	0.903538
1812.000000	0.905613
1813.000000	0.902736
1814.000000	0.910856
1815.000000	0.908803
1816.000000	0.903368
1817.000000	0.906291
1818.000000	0.916018
1819.000000	0.926668
1820.000000	0.918009
1821.000000	0.905368
1822.000000	0.905001
1823.000000	0.912895
1824.000000	0.917292
1825.000000	0.920892
1826.000000	0.918025
1827.000000	0.912121
1828.000000	0.907792
1829.000000	0.915967
1830.000000	0.926225
1831.000000	0.916346
1832.000000	0.923334
1833.000000	0.932507
1834.000000	0.930498
1835.000000	0.934744
1836.000000	0.943243
1837.000000	0.946488
1838.000000	0.947726
1839.000000	0.957392
1840.000000	0.955132
1841.000000	0.931287
1842.000000	0.915294
1843.000000	0.928520
1844.000000	0.941295
1845.000000	0.943290
1846.000000	0.949509
1847.000000	0.949587
1848.000000	0.945956
1849.000000	0.956444
1850.000000	0.967917
1851.000000	0.961827
1852.000000	0.959491
1853.000000	0.956804
1854.000000	0.965246
1855.000000	0.980072
1856.000000	0.987884
1857.000000	0.998747
1858.000000	1.011144
1859.000000	1.012486
1860.000000	1.020744
1861.000000	1.024067
1862.000000	1.027102
1863.000000	1.026032
1864.000000	1.030518
1865.000000	1.048660
1866.000000	1.067147
1867.000000	1.079951
1868.000000	1.097101
1869.000000	1.131790
1870.000000	1.131286
1871.000000	1.122320
1872.000000	1.130293
1873.000000	1.124261
1874.000000	1.120830
1875.000000	1.126165
1876.000000	1.129024
1877.000000	1.124702
1878.000000	1.124510
1879.000000	1.134685
1880.000000	1.144904
1881.000000	1.152208
1882.000000	1.153347
1883.000000	1.172223
1884.000000	1.187386
1885.000000	1.202150
1886.000000	1.217761
1887.000000	1.237224
1888.000000	1.272382
1889.000000	1.331048
1890.000000	1.353998
1891.000000	1.380499
1892.000000	1.413025
1893.000000	1.436776
1894.000000	1.472046
1895.000000	1.513175
1896.000000	1.560363
1897.000000	1.601160
1898.000000	1.623247
1899.000000	1.654881
1900.000000	1.696698
1901.000000	1.716799
1902.000000	1.727113
1903.000000	1.775080
1904.000000	1.802113
1905.000000	1.809203
1906.000000	1.807758
1907.000000	1.809050
1908.000000	1.815599
1909.000000	1.817439
1910.000000	1.848383
1911.000000	1.855655
1912.000000	1.865662
1913.000000	1.856609
1914.000000	1.848844
1915.000000	1.844050
1916.000000	1.837151
1917.000000	1.846905
1918.000000	1.865616
1919.000000	1.855303
1920.000000	1.850205
1921.000000	1.834218
1922.000000	1.817401
1923.000000	1.821362
1924.000000	1.820804
1925.000000	1.826002
1926.000000	1.813543
1927.000000	1.806432
1928.000000	1.801287
1929.000000	1.798019
1930.000000	1.775601
1931.000000	1.779620
1932.000000	1.775066
1933.000000	1.756960
1934.000000	1.763768
1935.000000	1.755977
1936.000000	1.773415
1937.000000	1.770334
1938.000000	1.759899
1939.000000	1.755018
1940.000000	1.742165
1941.000000	1.740957
1942.000000	1.743802
1943.000000	1.737035
1944.000000	1.746410
1945.000000	1.732015
1946.000000	1.723636
1947.000000	1.745799
1948.000000	1.730998
1949.000000	1.722580
1950.000000	1.726785
1951.000000	1.733186
1952.000000	1.720203
1953.000000	1.733785
1954.000000	1.713583
1955.000000	1.701884
1956.000000	1.723209
1957.000000	1.724988
1958.000000	1.734355
1959.000000	1.715244
1960.000000	1.745220
1961.000000	1.716620
1962.000000	1.724455
1963.000000	1.715535
1964.000000	1.728815
1965.000000	1.724004
1966.000000	1.712697
1967.000000	1.708146
1968.000000	1.716187
1969.000000	1.709976
1970.000000	1.713074
1971.000000	1.701590
1972.000000	1.717210
1973.000000	1.712137
1974.000000	1.700008
1975.000000	1.706994
1976.000000	1.711872
1977.000000	1.708716
1978.000000	1.706245
1979.000000	1.699547
1980.000000	1.699240
1981.000000	1.693915
1982.000000	1.702158
1983.000000	1.699868
1984.000000	1.714484
1985.000000	1.696673
1986.000000	1.689828
1987.000000	1.698954
1988.000000	1.697906
1989.000000	1.688882
1990.000000	1.701238
1991.000000	1.697470
1992.000000	1.692592
1993.000000	1.686501
1994.000000	1.692014
1995.000000	1.691573
1996.000000	1.698757
1997.000000	1.698287
1998.000000	1.689041
1999.000000	1.698997
2000.000000	1.690434
2001.000000	1.687757
2002.000000	1.699155
2003.000000	1.689716
2004.000000	1.686385
2005.000000	1.688258
2006.000000	1.683918
2007.000000	1.696213
2008.000000	1.684347
2009.000000	1.691734
2010.000000	1.688463
2011.000000	1.682432
2012.000000	1.689295
2013.000000	1.685478
2014.000000	1.702103
2015.000000	1.704744
2016.000000	1.699199
2017.000000	1.703652
2018.000000	1.696757
2019.000000	1.698212
2020.000000	1.695317
2021.000000	1.700919
2022.000000	1.707552
2023.000000	1.700081
2024.000000	1.697540
2025.000000	1.699661
2026.000000	1.707525
2027.000000	1.709874
2028.000000	1.707211
2029.000000	1.699483
2030.000000	1.698599
2031.000000	1.713457
2032.000000	1.720291
2033.000000	1.719437
2034.000000	1.719706
2035.000000	1.720925
2036.000000	1.722639
2037.000000	1.719627
2038.000000	1.724380
2039.000000	1.714239
2040.000000	1.715855
2041.000000	1.712869
2042.000000	1.712771
2043.000000	1.718047
2044.000000	1.719361
2045.000000	1.707163
2046.000000	1.700492
2047.000000	1.699788
2048.000000	1.691473
2049.000000	1.692101
2050.000000	1.683486
2051.000000	1.673349
2052.000000	1.668014
2053.000000	1.647631
2054.000000	1.642372
2055.000000	1.640531
2056.000000	1.626890
2057.000000	1.623122
2058.000000	1.612076
2059.000000	1.591890
2060.000000	1.582561
2061.000000	1.572383
2062.000000	1.565912
2063.000000	1.554102
2064.000000	1.546746
2065.000000	1.537304
2066.000000	1.518285
2067.000000	1.518172
2068.000000	1.517737
2069.000000	1.506409
2070.000000	1.498386
2071.000000	1.497357
2072.000000	1.486902
2073.000000	1.483190
2074.000000	1.482405
2075.000000	1.469325
2076.000000	1.467385
2077.000000	1.467456
2078.000000	1.466885
2079.000000	1.461330
2080.000000	1.456123
2081.000000	1.452791
2082.000000	1.455328
2083.000000	1.455067
2084.000000	1.452705
2085.000000	1.457837
2086.000000	1.455539
2087.000000	1.451871
2088.000000	1.454991
2089.000000	1.448660
2090.000000	1.445198
2091.000000	1.455648
2092.000000	1.458473
2093.000000	1.452902
2094.000000	1.448698
2095.000000	1.450011
2096.000000	1.451037
2097.000000	1.456983
2098.000000	1.459561
2099.000000	1.454866
2100.000000	1.450816
2101.000000	1.452969
2102.000000	1.457892
2103.000000	1.458578
2104.000000	1.462000
2105.000000	1.462172
2106.000000	1.463568
2107.000000	1.464129
2108.000000	1.466210
2109.000000	1.471782
2110.000000	1.472058
2111.000000	1.462560
2112.000000	1.462704
2113.000000	1.472966
2114.000000	1.474067
2115.000000	1.472069
2116.000000	1.481361
2117.000000	1.478936
2118.000000	1.482916
2119.000000	1.475472
2120.000000	1.478064
2121.000000	1.486743
2122.000000	1.498135
2123.000000	1.494281
2124.000000	1.493586
2125.000000	1.500477
2126.000000	1.508801
2127.000000	1.507867
2128.000000	1.512275
2129.000000	1.520811
2130.000000	1.518509
2131.000000	1.515816
2132.000000	1.520495
2133.000000	1.525734
2134.000000	1.525650
2135.000000	1.531455
2136.000000	1.529101
2137.000000	1.530051
2138.000000	1.542701
2139.000000	1.539210
2140.000000	1.541193
2141.000000	1.543762
2142.000000	1.536157
2143.000000	1.539100
2144.000000	1.542450
2145.000000	1.545358
2146.000000	1.534133
2147.000000	1.533129
2148.000000	1.531147
2149.000000	1.535609
2150.000000	1.536236
2151.000000	1.550075
2152.000000	1.549787
2153.000000	1.537289
2154.000000	1.529090
2155.000000	1.534317
2156.000000	1.534619
2157.000000	1.521735
2158.000000	1.515155
2159.000000	1.514774
2160.000000	1.512265
2161.000000	1.508660
2162.000000	1.514448
2163.000000	1.500641
2164.000000	1.490802
2165.000000	1.499252
2166.000000	1.501060
2167.000000	1.491203
2168.000000	1.491471
2169.000000	1.489631
2170.000000	1.464015
2171.000000	1.467940
2172.000000	1.456669
2173.000000	1.469054
2174.000000	1.461940
2175.000000	1.449569
2176.000000	1.444172
2177.000000	1.433786
2178.000000	1.424061
2179.000000	1.435876
2180.000000	1.433764
2181.000000	1.418002
2182.000000	1.419740
2183.000000	1.405306
2184.000000	1.406264
2185.000000	1.405264
2186.000000	1.392366
2187.000000	1.395549
2188.000000	1.372960
2189.000000	1.370440
2190.000000	1.354500
2191.000000	1.347933
2192.000000	1.336218
2193.000000	1.338719
2194.000000	1.321671
2195.000000	1.300693
2196.000000	1.287084
2197.000000	1.254839
2198.000000	1.240902
2199.000000	1.224879
2200.000000	1.204963
2201.000000	1.178716
2202.000000	1.153090
2203.000000	1.139695
2204.000000	1.109937
2205.000000	1.095313
2206.000000	1.076915
2207.000000	1.063942
2208.000000	1.047329
2209.000000	1.031373
2210.000000	1.021786
2211.000000	1.006458
2212.000000	1.007662
2213.000000	1.001000
2214.000000	1.000087
2215.000000	0.998055
2216.000000	1.003000
2217.000000	1.007030
2218.000000	1.009673
2219.000000	1.009674
2220.000000	1.008109
2221.000000	1.018293
2222.000000	1.021193
2223.000000	1.029562
2224.000000	1.048352
2225.000000	1.061999
2226.000000	1.040926
2227.000000	1.048757
2228.000000	1.064179
2229.000000	1.058772
2230.000000	1.059002
2231.000000	1.076557
2232.000000	1.077904
2233.000000	1.081344
2234.000000	1.089231
2235.000000	1.090253
2236.000000	1.099824
2237.000000	1.083708
2238.000000	1.081377
2239.000000	1.097624
2240.000000	1.096259
2241.000000	1.096322
2242.000000	1.081304
2243.000000	1.103268
2244.000000	1.101793
2245.000000	1.093802
2246.000000	1.083633
2247.000000	1.094553
2248.000000	1.094602
2249.000000	1.095904
2250.000000	1.088470
2251.000000	1.093823
2252.000000	1.100885
2253.000000	1.069217
2254.000000	1.071269
2255.000000	1.077769
2256.000000	1.057911
2257.000000	1.056478
2258.000000	1.051523
2259.000000	1.043363
2260.000000	1.038513
2261.000000	1.023347
2262.000000	1.003572
2263.000000	1.002015
2264.000000	0.992541
2265.000000	0.977200
2266.000000	0.963149
2267.000000	0.976932
2268.000000	0.971014
2269.000000	0.969475
2270.000000	0.966240
2271.000000	0.973145
2272.000000	0.953903
2273.000000	0.956872
2274.000000	0.968358
2275.000000	0.975867
2276.000000	0.981671
2277.000000	0.992008
2278.000000	0.997180
2279.000000	1.005881
2280.000000	1.012832
2281.000000	1.023737
2282.000000	1.042816
2283.000000	1.045304
2284.000000	1.050924
2285.000000	1.066232
2286.000000	1.080325
2287.000000	1.081766
2288.000000	1.086560
2289.000000	1.091697
2290.000000	1.114731
2291.000000	1.112050
2292.000000	1.105928
2293.000000	1.108104
2294.000000	1.124500
2295.000000	1.125061
2296.000000	1.123395
2297.000000	1.106235
2298.000000	1.111420
2299.000000	1.114835
2300.000000	1.095422
2301.000000	1.081174
2302.000000	1.080961
2303.000000	1.074299
2304.000000	1.067382
2305.000000	1.068999
2306.000000	1.059289
2307.000000	1.050927
2308.000000	1.046547
2309.000000	1.054140
2310.000000	1.063470
2311.000000	1.073582
2312.000000	1.074225
2313.000000	1.080785
2314.000000	1.087755
2315.000000	1.104477
2316.000000	1.109362
2317.000000	1.128242
2318.000000	1.134669
2319.000000	1.140512
2320.000000	1.161684
2321.000000	1.182833
2322.000000	1.194253
2323.000000	1.211719
2324.000000	1.219459
2325.000000	1.232005
2326.000000	1.247265
2327.000000	1.257382
2328.000000	1.264850
2329.000000	1.281532
2330.000000	1.288705
2331.000000	1.283117
2332.000000	1.293661
2333.000000	1.299794
2334.000000	1.310497
2335.000000	1.310750
2336.000000	1.317582
2337.000000	1.319420
2338.000000	1.310305
2339.000000	1.316401
2340.000000	1.314473
2341.000000	1.312833
2342.000000	1.312853
2343.000000	1.306195
2344.000000	1.297574
2345.000000	1.294587
2346.000000	1.285008
2347.000000	1.273444
2348.000000	1.269513
2349.000000	1.267398
2350.000000	1.263152
2351.000000	1.263154
2352.000000	1.254951
2353.000000	1.251841
2354.000000	1.251534
2355.000000	1.248174
2356.000000	1.247807
2357.000000	1.249995
2358.000000	1.256235
2359.000000	1.256392
2360.000000	1.253433
2361.000000	1.260765
2362.000000	1.277429
2363.000000	1.284254
2364.000000	1.278616
2365.000000	1.282171
2366.000000	1.286234
2367.000000	1.283367
2368.000000	1.290191
2369.000000	1.295527
2370.000000	1.307443
2371.000000	1.312968
2372.000000	1.309611
2373.000000	1.310219
2374.000000	1.306834
2375.000000	1.298847
2376.000000	1.301310
2377.000000	1.310021
2378.000000	1.309682
2379.000000	1.312779
2380.000000	1.323339
2381.000000	1.318623
2382.000000	1.306222
2383.000000	1.310209
2384.000000	1.306507
2385.000000	1.307937
2386.000000	1.314142
2387.000000	1.304589
2388.000000	1.306443
2389.000000	1.304364
2390.000000	1.296987
2391.000000	1.298775
2392.000000	1.295929
2393.000000	1.296510
2394.000000	1.301272
2395.000000	1.298468
2396.000000	1.289476
2397.000000	1.290136
2398.000000	1.285394
2399.000000	1.283265
2400.000000	1.267591
2401.000000	1.261684
2402.000000	1.270195
2403.000000	1.264160
2404.000000	1.255659
2405.000000	1.251883
2406.000000	1.254059
2407.000000	1.251952
2408.000000	1.253583
2409.000000	1.248156
2410.000000	1.233812
2411.000000	1.234390
2412.000000	1.232467
2413.000000	1.227116
2414.000000	1.216999
2415.000000	1.222816
2416.000000	1.219906
2417.000000	1.205134
2418.000000	1.201300
2419.000000	1.190952
2420.000000	1.193096
2421.000000	1.200592
2422.000000	1.203371
2423.000000	1.201144
2424.000000	1.189379
2425.000000	1.169987
2426.000000	1.155949
2427.000000	1.153993
2428.000000	1.161335
2429.000000	1.151190
2430.000000	1.149968
2431.000000	1.151094
2432.000000	1.146986
2433.000000	1.148996
2434.000000	1.121737
2435.000000	1.121958
2436.000000	1.120944
2437.000000	1.123102
2438.000000	1.119090
2439.000000	1.105033
2440.000000	1.101915
2441.000000	1.094005
2442.000000	1.084087
2443.000000	1.071326
2444.000000	1.067682
2445.000000	1.059641
2446.000000	1.059608
2447.000000	1.051236
2448.000000	1.043289
2449.000000	1.033866
2450.000000	1.043971
2451.000000	1.032299
2452.000000	1.030332
2453.000000	1.004015
2454.000000	0.999517
2455.000000	1.015726
2456.000000	0.992610
2457.000000	0.990570
2458.000000	0.975314
2459.000000	0.969519
2460.000000	0.962012
2461.000000	0.949798
2462.000000	0.960164
2463.000000	0.954837
2464.000000	0.941942
2465.000000	0.916388
2466.000000	0.959023
2467.000000	0.940857
2468.000000	0.933685
2469.000000	0.946819
2470.000000	0.931467
2471.000000	0.923106
2472.000000	0.910877
2473.000000	0.921129
2474.000000	0.921784
2475.000000	0.933100
2476.000000	0.932901
2477.000000	0.894349
2478.000000	0.900389
2479.000000	0.881908
2480.000000	0.902373
2481.000000	0.915057
2482.000000	0.883163
2483.000000	0.868297
2484.000000	0.866943
2485.000000	0.898930
2486.000000	0.886844
2487.000000	0.917102
2488.000000	0.888876
2489.000000	0.890647
2490.000000	0.928722
2491.000000	0.856930
2492.000000	0.864946
2493.000000	0.871772
2494.000000	0.916729
2495.000000	0.942254
2496.000000	0.856488
2497.000000	0.880787
2498.000000	0.900566
2499.000000	0.841479
2500.000000	0.844866
