PE UV       SUBTECH     SPECTRUM    ASCII       PEDS        4.00        
   -1
CICIMAUCR0225-3.Sample.ASC
24/05/27
16:32:59.00
24/05/27
16:32:59.00
Vinicio Soto Monge
C. resplendens, F
250,000000
1
Lambda 1050
1050L1511233
PerkinElmer UV WinLab 6.3.2.0749 / 2.02.05 Lambda 900 UV/VIS/NIR, Aug  7 2015 09:38:08

0
0
3350/servo 860,8/2
0
0
UV/VIS
1
1
1
DoubleDePol,CommonBeamDepol,RBeamAtt,SBeamAtt,60mm sphere, WB InGaAs Detector
0
0
0
0
Program
Program
3350/servo 860,8/2
3350/0,2 860,8/0,2
3350/0,2 860,8/0,2
0
15.00
 
 
 
0
 
860,8
319,2
860,8
Front
100
on
S:100 R:100
0
0
0
0
 
0
 
 
 
0
 
 
0
0
0
0
0
 
 
 
 
0
0


0
0
#HDR
-1
-1
#GR
nm
%R
1.0
0.0
2500,000000
-1,000000
2251
8
72,869500
5,660100
#DATA
250.000000	0.277008
251.000000	0.291703
252.000000	0.293703
253.000000	0.273636
254.000000	0.283739
255.000000	0.266734
256.000000	0.265866
257.000000	0.242168
258.000000	0.233120
259.000000	0.259155
260.000000	0.266551
261.000000	0.252104
262.000000	0.272817
263.000000	0.275538
264.000000	0.276731
265.000000	0.261981
266.000000	0.257001
267.000000	0.231115
268.000000	0.214224
269.000000	0.232601
270.000000	0.214846
271.000000	0.212274
272.000000	0.220746
273.000000	0.194662
274.000000	0.202577
275.000000	0.217448
276.000000	0.222010
277.000000	0.213131
278.000000	0.185785
279.000000	0.229692
280.000000	0.219631
281.000000	0.199617
282.000000	0.225388
283.000000	0.218665
284.000000	0.236734
285.000000	0.211439
286.000000	0.195136
287.000000	0.225545
288.000000	0.210161
289.000000	0.213865
290.000000	0.200502
291.000000	0.187192
292.000000	0.191789
293.000000	0.204649
294.000000	0.195988
295.000000	0.212230
296.000000	0.213635
297.000000	0.192694
298.000000	0.167120
299.000000	0.174820
300.000000	0.166684
301.000000	0.172482
302.000000	0.182736
303.000000	0.197735
304.000000	0.179298
305.000000	0.159016
306.000000	0.178352
307.000000	0.184182
308.000000	0.176365
309.000000	0.194503
310.000000	0.192944
311.000000	0.186102
312.000000	0.171015
313.000000	0.172728
314.000000	0.193135
315.000000	0.169773
316.000000	0.357420
317.000000	0.705611
318.000000	0.816304
319.000000	0.868221
320.000000	0.683869
321.000000	0.622516
322.000000	0.955499
323.000000	0.485490
324.000000	0.612110
325.000000	0.536092
326.000000	0.333096
327.000000	0.260695
328.000000	0.252451
329.000000	0.284565
330.000000	0.517177
331.000000	0.625661
332.000000	0.443296
333.000000	0.317887
334.000000	0.312281
335.000000	0.169579
336.000000	0.317985
337.000000	0.328112
338.000000	0.283463
339.000000	0.384621
340.000000	0.387324
341.000000	0.385922
342.000000	0.356784
343.000000	0.292396
344.000000	0.301534
345.000000	0.364605
346.000000	0.404412
347.000000	0.329693
348.000000	0.260479
349.000000	0.185346
350.000000	0.191060
351.000000	0.244870
352.000000	0.266747
353.000000	0.298826
354.000000	0.233522
355.000000	0.204834
356.000000	0.224228
357.000000	0.287068
358.000000	0.274925
359.000000	0.260824
360.000000	0.288986
361.000000	0.240218
362.000000	0.303611
363.000000	0.257948
364.000000	0.218154
365.000000	0.163663
366.000000	0.130808
367.000000	0.198798
368.000000	0.206288
369.000000	0.153527
370.000000	0.062009
371.000000	0.158937
372.000000	0.191082
373.000000	0.248516
374.000000	0.140570
375.000000	0.145679
376.000000	0.206632
377.000000	0.205494
378.000000	0.204079
379.000000	0.200265
380.000000	0.198766
381.000000	0.194520
382.000000	0.203537
383.000000	0.206017
384.000000	0.191559
385.000000	0.194604
386.000000	0.187000
387.000000	0.157141
388.000000	0.158461
389.000000	0.162995
390.000000	0.164621
391.000000	0.166082
392.000000	0.161451
393.000000	0.151569
394.000000	0.156466
395.000000	0.173651
396.000000	0.166633
397.000000	0.174343
398.000000	0.192749
399.000000	0.197978
400.000000	0.206174
401.000000	0.209945
402.000000	0.226891
403.000000	0.250773
404.000000	0.258242
405.000000	0.275333
406.000000	0.299135
407.000000	0.311204
408.000000	0.330728
409.000000	0.355396
410.000000	0.377116
411.000000	0.398100
412.000000	0.428267
413.000000	0.459445
414.000000	0.502114
415.000000	0.526615
416.000000	0.569007
417.000000	0.602086
418.000000	0.631750
419.000000	0.665114
420.000000	0.715521
421.000000	0.742990
422.000000	0.797959
423.000000	0.834046
424.000000	0.874475
425.000000	0.916282
426.000000	0.981366
427.000000	1.012996
428.000000	1.054901
429.000000	1.120463
430.000000	1.187334
431.000000	1.238454
432.000000	1.293944
433.000000	1.337297
434.000000	1.392438
435.000000	1.462147
436.000000	1.517585
437.000000	1.547772
438.000000	1.590994
439.000000	1.644935
440.000000	1.702300
441.000000	1.742452
442.000000	1.791232
443.000000	1.795485
444.000000	1.839115
445.000000	1.865231
446.000000	1.865795
447.000000	1.868063
448.000000	1.864928
449.000000	1.837287
450.000000	1.840229
451.000000	1.817770
452.000000	1.768141
453.000000	1.723169
454.000000	1.680628
455.000000	1.617477
456.000000	1.529994
457.000000	1.483292
458.000000	1.426555
459.000000	1.348636
460.000000	1.263378
461.000000	1.217905
462.000000	1.145648
463.000000	1.080516
464.000000	0.995193
465.000000	0.910301
466.000000	0.856045
467.000000	0.789074
468.000000	0.718072
469.000000	0.653385
470.000000	0.597285
471.000000	0.508192
472.000000	0.435383
473.000000	0.358291
474.000000	0.299816
475.000000	0.233837
476.000000	0.203437
477.000000	0.218070
478.000000	0.284314
479.000000	0.362606
480.000000	0.475843
481.000000	0.610308
482.000000	0.749304
483.000000	0.854281
484.000000	0.967123
485.000000	1.059649
486.000000	1.145736
487.000000	1.240292
488.000000	1.313705
489.000000	1.342707
490.000000	1.380204
491.000000	1.406600
492.000000	1.420831
493.000000	1.416049
494.000000	1.382084
495.000000	1.357899
496.000000	1.305704
497.000000	1.236500
498.000000	1.184861
499.000000	1.095217
500.000000	0.998712
501.000000	0.903138
502.000000	0.848369
503.000000	0.784275
504.000000	0.749608
505.000000	0.732018
506.000000	0.773376
507.000000	0.799245
508.000000	0.904300
509.000000	1.016983
510.000000	1.118146
511.000000	1.252612
512.000000	1.381733
513.000000	1.494231
514.000000	1.622152
515.000000	1.742958
516.000000	1.840176
517.000000	1.931576
518.000000	2.018710
519.000000	2.091088
520.000000	2.166255
521.000000	2.218751
522.000000	2.242089
523.000000	2.280637
524.000000	2.312235
525.000000	2.312226
526.000000	2.310230
527.000000	2.325848
528.000000	2.308186
529.000000	2.283487
530.000000	2.257570
531.000000	2.217868
532.000000	2.169218
533.000000	2.137880
534.000000	2.070240
535.000000	1.999291
536.000000	1.907584
537.000000	1.817275
538.000000	1.718898
539.000000	1.607401
540.000000	1.477614
541.000000	1.360218
542.000000	1.243745
543.000000	1.122924
544.000000	1.020445
545.000000	0.930946
546.000000	0.820501
547.000000	0.721332
548.000000	0.678527
549.000000	0.627745
550.000000	0.603538
551.000000	0.581158
552.000000	0.602359
553.000000	0.623776
554.000000	0.628805
555.000000	0.719080
556.000000	0.743244
557.000000	0.815421
558.000000	0.877015
559.000000	0.931914
560.000000	0.983454
561.000000	1.074152
562.000000	1.158265
563.000000	1.283255
564.000000	1.374820
565.000000	1.445657
566.000000	1.570255
567.000000	1.673463
568.000000	1.791636
569.000000	1.896979
570.000000	1.990027
571.000000	2.082588
572.000000	2.175525
573.000000	2.268556
574.000000	2.361468
575.000000	2.437930
576.000000	2.499620
577.000000	2.582102
578.000000	2.649352
579.000000	2.704330
580.000000	2.757023
581.000000	2.819183
582.000000	2.864927
583.000000	2.909909
584.000000	2.964302
585.000000	3.044991
586.000000	3.082614
587.000000	3.129313
588.000000	3.227720
589.000000	3.299254
590.000000	3.341204
591.000000	3.414503
592.000000	3.500495
593.000000	3.568852
594.000000	3.622146
595.000000	3.693011
596.000000	3.748212
597.000000	3.807951
598.000000	3.855287
599.000000	3.891955
600.000000	3.933181
601.000000	3.963431
602.000000	3.983500
603.000000	3.989226
604.000000	3.997626
605.000000	4.030142
606.000000	4.037925
607.000000	4.046228
608.000000	4.082158
609.000000	4.116718
610.000000	4.133745
611.000000	4.132831
612.000000	4.182920
613.000000	4.218086
614.000000	4.237767
615.000000	4.226352
616.000000	4.248843
617.000000	4.265199
618.000000	4.265378
619.000000	4.259342
620.000000	4.246509
621.000000	4.230738
622.000000	4.178325
623.000000	4.114117
624.000000	4.070220
625.000000	4.040532
626.000000	4.018495
627.000000	3.963859
628.000000	3.930978
629.000000	3.918718
630.000000	3.901843
631.000000	3.917726
632.000000	3.916678
633.000000	3.915558
634.000000	3.925427
635.000000	3.913783
636.000000	3.888249
637.000000	3.855715
638.000000	3.810829
639.000000	3.768051
640.000000	3.695290
641.000000	3.595176
642.000000	3.504165
643.000000	3.360413
644.000000	3.207625
645.000000	3.074244
646.000000	2.925879
647.000000	2.789780
648.000000	2.640596
649.000000	2.481726
650.000000	2.361175
651.000000	2.244058
652.000000	2.124185
653.000000	2.026567
654.000000	1.943590
655.000000	1.863620
656.000000	1.803403
657.000000	1.733718
658.000000	1.645136
659.000000	1.598396
660.000000	1.542509
661.000000	1.453309
662.000000	1.375846
663.000000	1.317213
664.000000	1.235546
665.000000	1.137775
666.000000	1.081338
667.000000	1.011140
668.000000	0.937256
669.000000	0.874215
670.000000	0.802977
671.000000	0.746109
672.000000	0.724540
673.000000	0.700053
674.000000	0.661419
675.000000	0.649268
676.000000	0.651724
677.000000	0.676105
678.000000	0.726084
679.000000	0.767489
680.000000	0.808344
681.000000	0.898225
682.000000	0.976037
683.000000	1.013428
684.000000	1.055744
685.000000	1.100795
686.000000	1.153371
687.000000	1.197070
688.000000	1.205090
689.000000	1.225657
690.000000	1.241508
691.000000	1.230468
692.000000	1.237243
693.000000	1.256621
694.000000	1.245575
695.000000	1.192526
696.000000	1.186363
697.000000	1.197431
698.000000	1.236711
699.000000	1.255266
700.000000	1.262276
701.000000	1.300415
702.000000	1.315623
703.000000	1.329392
704.000000	1.396887
705.000000	1.419568
706.000000	1.438983
707.000000	1.428999
708.000000	1.464333
709.000000	1.475990
710.000000	1.492958
711.000000	1.476624
712.000000	1.497004
713.000000	1.451673
714.000000	1.438393
715.000000	1.428507
716.000000	1.419199
717.000000	1.432005
718.000000	1.459305
719.000000	1.488350
720.000000	1.497462
721.000000	1.527909
722.000000	1.536954
723.000000	1.637794
724.000000	1.592226
725.000000	1.646847
726.000000	1.677501
727.000000	1.703808
728.000000	1.708203
729.000000	1.687575
730.000000	1.700171
731.000000	1.711150
732.000000	1.676708
733.000000	1.608723
734.000000	1.636460
735.000000	1.598132
736.000000	1.540388
737.000000	1.537793
738.000000	1.521701
739.000000	1.504805
740.000000	1.427226
741.000000	1.461066
742.000000	1.488137
743.000000	1.476571
744.000000	1.521334
745.000000	1.524685
746.000000	1.535608
747.000000	1.573408
748.000000	1.558589
749.000000	1.589019
750.000000	1.526775
751.000000	1.650530
752.000000	1.640122
753.000000	1.566288
754.000000	1.514608
755.000000	1.459435
756.000000	1.497473
757.000000	1.424866
758.000000	1.409990
759.000000	1.383248
760.000000	1.475211
761.000000	1.488163
762.000000	1.516791
763.000000	1.551657
764.000000	1.618418
765.000000	1.534384
766.000000	1.420014
767.000000	1.392727
768.000000	1.587414
769.000000	1.662134
770.000000	1.637841
771.000000	1.709961
772.000000	1.770874
773.000000	1.690150
774.000000	1.754844
775.000000	1.775852
776.000000	1.755785
777.000000	1.773492
778.000000	1.823324
779.000000	1.886919
780.000000	1.846693
781.000000	1.937443
782.000000	1.969209
783.000000	2.041246
784.000000	2.071941
785.000000	2.096308
786.000000	2.190772
787.000000	2.159052
788.000000	2.290290
789.000000	2.223294
790.000000	2.390535
791.000000	2.348800
792.000000	2.401535
793.000000	2.479844
794.000000	2.358206
795.000000	2.382258
796.000000	2.372164
797.000000	2.433231
798.000000	2.601263
799.000000	2.631973
800.000000	2.678155
801.000000	2.748976
802.000000	2.694914
803.000000	2.768298
804.000000	2.939972
805.000000	3.001852
806.000000	3.032352
807.000000	3.093340
808.000000	3.126961
809.000000	3.310019
810.000000	3.369491
811.000000	3.446230
812.000000	3.448507
813.000000	3.556206
814.000000	3.610539
815.000000	3.724348
816.000000	3.727240
817.000000	3.854800
818.000000	3.951393
819.000000	3.986367
820.000000	3.999843
821.000000	4.142912
822.000000	4.126135
823.000000	4.214805
824.000000	4.212478
825.000000	4.399216
826.000000	4.122905
827.000000	4.124037
828.000000	4.197289
829.000000	4.208282
830.000000	4.272605
831.000000	4.204616
832.000000	4.231048
833.000000	4.046993
834.000000	4.042204
835.000000	4.061232
836.000000	3.931988
837.000000	3.858274
838.000000	3.858691
839.000000	3.935816
840.000000	3.890002
841.000000	3.830530
842.000000	4.037795
843.000000	3.813720
844.000000	3.617480
845.000000	3.648144
846.000000	3.407244
847.000000	3.559489
848.000000	3.184781
849.000000	3.334411
850.000000	3.454680
851.000000	3.183556
852.000000	3.462176
853.000000	3.360969
854.000000	3.195139
855.000000	2.963597
856.000000	3.267839
857.000000	3.820146
858.000000	3.838099
859.000000	3.832137
860.000000	3.810169
861.000000	3.785818
862.000000	3.781060
863.000000	3.765739
864.000000	3.731569
865.000000	3.729540
866.000000	3.703458
867.000000	3.702686
868.000000	3.678127
869.000000	3.641054
870.000000	3.654454
871.000000	3.677259
872.000000	3.675429
873.000000	3.626823
874.000000	3.553549
875.000000	3.475346
876.000000	3.451143
877.000000	3.404974
878.000000	3.346209
879.000000	3.284591
880.000000	3.259395
881.000000	3.206556
882.000000	3.190512
883.000000	3.150771
884.000000	3.112358
885.000000	3.071362
886.000000	3.032121
887.000000	2.988585
888.000000	2.975802
889.000000	2.947730
890.000000	2.923285
891.000000	2.874634
892.000000	2.849424
893.000000	2.824439
894.000000	2.786940
895.000000	2.755130
896.000000	2.721113
897.000000	2.694475
898.000000	2.673505
899.000000	2.640642
900.000000	2.612108
901.000000	2.591302
902.000000	2.572774
903.000000	2.560430
904.000000	2.554479
905.000000	2.544397
906.000000	2.533601
907.000000	2.523674
908.000000	2.522989
909.000000	2.519206
910.000000	2.516102
911.000000	2.511172
912.000000	2.498219
913.000000	2.489837
914.000000	2.478604
915.000000	2.476206
916.000000	2.460903
917.000000	2.452968
918.000000	2.445917
919.000000	2.426814
920.000000	2.416085
921.000000	2.409276
922.000000	2.387004
923.000000	2.362972
924.000000	2.359419
925.000000	2.370008
926.000000	2.354725
927.000000	2.343510
928.000000	2.342359
929.000000	2.331723
930.000000	2.328999
931.000000	2.311697
932.000000	2.297890
933.000000	2.292550
934.000000	2.281004
935.000000	2.267218
936.000000	2.257640
937.000000	2.248825
938.000000	2.232571
939.000000	2.222586
940.000000	2.208619
941.000000	2.188040
942.000000	2.176936
943.000000	2.174135
944.000000	2.165328
945.000000	2.151268
946.000000	2.151311
947.000000	2.150116
948.000000	2.133203
949.000000	2.137309
950.000000	2.137715
951.000000	2.122411
952.000000	2.118856
953.000000	2.113335
954.000000	2.093614
955.000000	2.084599
956.000000	2.082918
957.000000	2.064439
958.000000	2.042548
959.000000	2.021131
960.000000	2.005420
961.000000	1.988530
962.000000	1.969454
963.000000	1.958663
964.000000	1.950842
965.000000	1.946426
966.000000	1.939690
967.000000	1.922636
968.000000	1.916609
969.000000	1.902412
970.000000	1.893240
971.000000	1.889987
972.000000	1.889192
973.000000	1.888656
974.000000	1.884065
975.000000	1.879837
976.000000	1.869111
977.000000	1.871983
978.000000	1.872830
979.000000	1.865540
980.000000	1.857875
981.000000	1.851305
982.000000	1.840170
983.000000	1.834547
984.000000	1.826803
985.000000	1.816295
986.000000	1.814902
987.000000	1.807766
988.000000	1.801953
989.000000	1.804888
990.000000	1.801019
991.000000	1.796238
992.000000	1.793241
993.000000	1.791480
994.000000	1.800853
995.000000	1.801650
996.000000	1.789432
997.000000	1.792969
998.000000	1.784118
999.000000	1.775227
1000.000000	1.775591
1001.000000	1.781251
1002.000000	1.779086
1003.000000	1.770396
1004.000000	1.764838
1005.000000	1.772875
1006.000000	1.765283
1007.000000	1.754702
1008.000000	1.753613
1009.000000	1.748279
1010.000000	1.745226
1011.000000	1.756996
1012.000000	1.750883
1013.000000	1.746628
1014.000000	1.748954
1015.000000	1.756881
1016.000000	1.768304
1017.000000	1.766902
1018.000000	1.766213
1019.000000	1.768763
1020.000000	1.779894
1021.000000	1.784102
1022.000000	1.797280
1023.000000	1.789517
1024.000000	1.788771
1025.000000	1.790892
1026.000000	1.796245
1027.000000	1.780798
1028.000000	1.787275
1029.000000	1.800940
1030.000000	1.796170
1031.000000	1.790885
1032.000000	1.791444
1033.000000	1.782675
1034.000000	1.785614
1035.000000	1.781623
1036.000000	1.771869
1037.000000	1.776336
1038.000000	1.769670
1039.000000	1.780432
1040.000000	1.774996
1041.000000	1.780189
1042.000000	1.764533
1043.000000	1.764234
1044.000000	1.763579
1045.000000	1.748355
1046.000000	1.756004
1047.000000	1.755475
1048.000000	1.750982
1049.000000	1.737809
1050.000000	1.732648
1051.000000	1.748527
1052.000000	1.738738
1053.000000	1.738632
1054.000000	1.737357
1055.000000	1.736315
1056.000000	1.728672
1057.000000	1.729243
1058.000000	1.730956
1059.000000	1.742224
1060.000000	1.738178
1061.000000	1.731127
1062.000000	1.731049
1063.000000	1.728711
1064.000000	1.731870
1065.000000	1.729910
1066.000000	1.722373
1067.000000	1.731057
1068.000000	1.720459
1069.000000	1.721086
1070.000000	1.722699
1071.000000	1.718477
1072.000000	1.738713
1073.000000	1.725098
1074.000000	1.726147
1075.000000	1.731481
1076.000000	1.726108
1077.000000	1.730363
1078.000000	1.739931
1079.000000	1.726417
1080.000000	1.729504
1081.000000	1.742035
1082.000000	1.742427
1083.000000	1.742718
1084.000000	1.748020
1085.000000	1.736231
1086.000000	1.716764
1087.000000	1.742246
1088.000000	1.737357
1089.000000	1.732854
1090.000000	1.725197
1091.000000	1.739109
1092.000000	1.725112
1093.000000	1.733894
1094.000000	1.721947
1095.000000	1.731450
1096.000000	1.718595
1097.000000	1.715344
1098.000000	1.705233
1099.000000	1.713378
1100.000000	1.705905
1101.000000	1.703261
1102.000000	1.698619
1103.000000	1.684708
1104.000000	1.684354
1105.000000	1.678423
1106.000000	1.682571
1107.000000	1.668486
1108.000000	1.660017
1109.000000	1.655926
1110.000000	1.655905
1111.000000	1.640836
1112.000000	1.643434
1113.000000	1.641339
1114.000000	1.632482
1115.000000	1.617304
1116.000000	1.606245
1117.000000	1.600876
1118.000000	1.596585
1119.000000	1.601455
1120.000000	1.576164
1121.000000	1.574585
1122.000000	1.550630
1123.000000	1.554601
1124.000000	1.537213
1125.000000	1.512673
1126.000000	1.505251
1127.000000	1.483412
1128.000000	1.455061
1129.000000	1.441974
1130.000000	1.406387
1131.000000	1.365675
1132.000000	1.334465
1133.000000	1.311632
1134.000000	1.296234
1135.000000	1.270373
1136.000000	1.238073
1137.000000	1.195579
1138.000000	1.182035
1139.000000	1.170424
1140.000000	1.133784
1141.000000	1.121342
1142.000000	1.101079
1143.000000	1.083990
1144.000000	1.077171
1145.000000	1.064656
1146.000000	1.057800
1147.000000	1.058412
1148.000000	1.057362
1149.000000	1.051632
1150.000000	1.036675
1151.000000	1.028843
1152.000000	1.011184
1153.000000	0.992534
1154.000000	0.984566
1155.000000	0.971419
1156.000000	0.959605
1157.000000	0.933843
1158.000000	0.925775
1159.000000	0.921924
1160.000000	0.902251
1161.000000	0.888251
1162.000000	0.893470
1163.000000	0.878181
1164.000000	0.865671
1165.000000	0.873658
1166.000000	0.876800
1167.000000	0.874808
1168.000000	0.863711
1169.000000	0.871583
1170.000000	0.881347
1171.000000	0.880189
1172.000000	0.893737
1173.000000	0.892250
1174.000000	0.885781
1175.000000	0.895354
1176.000000	0.910545
1177.000000	0.917125
1178.000000	0.921375
1179.000000	0.936444
1180.000000	0.958484
1181.000000	0.992526
1182.000000	1.018697
1183.000000	1.039776
1184.000000	1.040215
1185.000000	1.042904
1186.000000	1.055000
1187.000000	1.051493
1188.000000	1.051076
1189.000000	1.047214
1190.000000	1.029397
1191.000000	1.010955
1192.000000	0.994916
1193.000000	0.986203
1194.000000	0.979386
1195.000000	0.973730
1196.000000	0.971507
1197.000000	0.960607
1198.000000	0.957935
1199.000000	0.958559
1200.000000	0.957133
1201.000000	0.965020
1202.000000	0.966564
1203.000000	0.963638
1204.000000	0.967751
1205.000000	0.965995
1206.000000	0.962602
1207.000000	0.971690
1208.000000	0.975852
1209.000000	0.976160
1210.000000	0.971543
1211.000000	0.957936
1212.000000	0.956093
1213.000000	0.960664
1214.000000	0.961030
1215.000000	0.960189
1216.000000	0.968725
1217.000000	0.968049
1218.000000	0.968511
1219.000000	0.970259
1220.000000	0.963266
1221.000000	0.962232
1222.000000	0.973707
1223.000000	0.984563
1224.000000	0.982913
1225.000000	0.981256
1226.000000	0.981505
1227.000000	0.981528
1228.000000	0.985657
1229.000000	0.978113
1230.000000	0.971078
1231.000000	0.972827
1232.000000	0.975758
1233.000000	0.972825
1234.000000	0.969157
1235.000000	0.973200
1236.000000	0.969034
1237.000000	0.977973
1238.000000	0.986776
1239.000000	0.984571
1240.000000	0.983206
1241.000000	0.980036
1242.000000	0.982936
1243.000000	0.985650
1244.000000	0.991444
1245.000000	0.985307
1246.000000	0.980700
1247.000000	0.988108
1248.000000	1.003344
1249.000000	1.009649
1250.000000	1.003051
1251.000000	0.991915
1252.000000	0.991876
1253.000000	0.999682
1254.000000	0.997088
1255.000000	0.999128
1256.000000	1.005026
1257.000000	0.999821
1258.000000	0.993164
1259.000000	0.996963
1260.000000	1.000144
1261.000000	1.003209
1262.000000	1.008891
1263.000000	1.008432
1264.000000	1.006930
1265.000000	1.009636
1266.000000	1.015231
1267.000000	1.017639
1268.000000	1.010663
1269.000000	1.017837
1270.000000	1.019269
1271.000000	1.024550
1272.000000	1.036572
1273.000000	1.040086
1274.000000	1.038311
1275.000000	1.036469
1276.000000	1.036869
1277.000000	1.040619
1278.000000	1.054359
1279.000000	1.052584
1280.000000	1.059401
1281.000000	1.067809
1282.000000	1.081853
1283.000000	1.081957
1284.000000	1.088700
1285.000000	1.098200
1286.000000	1.096807
1287.000000	1.093821
1288.000000	1.100344
1289.000000	1.108590
1290.000000	1.109422
1291.000000	1.108772
1292.000000	1.120293
1293.000000	1.119709
1294.000000	1.126882
1295.000000	1.124047
1296.000000	1.118138
1297.000000	1.114316
1298.000000	1.117527
1299.000000	1.125138
1300.000000	1.128265
1301.000000	1.127123
1302.000000	1.121709
1303.000000	1.115951
1304.000000	1.127270
1305.000000	1.126652
1306.000000	1.114718
1307.000000	1.112306
1308.000000	1.112368
1309.000000	1.114005
1310.000000	1.109222
1311.000000	1.096963
1312.000000	1.094041
1313.000000	1.097350
1314.000000	1.098222
1315.000000	1.095797
1316.000000	1.095179
1317.000000	1.084302
1318.000000	1.082434
1319.000000	1.087381
1320.000000	1.085502
1321.000000	1.096466
1322.000000	1.078932
1323.000000	1.076856
1324.000000	1.078066
1325.000000	1.076372
1326.000000	1.079855
1327.000000	1.079291
1328.000000	1.076290
1329.000000	1.079254
1330.000000	1.074761
1331.000000	1.075909
1332.000000	1.081797
1333.000000	1.085867
1334.000000	1.069979
1335.000000	1.083984
1336.000000	1.081274
1337.000000	1.086481
1338.000000	1.104364
1339.000000	1.091848
1340.000000	1.107000
1341.000000	1.104214
1342.000000	1.112398
1343.000000	1.119812
1344.000000	1.134988
1345.000000	1.123860
1346.000000	1.141714
1347.000000	1.138891
1348.000000	1.157375
1349.000000	1.158430
1350.000000	1.189469
1351.000000	1.196775
1352.000000	1.225722
1353.000000	1.244095
1354.000000	1.270805
1355.000000	1.290061
1356.000000	1.303405
1357.000000	1.313281
1358.000000	1.328607
1359.000000	1.324934
1360.000000	1.325176
1361.000000	1.340073
1362.000000	1.323293
1363.000000	1.347989
1364.000000	1.355021
1365.000000	1.368079
1366.000000	1.371589
1367.000000	1.378236
1368.000000	1.391914
1369.000000	1.401224
1370.000000	1.397322
1371.000000	1.435638
1372.000000	1.442150
1373.000000	1.444776
1374.000000	1.468237
1375.000000	1.473243
1376.000000	1.483292
1377.000000	1.491465
1378.000000	1.490493
1379.000000	1.500309
1380.000000	1.526157
1381.000000	1.524829
1382.000000	1.551165
1383.000000	1.560203
1384.000000	1.571612
1385.000000	1.595779
1386.000000	1.608965
1387.000000	1.624112
1388.000000	1.641420
1389.000000	1.663310
1390.000000	1.660193
1391.000000	1.675960
1392.000000	1.684922
1393.000000	1.698013
1394.000000	1.702334
1395.000000	1.715139
1396.000000	1.732907
1397.000000	1.725639
1398.000000	1.737299
1399.000000	1.744364
1400.000000	1.765576
1401.000000	1.785717
1402.000000	1.803284
1403.000000	1.793547
1404.000000	1.813755
1405.000000	1.826325
1406.000000	1.830546
1407.000000	1.837995
1408.000000	1.851237
1409.000000	1.862751
1410.000000	1.874325
1411.000000	1.893009
1412.000000	1.894042
1413.000000	1.898262
1414.000000	1.925644
1415.000000	1.922989
1416.000000	1.926642
1417.000000	1.929279
1418.000000	1.934491
1419.000000	1.948468
1420.000000	1.957448
1421.000000	1.956216
1422.000000	1.962594
1423.000000	1.966556
1424.000000	1.974846
1425.000000	1.983850
1426.000000	1.984436
1427.000000	1.982029
1428.000000	1.984844
1429.000000	1.999218
1430.000000	2.001852
1431.000000	2.015343
1432.000000	2.004670
1433.000000	2.011308
1434.000000	2.009661
1435.000000	2.023134
1436.000000	2.030346
1437.000000	2.042421
1438.000000	2.032525
1439.000000	2.039499
1440.000000	2.043924
1441.000000	2.047109
1442.000000	2.053246
1443.000000	2.048809
1444.000000	2.051987
1445.000000	2.058231
1446.000000	2.070288
1447.000000	2.071048
1448.000000	2.069849
1449.000000	2.077663
1450.000000	2.092101
1451.000000	2.086022
1452.000000	2.098363
1453.000000	2.099666
1454.000000	2.102237
1455.000000	2.108039
1456.000000	2.103552
1457.000000	2.106626
1458.000000	2.108598
1459.000000	2.120227
1460.000000	2.119044
1461.000000	2.122764
1462.000000	2.132507
1463.000000	2.129612
1464.000000	2.124529
1465.000000	2.118437
1466.000000	2.125228
1467.000000	2.127303
1468.000000	2.127324
1469.000000	2.133660
1470.000000	2.140796
1471.000000	2.140620
1472.000000	2.147844
1473.000000	2.142161
1474.000000	2.130139
1475.000000	2.132529
1476.000000	2.136351
1477.000000	2.139819
1478.000000	2.138138
1479.000000	2.146219
1480.000000	2.140895
1481.000000	2.133125
1482.000000	2.138235
1483.000000	2.130651
1484.000000	2.130573
1485.000000	2.144148
1486.000000	2.133930
1487.000000	2.136210
1488.000000	2.140863
1489.000000	2.129016
1490.000000	2.126833
1491.000000	2.127732
1492.000000	2.125745
1493.000000	2.130438
1494.000000	2.133293
1495.000000	2.128062
1496.000000	2.115497
1497.000000	2.112455
1498.000000	2.108301
1499.000000	2.100334
1500.000000	2.097946
1501.000000	2.095242
1502.000000	2.091448
1503.000000	2.086921
1504.000000	2.091076
1505.000000	2.083157
1506.000000	2.073829
1507.000000	2.068627
1508.000000	2.063454
1509.000000	2.059139
1510.000000	2.058290
1511.000000	2.053299
1512.000000	2.049470
1513.000000	2.041885
1514.000000	2.042134
1515.000000	2.042063
1516.000000	2.032853
1517.000000	2.029482
1518.000000	2.025206
1519.000000	2.016617
1520.000000	2.020367
1521.000000	2.020938
1522.000000	2.013987
1523.000000	2.006432
1524.000000	2.004786
1525.000000	2.006735
1526.000000	2.008391
1527.000000	2.000859
1528.000000	1.984739
1529.000000	1.984233
1530.000000	1.990654
1531.000000	1.981992
1532.000000	1.980657
1533.000000	1.985787
1534.000000	1.982008
1535.000000	1.987487
1536.000000	1.988173
1537.000000	1.979275
1538.000000	1.972081
1539.000000	1.983342
1540.000000	1.986408
1541.000000	1.977343
1542.000000	1.976859
1543.000000	1.977690
1544.000000	1.980302
1545.000000	1.982367
1546.000000	1.989125
1547.000000	1.993552
1548.000000	1.991635
1549.000000	1.990915
1550.000000	1.984417
1551.000000	1.984296
1552.000000	1.987740
1553.000000	1.982763
1554.000000	1.989681
1555.000000	1.991885
1556.000000	1.990821
1557.000000	2.004129
1558.000000	2.006256
1559.000000	1.995250
1560.000000	2.001983
1561.000000	2.009168
1562.000000	2.004039
1563.000000	2.003308
1564.000000	2.010521
1565.000000	2.006542
1566.000000	2.003944
1567.000000	2.018177
1568.000000	2.016342
1569.000000	2.021620
1570.000000	2.021824
1571.000000	2.030708
1572.000000	2.027533
1573.000000	2.030731
1574.000000	2.023287
1575.000000	2.029732
1576.000000	2.036936
1577.000000	2.031697
1578.000000	2.049467
1579.000000	2.044875
1580.000000	2.053089
1581.000000	2.050704
1582.000000	2.043770
1583.000000	2.047650
1584.000000	2.054197
1585.000000	2.048981
1586.000000	2.054493
1587.000000	2.057267
1588.000000	2.047169
1589.000000	2.054463
1590.000000	2.056838
1591.000000	2.051365
1592.000000	2.052279
1593.000000	2.049935
1594.000000	2.056179
1595.000000	2.049649
1596.000000	2.041348
1597.000000	2.049500
1598.000000	2.049596
1599.000000	2.043518
1600.000000	2.047221
1601.000000	2.047608
1602.000000	2.040708
1603.000000	2.031059
1604.000000	2.042026
1605.000000	2.044001
1606.000000	2.029596
1607.000000	2.025906
1608.000000	2.028941
1609.000000	2.032703
1610.000000	2.031480
1611.000000	2.012407
1612.000000	2.018333
1613.000000	2.003826
1614.000000	2.012792
1615.000000	2.018687
1616.000000	2.024994
1617.000000	1.997951
1618.000000	2.002725
1619.000000	2.010679
1620.000000	2.005969
1621.000000	2.004563
1622.000000	1.997691
1623.000000	1.994447
1624.000000	1.992889
1625.000000	1.991215
1626.000000	1.985206
1627.000000	1.983604
1628.000000	1.981321
1629.000000	1.994018
1630.000000	1.966283
1631.000000	1.973232
1632.000000	1.978382
1633.000000	1.970975
1634.000000	1.968491
1635.000000	1.964001
1636.000000	1.966957
1637.000000	1.957226
1638.000000	1.953991
1639.000000	1.956227
1640.000000	1.954873
1641.000000	1.954108
1642.000000	1.938327
1643.000000	1.935247
1644.000000	1.948851
1645.000000	1.947905
1646.000000	1.946830
1647.000000	1.948186
1648.000000	1.927936
1649.000000	1.936965
1650.000000	1.935090
1651.000000	1.932585
1652.000000	1.944895
1653.000000	1.934348
1654.000000	1.939209
1655.000000	1.930614
1656.000000	1.935693
1657.000000	1.938122
1658.000000	1.935473
1659.000000	1.938869
1660.000000	1.936064
1661.000000	1.951804
1662.000000	1.951147
1663.000000	1.945155
1664.000000	1.950088
1665.000000	1.959095
1666.000000	1.976612
1667.000000	1.964676
1668.000000	1.984239
1669.000000	1.972402
1670.000000	1.990336
1671.000000	1.995443
1672.000000	1.999895
1673.000000	2.013931
1674.000000	2.014270
1675.000000	2.019702
1676.000000	2.030243
1677.000000	2.029530
1678.000000	2.047598
1679.000000	2.061878
1680.000000	2.073834
1681.000000	2.089993
1682.000000	2.111923
1683.000000	2.110978
1684.000000	2.105523
1685.000000	2.103075
1686.000000	2.097700
1687.000000	2.117295
1688.000000	2.107400
1689.000000	2.104641
1690.000000	2.086872
1691.000000	2.089922
1692.000000	2.086788
1693.000000	2.094763
1694.000000	2.099794
1695.000000	2.076983
1696.000000	2.088117
1697.000000	2.090899
1698.000000	2.087158
1699.000000	2.073674
1700.000000	2.070589
1701.000000	2.071605
1702.000000	2.072714
1703.000000	2.054756
1704.000000	2.053274
1705.000000	2.062951
1706.000000	2.062653
1707.000000	2.056867
1708.000000	2.040362
1709.000000	2.051054
1710.000000	2.054695
1711.000000	2.046984
1712.000000	2.054879
1713.000000	2.059410
1714.000000	2.057158
1715.000000	2.069042
1716.000000	2.075590
1717.000000	2.075044
1718.000000	2.071211
1719.000000	2.076970
1720.000000	2.078013
1721.000000	2.075605
1722.000000	2.086260
1723.000000	2.073979
1724.000000	2.076066
1725.000000	2.067338
1726.000000	2.070958
1727.000000	2.057688
1728.000000	2.055816
1729.000000	2.063458
1730.000000	2.071052
1731.000000	2.073137
1732.000000	2.073684
1733.000000	2.084034
1734.000000	2.092601
1735.000000	2.093652
1736.000000	2.091454
1737.000000	2.088352
1738.000000	2.094154
1739.000000	2.087069
1740.000000	2.089353
1741.000000	2.091544
1742.000000	2.086716
1743.000000	2.063425
1744.000000	2.062879
1745.000000	2.062456
1746.000000	2.057559
1747.000000	2.052573
1748.000000	2.057081
1749.000000	2.049097
1750.000000	2.047883
1751.000000	2.040916
1752.000000	2.044278
1753.000000	2.039050
1754.000000	2.043401
1755.000000	2.046832
1756.000000	2.050272
1757.000000	2.043853
1758.000000	2.046920
1759.000000	2.039877
1760.000000	2.034872
1761.000000	2.041886
1762.000000	2.040207
1763.000000	2.039230
1764.000000	2.038669
1765.000000	2.041787
1766.000000	2.047731
1767.000000	2.045069
1768.000000	2.045367
1769.000000	2.046757
1770.000000	2.037996
1771.000000	2.032482
1772.000000	2.030086
1773.000000	2.029646
1774.000000	2.025859
1775.000000	2.020959
1776.000000	2.012279
1777.000000	2.005266
1778.000000	2.002889
1779.000000	1.997651
1780.000000	2.009774
1781.000000	2.010808
1782.000000	1.994621
1783.000000	1.990480
1784.000000	1.992493
1785.000000	1.986293
1786.000000	1.983501
1787.000000	1.981572
1788.000000	1.981796
1789.000000	1.980097
1790.000000	1.967670
1791.000000	1.955793
1792.000000	1.955156
1793.000000	1.951694
1794.000000	1.945224
1795.000000	1.945043
1796.000000	1.943159
1797.000000	1.934785
1798.000000	1.926306
1799.000000	1.922091
1800.000000	1.930237
1801.000000	1.931481
1802.000000	1.918092
1803.000000	1.913138
1804.000000	1.913122
1805.000000	1.907816
1806.000000	1.902466
1807.000000	1.904754
1808.000000	1.900949
1809.000000	1.895897
1810.000000	1.889453
1811.000000	1.882019
1812.000000	1.881683
1813.000000	1.892211
1814.000000	1.901716
1815.000000	1.890124
1816.000000	1.885339
1817.000000	1.880057
1818.000000	1.869366
1819.000000	1.872613
1820.000000	1.874936
1821.000000	1.885279
1822.000000	1.890873
1823.000000	1.874225
1824.000000	1.865116
1825.000000	1.875811
1826.000000	1.872499
1827.000000	1.865909
1828.000000	1.868759
1829.000000	1.864109
1830.000000	1.866633
1831.000000	1.871057
1832.000000	1.860056
1833.000000	1.844728
1834.000000	1.843003
1835.000000	1.842748
1836.000000	1.845898
1837.000000	1.861786
1838.000000	1.859188
1839.000000	1.860617
1840.000000	1.854344
1841.000000	1.864864
1842.000000	1.862617
1843.000000	1.852021
1844.000000	1.840469
1845.000000	1.826306
1846.000000	1.825786
1847.000000	1.840898
1848.000000	1.866296
1849.000000	1.855915
1850.000000	1.844443
1851.000000	1.845244
1852.000000	1.846239
1853.000000	1.849501
1854.000000	1.852487
1855.000000	1.854465
1856.000000	1.849791
1857.000000	1.840097
1858.000000	1.846466
1859.000000	1.868823
1860.000000	1.857304
1861.000000	1.862135
1862.000000	1.864571
1863.000000	1.846631
1864.000000	1.845636
1865.000000	1.840501
1866.000000	1.830063
1867.000000	1.833861
1868.000000	1.836065
1869.000000	1.842749
1870.000000	1.858585
1871.000000	1.875774
1872.000000	1.887058
1873.000000	1.906344
1874.000000	1.917195
1875.000000	1.922557
1876.000000	1.933931
1877.000000	1.933692
1878.000000	1.932348
1879.000000	1.941186
1880.000000	1.923684
1881.000000	1.924693
1882.000000	1.926132
1883.000000	1.932817
1884.000000	1.940009
1885.000000	1.958255
1886.000000	1.949137
1887.000000	1.943234
1888.000000	1.926366
1889.000000	1.929388
1890.000000	1.923377
1891.000000	1.932361
1892.000000	1.928905
1893.000000	1.928371
1894.000000	1.903719
1895.000000	1.897335
1896.000000	1.877149
1897.000000	1.871353
1898.000000	1.863992
1899.000000	1.845845
1900.000000	1.840399
1901.000000	1.839081
1902.000000	1.823505
1903.000000	1.795750
1904.000000	1.804119
1905.000000	1.785899
1906.000000	1.789227
1907.000000	1.781102
1908.000000	1.766555
1909.000000	1.756459
1910.000000	1.735815
1911.000000	1.711139
1912.000000	1.700173
1913.000000	1.695027
1914.000000	1.677659
1915.000000	1.683372
1916.000000	1.680240
1917.000000	1.662073
1918.000000	1.627686
1919.000000	1.640857
1920.000000	1.612308
1921.000000	1.602685
1922.000000	1.609254
1923.000000	1.613780
1924.000000	1.615840
1925.000000	1.587677
1926.000000	1.599075
1927.000000	1.562397
1928.000000	1.581488
1929.000000	1.566836
1930.000000	1.569567
1931.000000	1.572452
1932.000000	1.576965
1933.000000	1.567580
1934.000000	1.569435
1935.000000	1.563038
1936.000000	1.551970
1937.000000	1.569718
1938.000000	1.556370
1939.000000	1.569355
1940.000000	1.586167
1941.000000	1.570714
1942.000000	1.575256
1943.000000	1.565142
1944.000000	1.567251
1945.000000	1.568013
1946.000000	1.584305
1947.000000	1.585119
1948.000000	1.591933
1949.000000	1.597400
1950.000000	1.594081
1951.000000	1.595389
1952.000000	1.591037
1953.000000	1.596391
1954.000000	1.595490
1955.000000	1.598605
1956.000000	1.602379
1957.000000	1.595108
1958.000000	1.595501
1959.000000	1.590074
1960.000000	1.598725
1961.000000	1.590522
1962.000000	1.609880
1963.000000	1.612809
1964.000000	1.604561
1965.000000	1.595404
1966.000000	1.618797
1967.000000	1.615773
1968.000000	1.620370
1969.000000	1.620901
1970.000000	1.613314
1971.000000	1.616826
1972.000000	1.624037
1973.000000	1.624430
1974.000000	1.623751
1975.000000	1.622549
1976.000000	1.630092
1977.000000	1.623684
1978.000000	1.638669
1979.000000	1.617471
1980.000000	1.613143
1981.000000	1.631297
1982.000000	1.632600
1983.000000	1.624416
1984.000000	1.622011
1985.000000	1.620849
1986.000000	1.617471
1987.000000	1.638565
1988.000000	1.621734
1989.000000	1.610906
1990.000000	1.623888
1991.000000	1.615753
1992.000000	1.611998
1993.000000	1.616071
1994.000000	1.627731
1995.000000	1.625835
1996.000000	1.621903
1997.000000	1.620225
1998.000000	1.606347
1999.000000	1.603198
2000.000000	1.606052
2001.000000	1.595114
2002.000000	1.584604
2003.000000	1.580367
2004.000000	1.573864
2005.000000	1.571475
2006.000000	1.586552
2007.000000	1.581798
2008.000000	1.561908
2009.000000	1.571826
2010.000000	1.557124
2011.000000	1.549442
2012.000000	1.543968
2013.000000	1.551996
2014.000000	1.553979
2015.000000	1.534742
2016.000000	1.533154
2017.000000	1.533013
2018.000000	1.524793
2019.000000	1.536356
2020.000000	1.530644
2021.000000	1.527631
2022.000000	1.523105
2023.000000	1.514762
2024.000000	1.509314
2025.000000	1.502014
2026.000000	1.498765
2027.000000	1.494628
2028.000000	1.493400
2029.000000	1.487590
2030.000000	1.473834
2031.000000	1.461449
2032.000000	1.451578
2033.000000	1.447854
2034.000000	1.445964
2035.000000	1.446362
2036.000000	1.433640
2037.000000	1.423410
2038.000000	1.410894
2039.000000	1.407319
2040.000000	1.402894
2041.000000	1.400040
2042.000000	1.393709
2043.000000	1.381654
2044.000000	1.375158
2045.000000	1.378820
2046.000000	1.369993
2047.000000	1.354484
2048.000000	1.352035
2049.000000	1.361931
2050.000000	1.374765
2051.000000	1.371929
2052.000000	1.369714
2053.000000	1.377149
2054.000000	1.374024
2055.000000	1.369478
2056.000000	1.374480
2057.000000	1.380451
2058.000000	1.379346
2059.000000	1.379987
2060.000000	1.398168
2061.000000	1.393950
2062.000000	1.395690
2063.000000	1.395270
2064.000000	1.396458
2065.000000	1.402948
2066.000000	1.405210
2067.000000	1.407611
2068.000000	1.400707
2069.000000	1.406735
2070.000000	1.410021
2071.000000	1.408679
2072.000000	1.412279
2073.000000	1.409842
2074.000000	1.408424
2075.000000	1.416646
2076.000000	1.410751
2077.000000	1.405048
2078.000000	1.403246
2079.000000	1.406198
2080.000000	1.409336
2081.000000	1.402410
2082.000000	1.402058
2083.000000	1.400805
2084.000000	1.400543
2085.000000	1.397678
2086.000000	1.385500
2087.000000	1.386295
2088.000000	1.391860
2089.000000	1.384465
2090.000000	1.384252
2091.000000	1.381243
2092.000000	1.372488
2093.000000	1.369107
2094.000000	1.370979
2095.000000	1.371759
2096.000000	1.367974
2097.000000	1.361298
2098.000000	1.354336
2099.000000	1.358003
2100.000000	1.352775
2101.000000	1.334446
2102.000000	1.338805
2103.000000	1.346231
2104.000000	1.344076
2105.000000	1.330888
2106.000000	1.316027
2107.000000	1.312064
2108.000000	1.314244
2109.000000	1.312291
2110.000000	1.296951
2111.000000	1.289867
2112.000000	1.293878
2113.000000	1.294224
2114.000000	1.282978
2115.000000	1.263585
2116.000000	1.261347
2117.000000	1.268393
2118.000000	1.263342
2119.000000	1.256460
2120.000000	1.254609
2121.000000	1.238765
2122.000000	1.237297
2123.000000	1.238828
2124.000000	1.237160
2125.000000	1.224699
2126.000000	1.206261
2127.000000	1.208014
2128.000000	1.209129
2129.000000	1.199966
2130.000000	1.190831
2131.000000	1.188473
2132.000000	1.187801
2133.000000	1.178135
2134.000000	1.170523
2135.000000	1.167082
2136.000000	1.168906
2137.000000	1.160790
2138.000000	1.151820
2139.000000	1.143812
2140.000000	1.143111
2141.000000	1.133696
2142.000000	1.130129
2143.000000	1.131293
2144.000000	1.120196
2145.000000	1.112674
2146.000000	1.124232
2147.000000	1.116185
2148.000000	1.113484
2149.000000	1.118245
2150.000000	1.121698
2151.000000	1.109856
2152.000000	1.095821
2153.000000	1.091980
2154.000000	1.094022
2155.000000	1.093413
2156.000000	1.090366
2157.000000	1.080198
2158.000000	1.095909
2159.000000	1.085856
2160.000000	1.095625
2161.000000	1.086934
2162.000000	1.075853
2163.000000	1.078931
2164.000000	1.091821
2165.000000	1.095006
2166.000000	1.075310
2167.000000	1.075699
2168.000000	1.084202
2169.000000	1.096217
2170.000000	1.096608
2171.000000	1.100493
2172.000000	1.100428
2173.000000	1.086769
2174.000000	1.091509
2175.000000	1.101076
2176.000000	1.103820
2177.000000	1.102101
2178.000000	1.109211
2179.000000	1.107476
2180.000000	1.117969
2181.000000	1.127277
2182.000000	1.124897
2183.000000	1.125604
2184.000000	1.133624
2185.000000	1.120334
2186.000000	1.135613
2187.000000	1.143452
2188.000000	1.145286
2189.000000	1.147391
2190.000000	1.139426
2191.000000	1.142366
2192.000000	1.148450
2193.000000	1.153931
2194.000000	1.152008
2195.000000	1.147592
2196.000000	1.149832
2197.000000	1.145049
2198.000000	1.132400
2199.000000	1.148037
2200.000000	1.174002
2201.000000	1.156204
2202.000000	1.155503
2203.000000	1.136468
2204.000000	1.155204
2205.000000	1.157520
2206.000000	1.152303
2207.000000	1.147332
2208.000000	1.149032
2209.000000	1.169432
2210.000000	1.154539
2211.000000	1.165037
2212.000000	1.174298
2213.000000	1.166337
2214.000000	1.167078
2215.000000	1.183612
2216.000000	1.170452
2217.000000	1.190842
2218.000000	1.168423
2219.000000	1.177771
2220.000000	1.184884
2221.000000	1.197696
2222.000000	1.192346
2223.000000	1.196100
2224.000000	1.189673
2225.000000	1.200452
2226.000000	1.189144
2227.000000	1.192654
2228.000000	1.196812
2229.000000	1.181860
2230.000000	1.195427
2231.000000	1.189077
2232.000000	1.193766
2233.000000	1.190459
2234.000000	1.186352
2235.000000	1.186296
2236.000000	1.176330
2237.000000	1.182133
2238.000000	1.183657
2239.000000	1.172902
2240.000000	1.177249
2241.000000	1.150396
2242.000000	1.150128
2243.000000	1.143712
2244.000000	1.137183
2245.000000	1.136590
2246.000000	1.130259
2247.000000	1.121827
2248.000000	1.114289
2249.000000	1.098904
2250.000000	1.099419
2251.000000	1.079444
2252.000000	1.077433
2253.000000	1.071289
2254.000000	1.047964
2255.000000	1.042117
2256.000000	1.026031
2257.000000	1.012779
2258.000000	0.994160
2259.000000	0.994496
2260.000000	0.986572
2261.000000	0.979988
2262.000000	0.954664
2263.000000	0.935582
2264.000000	0.937106
2265.000000	0.937567
2266.000000	0.916727
2267.000000	0.900592
2268.000000	0.894720
2269.000000	0.892545
2270.000000	0.890502
2271.000000	0.864048
2272.000000	0.887328
2273.000000	0.878971
2274.000000	0.888872
2275.000000	0.869784
2276.000000	0.889016
2277.000000	0.884462
2278.000000	0.860747
2279.000000	0.853839
2280.000000	0.868912
2281.000000	0.872200
2282.000000	0.873476
2283.000000	0.883028
2284.000000	0.876560
2285.000000	0.868969
2286.000000	0.879317
2287.000000	0.881384
2288.000000	0.865942
2289.000000	0.867206
2290.000000	0.870066
2291.000000	0.857465
2292.000000	0.864361
2293.000000	0.859220
2294.000000	0.843519
2295.000000	0.844109
2296.000000	0.836533
2297.000000	0.831162
2298.000000	0.818239
2299.000000	0.807656
2300.000000	0.804140
2301.000000	0.805276
2302.000000	0.802752
2303.000000	0.796690
2304.000000	0.784454
2305.000000	0.793521
2306.000000	0.798950
2307.000000	0.796413
2308.000000	0.802289
2309.000000	0.800371
2310.000000	0.813684
2311.000000	0.832236
2312.000000	0.831792
2313.000000	0.839584
2314.000000	0.847297
2315.000000	0.864191
2316.000000	0.873934
2317.000000	0.889381
2318.000000	0.889615
2319.000000	0.894186
2320.000000	0.899199
2321.000000	0.906281
2322.000000	0.917124
2323.000000	0.925389
2324.000000	0.918754
2325.000000	0.918169
2326.000000	0.915548
2327.000000	0.916485
2328.000000	0.918817
2329.000000	0.914639
2330.000000	0.907309
2331.000000	0.909613
2332.000000	0.909832
2333.000000	0.905038
2334.000000	0.902602
2335.000000	0.905466
2336.000000	0.907848
2337.000000	0.898569
2338.000000	0.887317
2339.000000	0.881158
2340.000000	0.878795
2341.000000	0.884264
2342.000000	0.878258
2343.000000	0.868625
2344.000000	0.866661
2345.000000	0.872393
2346.000000	0.865518
2347.000000	0.870389
2348.000000	0.877946
2349.000000	0.869612
2350.000000	0.865788
2351.000000	0.870392
2352.000000	0.868528
2353.000000	0.875656
2354.000000	0.886351
2355.000000	0.885827
2356.000000	0.885501
2357.000000	0.891878
2358.000000	0.901601
2359.000000	0.903225
2360.000000	0.894587
2361.000000	0.889824
2362.000000	0.903217
2363.000000	0.913346
2364.000000	0.909419
2365.000000	0.915624
2366.000000	0.914867
2367.000000	0.909556
2368.000000	0.912069
2369.000000	0.911252
2370.000000	0.915631
2371.000000	0.917819
2372.000000	0.922546
2373.000000	0.917037
2374.000000	0.908733
2375.000000	0.919198
2376.000000	0.927015
2377.000000	0.919428
2378.000000	0.919387
2379.000000	0.927138
2380.000000	0.927640
2381.000000	0.924116
2382.000000	0.925492
2383.000000	0.919413
2384.000000	0.917176
2385.000000	0.927843
2386.000000	0.934193
2387.000000	0.927273
2388.000000	0.923355
2389.000000	0.929558
2390.000000	0.932273
2391.000000	0.928157
2392.000000	0.930679
2393.000000	0.928408
2394.000000	0.921974
2395.000000	0.913874
2396.000000	0.906741
2397.000000	0.911834
2398.000000	0.914533
2399.000000	0.908375
2400.000000	0.906529
2401.000000	0.908322
2402.000000	0.908094
2403.000000	0.903449
2404.000000	0.891225
2405.000000	0.890769
2406.000000	0.888792
2407.000000	0.894405
2408.000000	0.898749
2409.000000	0.891957
2410.000000	0.885339
2411.000000	0.879028
2412.000000	0.879714
2413.000000	0.880729
2414.000000	0.877408
2415.000000	0.883593
2416.000000	0.887984
2417.000000	0.882976
2418.000000	0.880912
2419.000000	0.870703
2420.000000	0.872718
2421.000000	0.878336
2422.000000	0.875572
2423.000000	0.860018
2424.000000	0.861097
2425.000000	0.864832
2426.000000	0.853639
2427.000000	0.847983
2428.000000	0.851086
2429.000000	0.848168
2430.000000	0.852898
2431.000000	0.845223
2432.000000	0.850219
2433.000000	0.849234
2434.000000	0.826286
2435.000000	0.826258
2436.000000	0.815381
2437.000000	0.812708
2438.000000	0.808068
2439.000000	0.798417
2440.000000	0.810927
2441.000000	0.801729
2442.000000	0.789593
2443.000000	0.775696
2444.000000	0.776762
2445.000000	0.759408
2446.000000	0.759238
2447.000000	0.765071
2448.000000	0.753392
2449.000000	0.732632
2450.000000	0.725772
2451.000000	0.736976
2452.000000	0.723108
2453.000000	0.720261
2454.000000	0.716801
2455.000000	0.698368
2456.000000	0.712541
2457.000000	0.721091
2458.000000	0.709596
2459.000000	0.696405
2460.000000	0.700805
2461.000000	0.691488
2462.000000	0.706921
2463.000000	0.703977
2464.000000	0.704675
2465.000000	0.720419
2466.000000	0.679859
2467.000000	0.695274
2468.000000	0.683190
2469.000000	0.711026
2470.000000	0.690551
2471.000000	0.722812
2472.000000	0.712457
2473.000000	0.729770
2474.000000	0.685792
2475.000000	0.699879
2476.000000	0.664419
2477.000000	0.652042
2478.000000	0.715917
2479.000000	0.717272
2480.000000	0.670232
2481.000000	0.702592
2482.000000	0.732628
2483.000000	0.722205
2484.000000	0.742715
2485.000000	0.727309
2486.000000	0.694922
2487.000000	0.706145
2488.000000	0.683409
2489.000000	0.672718
2490.000000	0.740065
2491.000000	0.728994
2492.000000	0.703414
2493.000000	0.683154
2494.000000	0.751400
2495.000000	0.807840
2496.000000	0.697981
2497.000000	0.729423
2498.000000	0.749623
2499.000000	0.674030
2500.000000	0.826186
