PE UV       SUBTECH     SPECTRUM    ASCII       PEDS        4.00        
   -1
CICIMAUCR0201-3.Sample.ASC
24/05/31
16:20:21.00
24/05/31
16:20:21.00
Vinicio Soto Monge
C. cupreomarginata. Sex F. Dorsal
250,000000
1
Lambda 1050
1050L1511233
PerkinElmer UV WinLab 6.3.2.0749 / 2.02.05 Lambda 900 UV/VIS/NIR, Aug  7 2015 09:38:08

0
0
3350/servo 860,8/2
0
0
UV/VIS
1
1
1
DoubleDePol,CommonBeamDepol,RBeamAtt,SBeamAtt,60mm sphere, WB InGaAs Detector
0
0
0
0
Program
Program
3350/servo 860,8/2
3350/0,2 860,8/0,2
3350/0,2 860,8/0,2
0
15.00
 
 
 
0
 
860,8
319,2
860,8
Front
100
on
S:100 R:100
0
0
0
0
 
0
 
 
 
0
 
 
0
0
0
0
0
 
 
 
 
0
0


0
0
#HDR
-1
-1
#GR
nm
%R
1.0
0.0
2500,000000
-1,000000
2251
8
69,649100
5,880400
#DATA
250.000000	0.143594
251.000000	0.167210
252.000000	0.161681
253.000000	0.136765
254.000000	0.152948
255.000000	0.121215
256.000000	0.117484
257.000000	0.138297
258.000000	0.159542
259.000000	0.128974
260.000000	0.105961
261.000000	0.133208
262.000000	0.104040
263.000000	0.105875
264.000000	0.113661
265.000000	0.095665
266.000000	0.113123
267.000000	0.112524
268.000000	0.119132
269.000000	0.152358
270.000000	0.135183
271.000000	0.100142
272.000000	0.097469
273.000000	0.115923
274.000000	0.130567
275.000000	0.125038
276.000000	0.124330
277.000000	0.124664
278.000000	0.127981
279.000000	0.099806
280.000000	0.115189
281.000000	0.103658
282.000000	0.119200
283.000000	0.126645
284.000000	0.139469
285.000000	0.133401
286.000000	0.113244
287.000000	0.110869
288.000000	0.119442
289.000000	0.126746
290.000000	0.135373
291.000000	0.154050
292.000000	0.112726
293.000000	0.122902
294.000000	0.142807
295.000000	0.130723
296.000000	0.119445
297.000000	0.104963
298.000000	0.111322
299.000000	0.125711
300.000000	0.136471
301.000000	0.129475
302.000000	0.130727
303.000000	0.122739
304.000000	0.113728
305.000000	0.118924
306.000000	0.140690
307.000000	0.141738
308.000000	0.104223
309.000000	0.100000
310.000000	0.100531
311.000000	0.139052
312.000000	0.132166
313.000000	0.115641
314.000000	0.107718
315.000000	0.075942
316.000000	0.100989
317.000000	0.108811
318.000000	0.416006
319.000000	0.106694
320.000000	0.172522
321.000000	0.202445
322.000000	0.232474
323.000000	0.307499
324.000000	0.307522
325.000000	0.033636
326.000000	0.120284
327.000000	0.149842
328.000000	0.096341
329.000000	0.202064
330.000000	0.328327
331.000000	0.103440
332.000000	0.199802
333.000000	0.246121
334.000000	0.130354
335.000000	0.052948
336.000000	0.152704
337.000000	0.056254
338.000000	0.057812
339.000000	0.171621
340.000000	0.229612
341.000000	0.232471
342.000000	0.155085
343.000000	0.046290
344.000000	0.063571
345.000000	0.176648
346.000000	0.240355
347.000000	0.155502
348.000000	0.088001
349.000000	0.132553
350.000000	0.110007
351.000000	0.164076
352.000000	0.135036
353.000000	0.230862
354.000000	0.206086
355.000000	0.152600
356.000000	0.154645
357.000000	0.137207
358.000000	0.123019
359.000000	0.148092
360.000000	0.179848
361.000000	0.174990
362.000000	0.163576
363.000000	0.214171
364.000000	0.178853
365.000000	0.132434
366.000000	0.237223
367.000000	0.156759
368.000000	0.134946
369.000000	0.125855
370.000000	0.198215
371.000000	0.185061
372.000000	0.180709
373.000000	0.141792
374.000000	0.143362
375.000000	0.209734
376.000000	0.159515
377.000000	0.094799
378.000000	0.096929
379.000000	0.116236
380.000000	0.106207
381.000000	0.103459
382.000000	0.109193
383.000000	0.121725
384.000000	0.110675
385.000000	0.108221
386.000000	0.105879
387.000000	0.096055
388.000000	0.098478
389.000000	0.101951
390.000000	0.086723
391.000000	0.085695
392.000000	0.078725
393.000000	0.071435
394.000000	0.064426
395.000000	0.073736
396.000000	0.065807
397.000000	0.057735
398.000000	0.052654
399.000000	0.050034
400.000000	0.039236
401.000000	0.029575
402.000000	0.024885
403.000000	0.036824
404.000000	0.034730
405.000000	0.037639
406.000000	0.043565
407.000000	0.042871
408.000000	0.052681
409.000000	0.068327
410.000000	0.055622
411.000000	0.071862
412.000000	0.073884
413.000000	0.078495
414.000000	0.078182
415.000000	0.091313
416.000000	0.101552
417.000000	0.106856
418.000000	0.095047
419.000000	0.108143
420.000000	0.105978
421.000000	0.099853
422.000000	0.085839
423.000000	0.096464
424.000000	0.091366
425.000000	0.092624
426.000000	0.084344
427.000000	0.083996
428.000000	0.076012
429.000000	0.082151
430.000000	0.068346
431.000000	0.081930
432.000000	0.092307
433.000000	0.098241
434.000000	0.067128
435.000000	0.095374
436.000000	0.110424
437.000000	0.129846
438.000000	0.128365
439.000000	0.144610
440.000000	0.130314
441.000000	0.143905
442.000000	0.160790
443.000000	0.184188
444.000000	0.165925
445.000000	0.178459
446.000000	0.184436
447.000000	0.191607
448.000000	0.198458
449.000000	0.224739
450.000000	0.211808
451.000000	0.199897
452.000000	0.233360
453.000000	0.235098
454.000000	0.244041
455.000000	0.255145
456.000000	0.229899
457.000000	0.270688
458.000000	0.269600
459.000000	0.281684
460.000000	0.274289
461.000000	0.299746
462.000000	0.299007
463.000000	0.323237
464.000000	0.316975
465.000000	0.331483
466.000000	0.348671
467.000000	0.350295
468.000000	0.355350
469.000000	0.370302
470.000000	0.392900
471.000000	0.431190
472.000000	0.443287
473.000000	0.463136
474.000000	0.461185
475.000000	0.468848
476.000000	0.481004
477.000000	0.511786
478.000000	0.537563
479.000000	0.546953
480.000000	0.543149
481.000000	0.545547
482.000000	0.522611
483.000000	0.525976
484.000000	0.513756
485.000000	0.503395
486.000000	0.465290
487.000000	0.451572
488.000000	0.403208
489.000000	0.339199
490.000000	0.305412
491.000000	0.254144
492.000000	0.201450
493.000000	0.177181
494.000000	0.146603
495.000000	0.124940
496.000000	0.134425
497.000000	0.210328
498.000000	0.246169
499.000000	0.273322
500.000000	0.314818
501.000000	0.379698
502.000000	0.424893
503.000000	0.467731
504.000000	0.478785
505.000000	0.497119
506.000000	0.510428
507.000000	0.486246
508.000000	0.482939
509.000000	0.508141
510.000000	0.484554
511.000000	0.469744
512.000000	0.443679
513.000000	0.428175
514.000000	0.397341
515.000000	0.356555
516.000000	0.353770
517.000000	0.324026
518.000000	0.324116
519.000000	0.324775
520.000000	0.319994
521.000000	0.303261
522.000000	0.290248
523.000000	0.298248
524.000000	0.294582
525.000000	0.307538
526.000000	0.323321
527.000000	0.340943
528.000000	0.353329
529.000000	0.353920
530.000000	0.364581
531.000000	0.369027
532.000000	0.416558
533.000000	0.429517
534.000000	0.457344
535.000000	0.475640
536.000000	0.504868
537.000000	0.521792
538.000000	0.512568
539.000000	0.528800
540.000000	0.547456
541.000000	0.558758
542.000000	0.577806
543.000000	0.560547
544.000000	0.542189
545.000000	0.549866
546.000000	0.544297
547.000000	0.525325
548.000000	0.516080
549.000000	0.510690
550.000000	0.536737
551.000000	0.530943
552.000000	0.561650
553.000000	0.593676
554.000000	0.603676
555.000000	0.640458
556.000000	0.667120
557.000000	0.703642
558.000000	0.698698
559.000000	0.762221
560.000000	0.780561
561.000000	0.793828
562.000000	0.854078
563.000000	0.884000
564.000000	0.920969
565.000000	0.961776
566.000000	0.987829
567.000000	0.999551
568.000000	1.013714
569.000000	1.021164
570.000000	1.051818
571.000000	1.051539
572.000000	1.060410
573.000000	1.044025
574.000000	1.031945
575.000000	1.010658
576.000000	1.000740
577.000000	0.974731
578.000000	0.979921
579.000000	0.958277
580.000000	0.947343
581.000000	0.930209
582.000000	0.944498
583.000000	0.956168
584.000000	0.950039
585.000000	0.965827
586.000000	0.988587
587.000000	1.011651
588.000000	1.027918
589.000000	1.080090
590.000000	1.113320
591.000000	1.188626
592.000000	1.237611
593.000000	1.288618
594.000000	1.353101
595.000000	1.401001
596.000000	1.447511
597.000000	1.468132
598.000000	1.466907
599.000000	1.487341
600.000000	1.479036
601.000000	1.450932
602.000000	1.445897
603.000000	1.420464
604.000000	1.414626
605.000000	1.396977
606.000000	1.357648
607.000000	1.320792
608.000000	1.318409
609.000000	1.309739
610.000000	1.316311
611.000000	1.329881
612.000000	1.314085
613.000000	1.295170
614.000000	1.303523
615.000000	1.330693
616.000000	1.355372
617.000000	1.353432
618.000000	1.351470
619.000000	1.390620
620.000000	1.429735
621.000000	1.430043
622.000000	1.440031
623.000000	1.435976
624.000000	1.412472
625.000000	1.383682
626.000000	1.302499
627.000000	1.211897
628.000000	1.131362
629.000000	1.040948
630.000000	0.939065
631.000000	0.847747
632.000000	0.751911
633.000000	0.648962
634.000000	0.544994
635.000000	0.463668
636.000000	0.391538
637.000000	0.322723
638.000000	0.247230
639.000000	0.173138
640.000000	0.122975
641.000000	0.094821
642.000000	0.084049
643.000000	0.087218
644.000000	0.097717
645.000000	0.131296
646.000000	0.167524
647.000000	0.208991
648.000000	0.253376
649.000000	0.263024
650.000000	0.283818
651.000000	0.333876
652.000000	0.355474
653.000000	0.364209
654.000000	0.376440
655.000000	0.376308
656.000000	0.391073
657.000000	0.421337
658.000000	0.436047
659.000000	0.448912
660.000000	0.471709
661.000000	0.478196
662.000000	0.483080
663.000000	0.497580
664.000000	0.503120
665.000000	0.509178
666.000000	0.522137
667.000000	0.543178
668.000000	0.580562
669.000000	0.585096
670.000000	0.615008
671.000000	0.649853
672.000000	0.687690
673.000000	0.713040
674.000000	0.746456
675.000000	0.779777
676.000000	0.785106
677.000000	0.774965
678.000000	0.804815
679.000000	0.815348
680.000000	0.807595
681.000000	0.801645
682.000000	0.815503
683.000000	0.827066
684.000000	0.836269
685.000000	0.802716
686.000000	0.746299
687.000000	0.759332
688.000000	0.763210
689.000000	0.818534
690.000000	0.817071
691.000000	0.835043
692.000000	0.830205
693.000000	0.816306
694.000000	0.796715
695.000000	0.784236
696.000000	0.798658
697.000000	0.772504
698.000000	0.774980
699.000000	0.774544
700.000000	0.784400
701.000000	0.785563
702.000000	0.812284
703.000000	0.823266
704.000000	0.795649
705.000000	0.803436
706.000000	0.835396
707.000000	0.800480
708.000000	0.824896
709.000000	0.843457
710.000000	0.839448
711.000000	0.875017
712.000000	0.835116
713.000000	0.826397
714.000000	0.814756
715.000000	0.838167
716.000000	0.853239
717.000000	0.852245
718.000000	0.852758
719.000000	0.839839
720.000000	0.871072
721.000000	0.856436
722.000000	0.901032
723.000000	0.894524
724.000000	0.907182
725.000000	0.971746
726.000000	0.900475
727.000000	0.896439
728.000000	0.965716
729.000000	0.910898
730.000000	0.890344
731.000000	0.920867
732.000000	0.979014
733.000000	0.877028
734.000000	0.919938
735.000000	0.978826
736.000000	0.976313
737.000000	0.952679
738.000000	0.899720
739.000000	0.915229
740.000000	0.954804
741.000000	0.915771
742.000000	0.979217
743.000000	1.029172
744.000000	0.973711
745.000000	1.072267
746.000000	0.989523
747.000000	1.035920
748.000000	1.003253
749.000000	1.010482
750.000000	0.983889
751.000000	0.979673
752.000000	0.975938
753.000000	0.994391
754.000000	1.041911
755.000000	0.954527
756.000000	0.989189
757.000000	1.029953
758.000000	1.053109
759.000000	1.045437
760.000000	1.083668
761.000000	1.121247
762.000000	1.179704
763.000000	1.164455
764.000000	1.176969
765.000000	1.080699
766.000000	1.227097
767.000000	1.138555
768.000000	1.205985
769.000000	1.181094
770.000000	1.071768
771.000000	1.098766
772.000000	1.118148
773.000000	1.115590
774.000000	1.065473
775.000000	1.254900
776.000000	1.211451
777.000000	1.068862
778.000000	1.177028
779.000000	1.195464
780.000000	1.270830
781.000000	1.379796
782.000000	1.237058
783.000000	1.287379
784.000000	1.299533
785.000000	1.245800
786.000000	1.217809
787.000000	1.216930
788.000000	1.185840
789.000000	1.221110
790.000000	1.207478
791.000000	1.186310
792.000000	1.253282
793.000000	1.135741
794.000000	1.116223
795.000000	1.192050
796.000000	1.199661
797.000000	1.159902
798.000000	1.217546
799.000000	1.182788
800.000000	1.249899
801.000000	1.418615
802.000000	1.223605
803.000000	1.247038
804.000000	1.273082
805.000000	1.350492
806.000000	1.328313
807.000000	1.231782
808.000000	1.318680
809.000000	1.368775
810.000000	1.239252
811.000000	1.239404
812.000000	1.385102
813.000000	1.310536
814.000000	1.390899
815.000000	1.334486
816.000000	1.343613
817.000000	1.439623
818.000000	1.566625
819.000000	1.322985
820.000000	1.517180
821.000000	1.546353
822.000000	1.504251
823.000000	1.526791
824.000000	1.566828
825.000000	1.571679
826.000000	1.480782
827.000000	1.497152
828.000000	1.773857
829.000000	1.684810
830.000000	1.709565
831.000000	1.684500
832.000000	1.808218
833.000000	1.705735
834.000000	1.714020
835.000000	1.811070
836.000000	1.832559
837.000000	1.896778
838.000000	1.736583
839.000000	1.856832
840.000000	1.887710
841.000000	1.905744
842.000000	1.834007
843.000000	1.750858
844.000000	1.676800
845.000000	1.797159
846.000000	1.888530
847.000000	1.954609
848.000000	1.812164
849.000000	1.603674
850.000000	1.726375
851.000000	1.750869
852.000000	1.842043
853.000000	2.091321
854.000000	1.728457
855.000000	2.055791
856.000000	2.005550
857.000000	2.036802
858.000000	2.043274
859.000000	2.026210
860.000000	2.038176
861.000000	2.036336
862.000000	2.049918
863.000000	2.052222
864.000000	2.046659
865.000000	2.059733
866.000000	2.063800
867.000000	2.057899
868.000000	2.052122
869.000000	2.046335
870.000000	2.057856
871.000000	2.063574
872.000000	2.084955
873.000000	2.064208
874.000000	2.005014
875.000000	1.942173
876.000000	1.937135
877.000000	1.914559
878.000000	1.863181
879.000000	1.819278
880.000000	1.802208
881.000000	1.788684
882.000000	1.776627
883.000000	1.767128
884.000000	1.754630
885.000000	1.727817
886.000000	1.716034
887.000000	1.697310
888.000000	1.677338
889.000000	1.673700
890.000000	1.675106
891.000000	1.673921
892.000000	1.662523
893.000000	1.662953
894.000000	1.659215
895.000000	1.661602
896.000000	1.672383
897.000000	1.670244
898.000000	1.662504
899.000000	1.666506
900.000000	1.677082
901.000000	1.681619
902.000000	1.689157
903.000000	1.685866
904.000000	1.672871
905.000000	1.678309
906.000000	1.681756
907.000000	1.671264
908.000000	1.673811
909.000000	1.685149
910.000000	1.688625
911.000000	1.687335
912.000000	1.686416
913.000000	1.692200
914.000000	1.702631
915.000000	1.696128
916.000000	1.684560
917.000000	1.689483
918.000000	1.686699
919.000000	1.684407
920.000000	1.689408
921.000000	1.685122
922.000000	1.684851
923.000000	1.700721
924.000000	1.703500
925.000000	1.688876
926.000000	1.691924
927.000000	1.705252
928.000000	1.719057
929.000000	1.721742
930.000000	1.724306
931.000000	1.737179
932.000000	1.747471
933.000000	1.747659
934.000000	1.752969
935.000000	1.755341
936.000000	1.757310
937.000000	1.772961
938.000000	1.787791
939.000000	1.792784
940.000000	1.794492
941.000000	1.787536
942.000000	1.790632
943.000000	1.800934
944.000000	1.809766
945.000000	1.812669
946.000000	1.815591
947.000000	1.813948
948.000000	1.819480
949.000000	1.836335
950.000000	1.846618
951.000000	1.845191
952.000000	1.849651
953.000000	1.856485
954.000000	1.863791
955.000000	1.872621
956.000000	1.866449
957.000000	1.871331
958.000000	1.874790
959.000000	1.875889
960.000000	1.881870
961.000000	1.875617
962.000000	1.878169
963.000000	1.881945
964.000000	1.880044
965.000000	1.879631
966.000000	1.884302
967.000000	1.881377
968.000000	1.879188
969.000000	1.880418
970.000000	1.878946
971.000000	1.875510
972.000000	1.872792
973.000000	1.874604
974.000000	1.883119
975.000000	1.885478
976.000000	1.890382
977.000000	1.891249
978.000000	1.893833
979.000000	1.896219
980.000000	1.894950
981.000000	1.894059
982.000000	1.903723
983.000000	1.900997
984.000000	1.906876
985.000000	1.913255
986.000000	1.912872
987.000000	1.916269
988.000000	1.919444
989.000000	1.921195
990.000000	1.923337
991.000000	1.917702
992.000000	1.922210
993.000000	1.926752
994.000000	1.943157
995.000000	1.942693
996.000000	1.944657
997.000000	1.952990
998.000000	1.972322
999.000000	1.975667
1000.000000	1.974036
1001.000000	1.980796
1002.000000	1.996391
1003.000000	2.007278
1004.000000	2.000121
1005.000000	1.995810
1006.000000	2.000779
1007.000000	2.024506
1008.000000	2.036694
1009.000000	2.036789
1010.000000	2.032633
1011.000000	2.025938
1012.000000	2.046808
1013.000000	2.065226
1014.000000	2.058167
1015.000000	2.055395
1016.000000	2.064211
1017.000000	2.063118
1018.000000	2.086349
1019.000000	2.087222
1020.000000	2.082486
1021.000000	2.073671
1022.000000	2.075720
1023.000000	2.087434
1024.000000	2.083492
1025.000000	2.091739
1026.000000	2.089038
1027.000000	2.083346
1028.000000	2.084431
1029.000000	2.091649
1030.000000	2.090351
1031.000000	2.104646
1032.000000	2.100268
1033.000000	2.107696
1034.000000	2.105632
1035.000000	2.106641
1036.000000	2.105476
1037.000000	2.104653
1038.000000	2.115622
1039.000000	2.109422
1040.000000	2.114032
1041.000000	2.121028
1042.000000	2.125510
1043.000000	2.119177
1044.000000	2.118606
1045.000000	2.138810
1046.000000	2.134989
1047.000000	2.129892
1048.000000	2.143027
1049.000000	2.138544
1050.000000	2.147753
1051.000000	2.154057
1052.000000	2.154417
1053.000000	2.151359
1054.000000	2.156268
1055.000000	2.161440
1056.000000	2.159510
1057.000000	2.166053
1058.000000	2.166150
1059.000000	2.157598
1060.000000	2.171314
1061.000000	2.171064
1062.000000	2.175022
1063.000000	2.179435
1064.000000	2.186523
1065.000000	2.178775
1066.000000	2.191902
1067.000000	2.187156
1068.000000	2.185071
1069.000000	2.202118
1070.000000	2.216461
1071.000000	2.204290
1072.000000	2.223503
1073.000000	2.208655
1074.000000	2.218764
1075.000000	2.216257
1076.000000	2.219327
1077.000000	2.232937
1078.000000	2.233574
1079.000000	2.230871
1080.000000	2.241095
1081.000000	2.242447
1082.000000	2.240222
1083.000000	2.247720
1084.000000	2.248295
1085.000000	2.252475
1086.000000	2.256307
1087.000000	2.243613
1088.000000	2.243240
1089.000000	2.267400
1090.000000	2.270594
1091.000000	2.256562
1092.000000	2.273005
1093.000000	2.264235
1094.000000	2.271501
1095.000000	2.273471
1096.000000	2.271387
1097.000000	2.279841
1098.000000	2.265058
1099.000000	2.278737
1100.000000	2.272290
1101.000000	2.271601
1102.000000	2.283547
1103.000000	2.290804
1104.000000	2.285465
1105.000000	2.297647
1106.000000	2.299271
1107.000000	2.291902
1108.000000	2.294248
1109.000000	2.298438
1110.000000	2.300400
1111.000000	2.306094
1112.000000	2.311344
1113.000000	2.296616
1114.000000	2.301097
1115.000000	2.310310
1116.000000	2.300662
1117.000000	2.306195
1118.000000	2.315408
1119.000000	2.304274
1120.000000	2.301337
1121.000000	2.307681
1122.000000	2.310322
1123.000000	2.313013
1124.000000	2.309286
1125.000000	2.324000
1126.000000	2.311091
1127.000000	2.303672
1128.000000	2.308454
1129.000000	2.300095
1130.000000	2.314553
1131.000000	2.323452
1132.000000	2.322034
1133.000000	2.323841
1134.000000	2.320197
1135.000000	2.319198
1136.000000	2.327573
1137.000000	2.346351
1138.000000	2.361357
1139.000000	2.364118
1140.000000	2.376952
1141.000000	2.398576
1142.000000	2.414928
1143.000000	2.426071
1144.000000	2.423282
1145.000000	2.441881
1146.000000	2.468943
1147.000000	2.472944
1148.000000	2.465114
1149.000000	2.462617
1150.000000	2.471660
1151.000000	2.474041
1152.000000	2.455230
1153.000000	2.447351
1154.000000	2.451274
1155.000000	2.451636
1156.000000	2.451706
1157.000000	2.444075
1158.000000	2.444080
1159.000000	2.446130
1160.000000	2.456602
1161.000000	2.466224
1162.000000	2.468815
1163.000000	2.472237
1164.000000	2.480345
1165.000000	2.477837
1166.000000	2.491111
1167.000000	2.500095
1168.000000	2.495159
1169.000000	2.503592
1170.000000	2.515393
1171.000000	2.515247
1172.000000	2.526399
1173.000000	2.527574
1174.000000	2.543279
1175.000000	2.544361
1176.000000	2.542740
1177.000000	2.550262
1178.000000	2.551251
1179.000000	2.562669
1180.000000	2.570758
1181.000000	2.585653
1182.000000	2.610906
1183.000000	2.637870
1184.000000	2.655995
1185.000000	2.666910
1186.000000	2.686286
1187.000000	2.702727
1188.000000	2.709934
1189.000000	2.715651
1190.000000	2.702325
1191.000000	2.703562
1192.000000	2.691739
1193.000000	2.670594
1194.000000	2.658441
1195.000000	2.648662
1196.000000	2.634557
1197.000000	2.633701
1198.000000	2.636790
1199.000000	2.636855
1200.000000	2.632707
1201.000000	2.626601
1202.000000	2.638312
1203.000000	2.652056
1204.000000	2.652510
1205.000000	2.649334
1206.000000	2.654861
1207.000000	2.666131
1208.000000	2.666640
1209.000000	2.666958
1210.000000	2.663153
1211.000000	2.656028
1212.000000	2.659598
1213.000000	2.657295
1214.000000	2.643081
1215.000000	2.637761
1216.000000	2.643862
1217.000000	2.636662
1218.000000	2.629381
1219.000000	2.629892
1220.000000	2.619389
1221.000000	2.612232
1222.000000	2.607900
1223.000000	2.598669
1224.000000	2.591304
1225.000000	2.578925
1226.000000	2.573690
1227.000000	2.567721
1228.000000	2.551751
1229.000000	2.543750
1230.000000	2.543739
1231.000000	2.540566
1232.000000	2.531734
1233.000000	2.527745
1234.000000	2.523322
1235.000000	2.511147
1236.000000	2.498705
1237.000000	2.493972
1238.000000	2.498899
1239.000000	2.505837
1240.000000	2.496254
1241.000000	2.490255
1242.000000	2.485183
1243.000000	2.482263
1244.000000	2.485359
1245.000000	2.483522
1246.000000	2.480157
1247.000000	2.477260
1248.000000	2.472471
1249.000000	2.475914
1250.000000	2.480687
1251.000000	2.475440
1252.000000	2.472114
1253.000000	2.467064
1254.000000	2.469724
1255.000000	2.472190
1256.000000	2.472554
1257.000000	2.467903
1258.000000	2.458774
1259.000000	2.453026
1260.000000	2.450740
1261.000000	2.452111
1262.000000	2.458562
1263.000000	2.458945
1264.000000	2.457259
1265.000000	2.449827
1266.000000	2.439501
1267.000000	2.441214
1268.000000	2.441208
1269.000000	2.446630
1270.000000	2.442148
1271.000000	2.436618
1272.000000	2.440172
1273.000000	2.438782
1274.000000	2.441525
1275.000000	2.440481
1276.000000	2.437181
1277.000000	2.434734
1278.000000	2.438514
1279.000000	2.438501
1280.000000	2.436621
1281.000000	2.434603
1282.000000	2.431297
1283.000000	2.429565
1284.000000	2.437076
1285.000000	2.441575
1286.000000	2.445605
1287.000000	2.442413
1288.000000	2.439574
1289.000000	2.427099
1290.000000	2.430886
1291.000000	2.434295
1292.000000	2.430489
1293.000000	2.430169
1294.000000	2.432959
1295.000000	2.430032
1296.000000	2.433319
1297.000000	2.436732
1298.000000	2.443656
1299.000000	2.438849
1300.000000	2.434150
1301.000000	2.447880
1302.000000	2.440079
1303.000000	2.438804
1304.000000	2.437717
1305.000000	2.442938
1306.000000	2.436906
1307.000000	2.435541
1308.000000	2.430795
1309.000000	2.438189
1310.000000	2.443288
1311.000000	2.439755
1312.000000	2.437888
1313.000000	2.435325
1314.000000	2.442118
1315.000000	2.441689
1316.000000	2.435477
1317.000000	2.444431
1318.000000	2.459146
1319.000000	2.455169
1320.000000	2.447391
1321.000000	2.452054
1322.000000	2.449673
1323.000000	2.455445
1324.000000	2.459576
1325.000000	2.463242
1326.000000	2.461335
1327.000000	2.456186
1328.000000	2.457468
1329.000000	2.471402
1330.000000	2.466454
1331.000000	2.459881
1332.000000	2.480049
1333.000000	2.462404
1334.000000	2.463424
1335.000000	2.472305
1336.000000	2.468527
1337.000000	2.470192
1338.000000	2.471101
1339.000000	2.476848
1340.000000	2.480589
1341.000000	2.464967
1342.000000	2.464723
1343.000000	2.473583
1344.000000	2.470821
1345.000000	2.471287
1346.000000	2.470261
1347.000000	2.446181
1348.000000	2.439170
1349.000000	2.445955
1350.000000	2.457595
1351.000000	2.451080
1352.000000	2.449239
1353.000000	2.492551
1354.000000	2.504091
1355.000000	2.514309
1356.000000	2.527668
1357.000000	2.551931
1358.000000	2.553791
1359.000000	2.549131
1360.000000	2.562280
1361.000000	2.553917
1362.000000	2.546684
1363.000000	2.551892
1364.000000	2.549389
1365.000000	2.535802
1366.000000	2.553677
1367.000000	2.556031
1368.000000	2.560684
1369.000000	2.549123
1370.000000	2.562876
1371.000000	2.560446
1372.000000	2.537656
1373.000000	2.565394
1374.000000	2.572393
1375.000000	2.584722
1376.000000	2.591591
1377.000000	2.584312
1378.000000	2.592956
1379.000000	2.584869
1380.000000	2.609002
1381.000000	2.564261
1382.000000	2.557356
1383.000000	2.549606
1384.000000	2.543463
1385.000000	2.560225
1386.000000	2.562995
1387.000000	2.578716
1388.000000	2.547414
1389.000000	2.545524
1390.000000	2.574058
1391.000000	2.547969
1392.000000	2.540061
1393.000000	2.544673
1394.000000	2.547373
1395.000000	2.521616
1396.000000	2.497619
1397.000000	2.495418
1398.000000	2.498465
1399.000000	2.477918
1400.000000	2.444435
1401.000000	2.408237
1402.000000	2.424739
1403.000000	2.399527
1404.000000	2.401330
1405.000000	2.395724
1406.000000	2.371267
1407.000000	2.368842
1408.000000	2.361817
1409.000000	2.353640
1410.000000	2.339090
1411.000000	2.324638
1412.000000	2.331567
1413.000000	2.332687
1414.000000	2.310095
1415.000000	2.296913
1416.000000	2.297758
1417.000000	2.302582
1418.000000	2.290693
1419.000000	2.275004
1420.000000	2.255879
1421.000000	2.253951
1422.000000	2.256952
1423.000000	2.243533
1424.000000	2.233348
1425.000000	2.221032
1426.000000	2.226028
1427.000000	2.216293
1428.000000	2.210794
1429.000000	2.218742
1430.000000	2.216774
1431.000000	2.216480
1432.000000	2.207209
1433.000000	2.207885
1434.000000	2.203178
1435.000000	2.196802
1436.000000	2.203222
1437.000000	2.206706
1438.000000	2.190606
1439.000000	2.194021
1440.000000	2.195620
1441.000000	2.191854
1442.000000	2.182891
1443.000000	2.178558
1444.000000	2.176180
1445.000000	2.176090
1446.000000	2.161416
1447.000000	2.158602
1448.000000	2.147360
1449.000000	2.150185
1450.000000	2.153497
1451.000000	2.146076
1452.000000	2.127254
1453.000000	2.125094
1454.000000	2.114860
1455.000000	2.112649
1456.000000	2.102389
1457.000000	2.100068
1458.000000	2.096881
1459.000000	2.097014
1460.000000	2.094530
1461.000000	2.088066
1462.000000	2.085924
1463.000000	2.078243
1464.000000	2.073807
1465.000000	2.075012
1466.000000	2.078545
1467.000000	2.058088
1468.000000	2.053907
1469.000000	2.058944
1470.000000	2.056571
1471.000000	2.058068
1472.000000	2.045014
1473.000000	2.035144
1474.000000	2.040775
1475.000000	2.045035
1476.000000	2.037131
1477.000000	2.029167
1478.000000	2.023184
1479.000000	2.031163
1480.000000	2.035244
1481.000000	2.032928
1482.000000	2.031703
1483.000000	2.031488
1484.000000	2.034031
1485.000000	2.030767
1486.000000	2.026028
1487.000000	2.015085
1488.000000	2.023036
1489.000000	2.025036
1490.000000	2.017405
1491.000000	2.016724
1492.000000	2.021463
1493.000000	2.023057
1494.000000	2.019222
1495.000000	2.027021
1496.000000	2.036441
1497.000000	2.037149
1498.000000	2.033834
1499.000000	2.037296
1500.000000	2.049337
1501.000000	2.052158
1502.000000	2.050642
1503.000000	2.058152
1504.000000	2.070870
1505.000000	2.071830
1506.000000	2.066474
1507.000000	2.073424
1508.000000	2.084432
1509.000000	2.095849
1510.000000	2.095983
1511.000000	2.095430
1512.000000	2.112265
1513.000000	2.113234
1514.000000	2.116156
1515.000000	2.122840
1516.000000	2.128736
1517.000000	2.140859
1518.000000	2.136619
1519.000000	2.134040
1520.000000	2.147319
1521.000000	2.153075
1522.000000	2.157891
1523.000000	2.156072
1524.000000	2.156792
1525.000000	2.163562
1526.000000	2.159332
1527.000000	2.168044
1528.000000	2.172880
1529.000000	2.166835
1530.000000	2.162556
1531.000000	2.180658
1532.000000	2.183962
1533.000000	2.182390
1534.000000	2.191161
1535.000000	2.186703
1536.000000	2.180697
1537.000000	2.183491
1538.000000	2.190954
1539.000000	2.194223
1540.000000	2.199369
1541.000000	2.194852
1542.000000	2.193639
1543.000000	2.199836
1544.000000	2.197398
1545.000000	2.196143
1546.000000	2.196758
1547.000000	2.201822
1548.000000	2.202350
1549.000000	2.210137
1550.000000	2.216902
1551.000000	2.213120
1552.000000	2.224296
1553.000000	2.224737
1554.000000	2.217729
1555.000000	2.222367
1556.000000	2.226998
1557.000000	2.222659
1558.000000	2.233702
1559.000000	2.231182
1560.000000	2.223515
1561.000000	2.231561
1562.000000	2.231218
1563.000000	2.231303
1564.000000	2.234531
1565.000000	2.232435
1566.000000	2.240119
1567.000000	2.238142
1568.000000	2.229156
1569.000000	2.237203
1570.000000	2.235120
1571.000000	2.230541
1572.000000	2.233723
1573.000000	2.231897
1574.000000	2.238081
1575.000000	2.234348
1576.000000	2.241050
1577.000000	2.230249
1578.000000	2.233705
1579.000000	2.227290
1580.000000	2.226864
1581.000000	2.226556
1582.000000	2.233504
1583.000000	2.229616
1584.000000	2.242689
1585.000000	2.245821
1586.000000	2.256746
1587.000000	2.258550
1588.000000	2.257154
1589.000000	2.258656
1590.000000	2.256716
1591.000000	2.257924
1592.000000	2.258962
1593.000000	2.261929
1594.000000	2.265383
1595.000000	2.270284
1596.000000	2.272693
1597.000000	2.280838
1598.000000	2.279817
1599.000000	2.280640
1600.000000	2.287135
1601.000000	2.279742
1602.000000	2.296961
1603.000000	2.286124
1604.000000	2.293977
1605.000000	2.298163
1606.000000	2.305335
1607.000000	2.294483
1608.000000	2.291096
1609.000000	2.291704
1610.000000	2.283639
1611.000000	2.282895
1612.000000	2.289888
1613.000000	2.288362
1614.000000	2.291115
1615.000000	2.284043
1616.000000	2.280392
1617.000000	2.288616
1618.000000	2.288217
1619.000000	2.274999
1620.000000	2.276757
1621.000000	2.275260
1622.000000	2.260752
1623.000000	2.267659
1624.000000	2.269497
1625.000000	2.266688
1626.000000	2.257349
1627.000000	2.254099
1628.000000	2.247173
1629.000000	2.248860
1630.000000	2.259708
1631.000000	2.253724
1632.000000	2.253633
1633.000000	2.252403
1634.000000	2.252328
1635.000000	2.245181
1636.000000	2.235567
1637.000000	2.243107
1638.000000	2.225221
1639.000000	2.224534
1640.000000	2.204953
1641.000000	2.223557
1642.000000	2.216739
1643.000000	2.211540
1644.000000	2.208261
1645.000000	2.206618
1646.000000	2.190646
1647.000000	2.196548
1648.000000	2.190146
1649.000000	2.183705
1650.000000	2.181652
1651.000000	2.181008
1652.000000	2.160309
1653.000000	2.174186
1654.000000	2.158716
1655.000000	2.150175
1656.000000	2.150963
1657.000000	2.138178
1658.000000	2.129717
1659.000000	2.107661
1660.000000	2.105297
1661.000000	2.088755
1662.000000	2.087697
1663.000000	2.072298
1664.000000	2.052712
1665.000000	2.045873
1666.000000	2.020112
1667.000000	2.004618
1668.000000	2.001790
1669.000000	1.978535
1670.000000	1.971666
1671.000000	1.960041
1672.000000	1.939582
1673.000000	1.925187
1674.000000	1.918985
1675.000000	1.904055
1676.000000	1.878476
1677.000000	1.852571
1678.000000	1.831091
1679.000000	1.826388
1680.000000	1.834555
1681.000000	1.814731
1682.000000	1.831023
1683.000000	1.828413
1684.000000	1.823802
1685.000000	1.833291
1686.000000	1.823243
1687.000000	1.818772
1688.000000	1.814950
1689.000000	1.825536
1690.000000	1.817466
1691.000000	1.830598
1692.000000	1.826187
1693.000000	1.847155
1694.000000	1.860749
1695.000000	1.871143
1696.000000	1.890297
1697.000000	1.892512
1698.000000	1.902928
1699.000000	1.911567
1700.000000	1.917873
1701.000000	1.930741
1702.000000	1.924383
1703.000000	1.923203
1704.000000	1.922335
1705.000000	1.923761
1706.000000	1.910260
1707.000000	1.901144
1708.000000	1.891275
1709.000000	1.898360
1710.000000	1.885110
1711.000000	1.873668
1712.000000	1.862580
1713.000000	1.859664
1714.000000	1.838455
1715.000000	1.835924
1716.000000	1.826758
1717.000000	1.821319
1718.000000	1.820860
1719.000000	1.816583
1720.000000	1.799568
1721.000000	1.792787
1722.000000	1.783164
1723.000000	1.787075
1724.000000	1.789878
1725.000000	1.786414
1726.000000	1.796239
1727.000000	1.797883
1728.000000	1.805165
1729.000000	1.800235
1730.000000	1.817078
1731.000000	1.831006
1732.000000	1.836248
1733.000000	1.838103
1734.000000	1.845167
1735.000000	1.855171
1736.000000	1.852576
1737.000000	1.850807
1738.000000	1.848735
1739.000000	1.843120
1740.000000	1.835002
1741.000000	1.839780
1742.000000	1.833198
1743.000000	1.837647
1744.000000	1.831201
1745.000000	1.822084
1746.000000	1.821715
1747.000000	1.817273
1748.000000	1.824694
1749.000000	1.832715
1750.000000	1.829307
1751.000000	1.822293
1752.000000	1.822678
1753.000000	1.829295
1754.000000	1.827517
1755.000000	1.836568
1756.000000	1.832099
1757.000000	1.822229
1758.000000	1.825117
1759.000000	1.832245
1760.000000	1.834955
1761.000000	1.831661
1762.000000	1.841616
1763.000000	1.847722
1764.000000	1.846662
1765.000000	1.852145
1766.000000	1.854857
1767.000000	1.859494
1768.000000	1.854906
1769.000000	1.855174
1770.000000	1.848236
1771.000000	1.849176
1772.000000	1.851479
1773.000000	1.843420
1774.000000	1.837594
1775.000000	1.839138
1776.000000	1.835572
1777.000000	1.830425
1778.000000	1.832302
1779.000000	1.830986
1780.000000	1.830746
1781.000000	1.830340
1782.000000	1.821934
1783.000000	1.818288
1784.000000	1.819263
1785.000000	1.814912
1786.000000	1.815387
1787.000000	1.812543
1788.000000	1.809624
1789.000000	1.808969
1790.000000	1.812820
1791.000000	1.813813
1792.000000	1.811693
1793.000000	1.809599
1794.000000	1.804176
1795.000000	1.802623
1796.000000	1.803959
1797.000000	1.806562
1798.000000	1.812026
1799.000000	1.816189
1800.000000	1.808915
1801.000000	1.807565
1802.000000	1.806347
1803.000000	1.802680
1804.000000	1.801594
1805.000000	1.807403
1806.000000	1.816240
1807.000000	1.814225
1808.000000	1.816990
1809.000000	1.816725
1810.000000	1.813418
1811.000000	1.814794
1812.000000	1.815792
1813.000000	1.805471
1814.000000	1.804772
1815.000000	1.799500
1816.000000	1.807068
1817.000000	1.815669
1818.000000	1.814277
1819.000000	1.817682
1820.000000	1.823323
1821.000000	1.812443
1822.000000	1.801364
1823.000000	1.802605
1824.000000	1.807302
1825.000000	1.806048
1826.000000	1.806422
1827.000000	1.814170
1828.000000	1.811613
1829.000000	1.806482
1830.000000	1.800276
1831.000000	1.805372
1832.000000	1.806482
1833.000000	1.812869
1834.000000	1.818352
1835.000000	1.829934
1836.000000	1.834787
1837.000000	1.842269
1838.000000	1.838049
1839.000000	1.830158
1840.000000	1.825835
1841.000000	1.813354
1842.000000	1.803005
1843.000000	1.808901
1844.000000	1.815970
1845.000000	1.815622
1846.000000	1.827810
1847.000000	1.827599
1848.000000	1.813150
1849.000000	1.798908
1850.000000	1.788613
1851.000000	1.792760
1852.000000	1.798230
1853.000000	1.803051
1854.000000	1.786768
1855.000000	1.786502
1856.000000	1.788753
1857.000000	1.784316
1858.000000	1.779132
1859.000000	1.758844
1860.000000	1.748115
1861.000000	1.738827
1862.000000	1.737792
1863.000000	1.737490
1864.000000	1.740937
1865.000000	1.742566
1866.000000	1.743887
1867.000000	1.740059
1868.000000	1.752530
1869.000000	1.734413
1870.000000	1.731091
1871.000000	1.717206
1872.000000	1.709706
1873.000000	1.681489
1874.000000	1.651311
1875.000000	1.633686
1876.000000	1.620381
1877.000000	1.595933
1878.000000	1.570336
1879.000000	1.552202
1880.000000	1.552641
1881.000000	1.529395
1882.000000	1.520135
1883.000000	1.494531
1884.000000	1.471388
1885.000000	1.458298
1886.000000	1.436599
1887.000000	1.419480
1888.000000	1.400140
1889.000000	1.392655
1890.000000	1.371290
1891.000000	1.337050
1892.000000	1.299902
1893.000000	1.291957
1894.000000	1.267621
1895.000000	1.247590
1896.000000	1.227120
1897.000000	1.212794
1898.000000	1.214966
1899.000000	1.194802
1900.000000	1.172529
1901.000000	1.142786
1902.000000	1.114271
1903.000000	1.110849
1904.000000	1.074836
1905.000000	1.051842
1906.000000	1.016873
1907.000000	0.999398
1908.000000	0.993555
1909.000000	0.976833
1910.000000	0.958397
1911.000000	0.961061
1912.000000	0.958999
1913.000000	0.938171
1914.000000	0.906623
1915.000000	0.909585
1916.000000	0.880230
1917.000000	0.883361
1918.000000	0.876418
1919.000000	0.878747
1920.000000	0.854976
1921.000000	0.845100
1922.000000	0.834681
1923.000000	0.820339
1924.000000	0.816144
1925.000000	0.816172
1926.000000	0.818866
1927.000000	0.798547
1928.000000	0.800386
1929.000000	0.799793
1930.000000	0.781867
1931.000000	0.776529
1932.000000	0.761477
1933.000000	0.771647
1934.000000	0.767364
1935.000000	0.759921
1936.000000	0.769158
1937.000000	0.763599
1938.000000	0.775434
1939.000000	0.776600
1940.000000	0.766936
1941.000000	0.778950
1942.000000	0.768591
1943.000000	0.756027
1944.000000	0.769106
1945.000000	0.771787
1946.000000	0.788598
1947.000000	0.804485
1948.000000	0.807803
1949.000000	0.797440
1950.000000	0.810986
1951.000000	0.838379
1952.000000	0.818115
1953.000000	0.832346
1954.000000	0.830753
1955.000000	0.836863
1956.000000	0.845074
1957.000000	0.857183
1958.000000	0.868955
1959.000000	0.866838
1960.000000	0.866814
1961.000000	0.869673
1962.000000	0.879529
1963.000000	0.886430
1964.000000	0.904899
1965.000000	0.901468
1966.000000	0.902477
1967.000000	0.911332
1968.000000	0.927565
1969.000000	0.931913
1970.000000	0.926668
1971.000000	0.948061
1972.000000	0.947297
1973.000000	0.961054
1974.000000	0.970297
1975.000000	0.991402
1976.000000	0.998686
1977.000000	1.007953
1978.000000	1.013699
1979.000000	1.016109
1980.000000	1.025297
1981.000000	1.033111
1982.000000	1.042776
1983.000000	1.053294
1984.000000	1.069611
1985.000000	1.086093
1986.000000	1.083302
1987.000000	1.088508
1988.000000	1.107150
1989.000000	1.112902
1990.000000	1.113337
1991.000000	1.127973
1992.000000	1.135486
1993.000000	1.145699
1994.000000	1.158523
1995.000000	1.158327
1996.000000	1.172934
1997.000000	1.172234
1998.000000	1.182718
1999.000000	1.185943
2000.000000	1.197425
2001.000000	1.210455
2002.000000	1.217809
2003.000000	1.222263
2004.000000	1.222279
2005.000000	1.217902
2006.000000	1.222684
2007.000000	1.231671
2008.000000	1.240501
2009.000000	1.243597
2010.000000	1.242613
2011.000000	1.250086
2012.000000	1.256201
2013.000000	1.253956
2014.000000	1.243826
2015.000000	1.245476
2016.000000	1.251269
2017.000000	1.250313
2018.000000	1.256143
2019.000000	1.248171
2020.000000	1.244752
2021.000000	1.249127
2022.000000	1.253868
2023.000000	1.240304
2024.000000	1.237758
2025.000000	1.232183
2026.000000	1.231500
2027.000000	1.225902
2028.000000	1.222155
2029.000000	1.208600
2030.000000	1.207873
2031.000000	1.206305
2032.000000	1.199186
2033.000000	1.201374
2034.000000	1.192275
2035.000000	1.187125
2036.000000	1.176038
2037.000000	1.168024
2038.000000	1.161227
2039.000000	1.150877
2040.000000	1.145394
2041.000000	1.139613
2042.000000	1.130755
2043.000000	1.119846
2044.000000	1.114716
2045.000000	1.111826
2046.000000	1.109253
2047.000000	1.100242
2048.000000	1.092071
2049.000000	1.087555
2050.000000	1.089023
2051.000000	1.090000
2052.000000	1.088657
2053.000000	1.087083
2054.000000	1.090609
2055.000000	1.092212
2056.000000	1.087077
2057.000000	1.087552
2058.000000	1.107200
2059.000000	1.114135
2060.000000	1.119379
2061.000000	1.123875
2062.000000	1.133624
2063.000000	1.153398
2064.000000	1.157830
2065.000000	1.154214
2066.000000	1.171929
2067.000000	1.189256
2068.000000	1.193404
2069.000000	1.198994
2070.000000	1.205788
2071.000000	1.212480
2072.000000	1.215862
2073.000000	1.226395
2074.000000	1.238889
2075.000000	1.247223
2076.000000	1.259941
2077.000000	1.261376
2078.000000	1.263807
2079.000000	1.273606
2080.000000	1.270380
2081.000000	1.274656
2082.000000	1.288440
2083.000000	1.294618
2084.000000	1.301740
2085.000000	1.299078
2086.000000	1.291932
2087.000000	1.297234
2088.000000	1.305381
2089.000000	1.315092
2090.000000	1.317491
2091.000000	1.313281
2092.000000	1.310483
2093.000000	1.316106
2094.000000	1.316055
2095.000000	1.316410
2096.000000	1.320379
2097.000000	1.332508
2098.000000	1.338514
2099.000000	1.326070
2100.000000	1.337132
2101.000000	1.344062
2102.000000	1.337928
2103.000000	1.353903
2104.000000	1.355221
2105.000000	1.347508
2106.000000	1.352376
2107.000000	1.356643
2108.000000	1.357725
2109.000000	1.358453
2110.000000	1.367206
2111.000000	1.369047
2112.000000	1.362992
2113.000000	1.361969
2114.000000	1.361183
2115.000000	1.357320
2116.000000	1.365226
2117.000000	1.373039
2118.000000	1.363210
2119.000000	1.365248
2120.000000	1.374674
2121.000000	1.368462
2122.000000	1.363482
2123.000000	1.363071
2124.000000	1.376487
2125.000000	1.374073
2126.000000	1.371408
2127.000000	1.360769
2128.000000	1.351635
2129.000000	1.338732
2130.000000	1.335417
2131.000000	1.332011
2132.000000	1.330694
2133.000000	1.329377
2134.000000	1.320946
2135.000000	1.321083
2136.000000	1.314040
2137.000000	1.303189
2138.000000	1.293548
2139.000000	1.287860
2140.000000	1.287755
2141.000000	1.281966
2142.000000	1.275630
2143.000000	1.262028
2144.000000	1.254610
2145.000000	1.250192
2146.000000	1.243582
2147.000000	1.237539
2148.000000	1.227874
2149.000000	1.217501
2150.000000	1.210700
2151.000000	1.200185
2152.000000	1.201587
2153.000000	1.200813
2154.000000	1.192558
2155.000000	1.174590
2156.000000	1.176420
2157.000000	1.157896
2158.000000	1.167761
2159.000000	1.177237
2160.000000	1.160066
2161.000000	1.160048
2162.000000	1.145688
2163.000000	1.147926
2164.000000	1.155410
2165.000000	1.155337
2166.000000	1.139981
2167.000000	1.141226
2168.000000	1.139886
2169.000000	1.134465
2170.000000	1.140080
2171.000000	1.136807
2172.000000	1.151635
2173.000000	1.158818
2174.000000	1.150852
2175.000000	1.158218
2176.000000	1.154073
2177.000000	1.149112
2178.000000	1.154477
2179.000000	1.164611
2180.000000	1.164507
2181.000000	1.163960
2182.000000	1.169077
2183.000000	1.170583
2184.000000	1.169700
2185.000000	1.175160
2186.000000	1.177589
2187.000000	1.176684
2188.000000	1.170652
2189.000000	1.186797
2190.000000	1.189810
2191.000000	1.192223
2192.000000	1.193103
2193.000000	1.205487
2194.000000	1.196308
2195.000000	1.197668
2196.000000	1.207883
2197.000000	1.197728
2198.000000	1.199375
2199.000000	1.191036
2200.000000	1.200791
2201.000000	1.190523
2202.000000	1.202893
2203.000000	1.215324
2204.000000	1.215050
2205.000000	1.219141
2206.000000	1.227955
2207.000000	1.223884
2208.000000	1.238070
2209.000000	1.233340
2210.000000	1.243128
2211.000000	1.253962
2212.000000	1.261851
2213.000000	1.266969
2214.000000	1.269685
2215.000000	1.290977
2216.000000	1.286548
2217.000000	1.283874
2218.000000	1.299345
2219.000000	1.291205
2220.000000	1.311890
2221.000000	1.309949
2222.000000	1.307187
2223.000000	1.315836
2224.000000	1.324672
2225.000000	1.336708
2226.000000	1.315073
2227.000000	1.328071
2228.000000	1.329528
2229.000000	1.335144
2230.000000	1.329953
2231.000000	1.338490
2232.000000	1.331335
2233.000000	1.330721
2234.000000	1.337982
2235.000000	1.320998
2236.000000	1.317755
2237.000000	1.312225
2238.000000	1.311486
2239.000000	1.297888
2240.000000	1.277776
2241.000000	1.284100
2242.000000	1.261961
2243.000000	1.267423
2244.000000	1.250648
2245.000000	1.237337
2246.000000	1.211363
2247.000000	1.206125
2248.000000	1.180407
2249.000000	1.175195
2250.000000	1.149959
2251.000000	1.129144
2252.000000	1.117664
2253.000000	1.088071
2254.000000	1.070958
2255.000000	1.054245
2256.000000	1.023368
2257.000000	1.006767
2258.000000	0.995949
2259.000000	0.980850
2260.000000	0.948453
2261.000000	0.958165
2262.000000	0.936438
2263.000000	0.925945
2264.000000	0.911842
2265.000000	0.914188
2266.000000	0.905340
2267.000000	0.885370
2268.000000	0.887641
2269.000000	0.891907
2270.000000	0.888374
2271.000000	0.891489
2272.000000	0.898632
2273.000000	0.908825
2274.000000	0.907202
2275.000000	0.906732
2276.000000	0.908687
2277.000000	0.914585
2278.000000	0.908226
2279.000000	0.924373
2280.000000	0.916453
2281.000000	0.936361
2282.000000	0.940582
2283.000000	0.944336
2284.000000	0.943933
2285.000000	0.935890
2286.000000	0.936129
2287.000000	0.935554
2288.000000	0.934472
2289.000000	0.920392
2290.000000	0.919755
2291.000000	0.926950
2292.000000	0.914112
2293.000000	0.896642
2294.000000	0.899891
2295.000000	0.905318
2296.000000	0.889548
2297.000000	0.871771
2298.000000	0.871099
2299.000000	0.865586
2300.000000	0.865038
2301.000000	0.860049
2302.000000	0.857178
2303.000000	0.851037
2304.000000	0.849139
2305.000000	0.854376
2306.000000	0.854641
2307.000000	0.869908
2308.000000	0.882446
2309.000000	0.875356
2310.000000	0.893917
2311.000000	0.902608
2312.000000	0.912574
2313.000000	0.928696
2314.000000	0.946998
2315.000000	0.945067
2316.000000	0.958408
2317.000000	0.963589
2318.000000	0.969688
2319.000000	0.978561
2320.000000	0.984462
2321.000000	0.994811
2322.000000	0.996637
2323.000000	0.998767
2324.000000	1.006355
2325.000000	0.999173
2326.000000	0.992864
2327.000000	0.999319
2328.000000	1.007186
2329.000000	1.001001
2330.000000	1.004634
2331.000000	1.013128
2332.000000	1.014388
2333.000000	1.003667
2334.000000	1.008210
2335.000000	1.007429
2336.000000	1.007023
2337.000000	1.002059
2338.000000	0.993502
2339.000000	1.000803
2340.000000	1.000540
2341.000000	0.992802
2342.000000	0.991140
2343.000000	0.992181
2344.000000	0.984256
2345.000000	0.987194
2346.000000	0.992236
2347.000000	0.983265
2348.000000	0.982736
2349.000000	0.987954
2350.000000	0.985943
2351.000000	0.985064
2352.000000	0.995764
2353.000000	1.001760
2354.000000	1.002547
2355.000000	1.001822
2356.000000	1.005960
2357.000000	1.015900
2358.000000	1.017603
2359.000000	1.021118
2360.000000	1.030314
2361.000000	1.035923
2362.000000	1.038892
2363.000000	1.036891
2364.000000	1.035337
2365.000000	1.041459
2366.000000	1.047844
2367.000000	1.049095
2368.000000	1.045278
2369.000000	1.046849
2370.000000	1.051731
2371.000000	1.057579
2372.000000	1.064416
2373.000000	1.059748
2374.000000	1.063888
2375.000000	1.059777
2376.000000	1.054535
2377.000000	1.059123
2378.000000	1.057017
2379.000000	1.057211
2380.000000	1.061721
2381.000000	1.060403
2382.000000	1.058485
2383.000000	1.056701
2384.000000	1.057686
2385.000000	1.052880
2386.000000	1.056932
2387.000000	1.068781
2388.000000	1.060971
2389.000000	1.061339
2390.000000	1.068017
2391.000000	1.053462
2392.000000	1.045569
2393.000000	1.047574
2394.000000	1.052025
2395.000000	1.052603
2396.000000	1.055184
2397.000000	1.057628
2398.000000	1.050515
2399.000000	1.042695
2400.000000	1.034362
2401.000000	1.031501
2402.000000	1.038602
2403.000000	1.037047
2404.000000	1.035196
2405.000000	1.050068
2406.000000	1.046493
2407.000000	1.036441
2408.000000	1.045696
2409.000000	1.045406
2410.000000	1.033755
2411.000000	1.030754
2412.000000	1.032760
2413.000000	1.025811
2414.000000	1.008279
2415.000000	1.013781
2416.000000	1.022092
2417.000000	1.021212
2418.000000	1.006861
2419.000000	0.992559
2420.000000	0.997339
2421.000000	0.991022
2422.000000	0.978130
2423.000000	0.977438
2424.000000	0.974762
2425.000000	0.965707
2426.000000	0.966218
2427.000000	0.961657
2428.000000	0.947494
2429.000000	0.938446
2430.000000	0.928372
2431.000000	0.912725
2432.000000	0.904528
2433.000000	0.900535
2434.000000	0.887045
2435.000000	0.886069
2436.000000	0.862787
2437.000000	0.868619
2438.000000	0.868050
2439.000000	0.855127
2440.000000	0.848661
2441.000000	0.831874
2442.000000	0.826728
2443.000000	0.824064
2444.000000	0.813832
2445.000000	0.783888
2446.000000	0.783761
2447.000000	0.780197
2448.000000	0.777341
2449.000000	0.771097
2450.000000	0.766021
2451.000000	0.729742
2452.000000	0.716300
2453.000000	0.718486
2454.000000	0.696924
2455.000000	0.714602
2456.000000	0.711862
2457.000000	0.704574
2458.000000	0.688032
2459.000000	0.696258
2460.000000	0.681218
2461.000000	0.668853
2462.000000	0.660600
2463.000000	0.676896
2464.000000	0.666197
2465.000000	0.667466
2466.000000	0.624889
2467.000000	0.660776
2468.000000	0.653335
2469.000000	0.632420
2470.000000	0.631093
2471.000000	0.618982
2472.000000	0.628254
2473.000000	0.644748
2474.000000	0.655066
2475.000000	0.619166
2476.000000	0.620334
2477.000000	0.632150
2478.000000	0.607739
2479.000000	0.592066
2480.000000	0.597997
2481.000000	0.608919
2482.000000	0.666185
2483.000000	0.615461
2484.000000	0.617028
2485.000000	0.613123
2486.000000	0.598417
2487.000000	0.622338
2488.000000	0.578213
2489.000000	0.660648
2490.000000	0.584691
2491.000000	0.636151
2492.000000	0.540109
2493.000000	0.654628
2494.000000	0.577781
2495.000000	0.627979
2496.000000	0.612752
2497.000000	0.633783
2498.000000	0.575353
2499.000000	0.632795
2500.000000	0.663963
