Time1=100ms:Average1=5:Objective=10X:Aperture=1: (11/28/2018 10:18:11 AM)
11/28/2018 10:18:11 AM
Reflectance
10X
Ap#: 1
Avg1: 5.000000
Avg2: 0.000000
Int.Time1:100.000000

420.190645	2.241240
420.624620	2.216199
421.058582	2.201977
421.492531	2.182000
421.926468	2.164093
422.360391	2.151525
422.794301	2.143719
423.228199	2.142370
423.662083	2.141927
424.095955	2.147324
424.529813	2.150230
424.963658	2.160838
425.397491	2.160371
425.831310	2.163606
426.265116	2.172254
426.698909	2.176710
427.132689	2.185077
427.566455	2.195485
428.000209	2.207499
428.433949	2.217501
428.867676	2.234548
429.301389	2.250662
429.735090	2.271003
430.168777	2.287552
430.602451	2.299933
431.036111	2.307378
431.469759	2.322597
431.903392	2.336561
432.337013	2.352272
432.770620	2.372453
433.204213	2.394915
433.637794	2.424066
434.071360	2.459782
434.504914	2.498829
434.938453	2.545534
435.371979	2.594427
435.805492	2.645830
436.238991	2.700823
436.672477	2.753408
437.105949	2.807059
437.539407	2.859510
437.972852	2.913738
438.406283	2.965321
438.839700	3.025534
439.273104	3.089852
439.706494	3.155625
440.139871	3.228332
440.573233	3.302892
441.006582	3.379432
441.439917	3.458157
441.873238	3.532600
442.306546	3.600647
442.739839	3.671977
443.173119	3.738390
443.606385	3.806707
444.039636	3.872901
444.472874	3.944316
444.906099	4.015120
445.339309	4.096428
445.772505	4.184405
446.205687	4.273678
446.638855	4.369111
447.072009	4.469615
447.505149	4.571393
447.938275	4.675865
448.371387	4.778846
448.804485	4.880966
449.237569	4.980204
449.670638	5.074290
450.103694	5.162462
450.536735	5.245938
450.969762	5.331867
451.402774	5.419084
451.835773	5.511068
452.268757	5.604148
452.701727	5.697863
453.134683	5.795230
453.567624	5.890098
454.000551	5.983605
454.433464	6.074430
454.866362	6.158367
455.299246	6.241877
455.732116	6.322710
456.164971	6.397280
456.597811	6.470477
457.030638	6.545051
457.463449	6.618935
457.896246	6.697031
458.329029	6.771984
458.761797	6.845600
459.194551	6.917375
459.627290	6.992956
460.060014	7.069031
460.492724	7.146335
460.925419	7.222462
461.358099	7.298388
461.790765	7.372252
462.223416	7.444170
462.656052	7.509578
463.088674	7.573786
463.521281	7.638568
463.953873	7.701123
464.386450	7.760465
464.819012	7.821630
465.251560	7.882258
465.684093	7.946676
466.116611	8.015051
466.549114	8.084908
466.981602	8.153652
467.414075	8.222607
467.846533	8.288149
468.278977	8.353175
468.711405	8.413419
469.143818	8.466312
469.576216	8.516384
470.008600	8.564338
470.440968	8.603350
470.873321	8.642371
471.305659	8.676923
471.737982	8.711323
472.170289	8.740331
472.602582	8.767844
473.034859	8.795264
473.467122	8.821433
473.899369	8.847638
474.331600	8.879191
474.763817	8.913272
475.196018	8.952943
475.628204	9.000338
476.060375	9.054868
476.492530	9.111020
476.924670	9.166281
477.356795	9.216009
477.788904	9.261634
478.220998	9.301541
478.653076	9.336762
479.085139	9.367472
479.517186	9.394455
479.949219	9.419549
480.381235	9.452582
480.813236	9.489913
481.245221	9.534635
481.677191	9.584115
482.109146	9.636371
482.541084	9.693481
482.973008	9.749131
483.404915	9.799252
483.836807	9.843528
484.268683	9.881454
484.700544	9.911331
485.132388	9.933127
485.564217	9.950760
485.996031	9.963395
486.427828	9.967792
486.859610	9.969408
487.291376	9.968411
487.723126	9.966751
488.154860	9.964613
488.586579	9.968845
489.018281	9.974745
489.449968	9.988398
489.881639	10.014683
490.313293	10.051443
490.744932	10.099432
491.176555	10.152578
491.608162	10.207801
492.039753	10.257496
492.471328	10.299494
492.902886	10.331466
493.334429	10.351892
493.765956	10.359226
494.197466	10.359244
494.628960	10.356737
495.060439	10.353090
495.491901	10.356448
495.923347	10.370014
496.354776	10.390745
496.786190	10.425537
497.217587	10.472017
497.648968	10.524347
498.080332	10.576613
498.511681	10.627913
498.943013	10.675745
499.374328	10.713964
499.805628	10.743164
500.236911	10.762703
500.668177	10.773490
501.099427	10.770238
501.530661	10.759951
501.961878	10.736926
502.393079	10.706711
502.824264	10.669452
503.255431	10.622648
503.686583	10.575800
504.117717	10.528463
504.548835	10.484787
504.979937	10.446142
505.411022	10.418779
505.842090	10.403071
506.273142	10.396851
506.704177	10.397440
507.135195	10.401727
507.566197	10.404291
507.997182	10.400675
508.428150	10.387658
508.859102	10.362659
509.290036	10.320469
509.720954	10.266348
510.151855	10.200143
510.582739	10.125036
511.013607	10.047683
511.444457	9.972686
511.875291	9.908310
512.306107	9.851705
512.736907	9.810901
513.167690	9.783235
513.598456	9.765333
514.029205	9.755304
514.459936	9.748954
514.890651	9.742954
515.321349	9.734737
515.752030	9.724589
516.182693	9.709022
516.613340	9.687114
517.043969	9.656182
517.474582	9.620655
517.905177	9.577155
518.335755	9.531914
518.766315	9.483861
519.196859	9.433555
519.627385	9.382598
520.057894	9.334825
520.488386	9.293703
520.918860	9.262945
521.349318	9.242636
521.779757	9.235216
522.210180	9.245689
522.640585	9.273728
523.070973	9.322035
523.501343	9.385086
523.931696	9.462608
524.362031	9.549399
524.792349	9.646684
525.222650	9.742244
525.652933	9.837481
526.083198	9.926110
526.513446	10.009284
526.943677	10.088171
527.373890	10.159758
527.804085	10.228672
528.234262	10.298380
528.664422	10.370528
529.094565	10.446865
529.524689	10.529557
529.954796	10.622539
530.384885	10.721693
530.814957	10.831018
531.245011	10.947877
531.675047	11.067297
532.105065	11.187694
532.535065	11.305933
532.965048	11.418936
533.395013	11.524806
533.824959	11.617617
534.254888	11.698773
534.684799	11.764713
535.114693	11.821159
535.544568	11.861835
535.974425	11.887745
536.404264	11.898937
536.834086	11.899531
537.263889	11.888917
537.693674	11.868882
538.123441	11.839381
538.553190	11.807938
538.982921	11.774360
539.412634	11.743087
539.842329	11.714165
540.272006	11.687954
540.701664	11.665673
541.131304	11.651312
541.560926	11.638564
541.990530	11.630789
542.420116	11.623688
542.849683	11.613890
543.279232	11.599609
543.708763	11.582911
544.138275	11.554909
544.567769	11.517930
544.997245	11.469280
545.426702	11.412286
545.856141	11.347281
546.285562	11.276578
546.714964	11.201044
547.144347	11.126322
547.573713	11.052625
548.003059	10.986488
548.432387	10.925341
548.861697	10.868428
549.290988	10.822928
549.720260	10.785977
550.149514	10.759017
550.578750	10.740103
551.007966	10.729164
551.437164	10.725769
551.866344	10.725986
552.295504	10.728446
552.724646	10.729598
553.153769	10.729871
553.582874	10.723546
554.011960	10.711411
554.441027	10.689015
554.870075	10.658295
555.299104	10.617126
555.728115	10.566473
556.157106	10.506786
556.586079	10.440637
557.015033	10.369462
557.443968	10.295760
557.872884	10.223502
558.301781	10.156302
558.730659	10.091391
559.159518	10.032339
559.588358	9.979419
560.017180	9.934213
560.445982	9.896693
560.874765	9.864878
561.303528	9.836582
561.732273	9.811293
562.160999	9.789089
562.589705	9.766963
563.018393	9.744765
563.447061	9.721879
563.875710	9.694593
564.304340	9.666924
564.732950	9.636201
565.161542	9.602426
565.590114	9.567506
566.018666	9.530712
566.447200	9.492096
566.875714	9.455074
567.304208	9.420513
567.732684	9.388408
568.161140	9.360797
568.589576	9.339473
569.017993	9.325432
569.446391	9.321102
569.874769	9.328112
570.303128	9.344301
570.731467	9.374279
571.159787	9.414082
571.588087	9.465318
572.016368	9.528975
572.444629	9.602003
572.872870	9.684172
573.301092	9.772224
573.729294	9.859513
574.157476	9.948130
574.585639	10.032781
575.013782	10.111678
575.441906	10.183218
575.870009	10.242424
576.298093	10.291824
576.726157	10.327094
577.154202	10.353289
577.582226	10.369059
578.010231	10.376724
578.438216	10.377483
578.866181	10.371296
579.294126	10.362492
579.722051	10.350725
580.149957	10.337436
580.577842	10.321655
581.005707	10.306398
581.433553	10.289050
581.861378	10.268462
582.289184	10.245628
582.716969	10.219447
583.144734	10.188812
583.572479	10.154738
584.000205	10.113367
584.427910	10.067406
584.855594	10.014200
585.283259	9.956501
585.710904	9.893706
586.138528	9.827227
586.566132	9.756469
586.993716	9.685387
587.421280	9.612334
587.848823	9.539434
588.276346	9.466912
588.703849	9.394109
589.131332	9.325345
589.558794	9.257375
589.986236	9.194093
590.413657	9.134366
590.841058	9.078098
591.268438	9.027367
591.695799	8.983604
592.123138	8.948262
592.550458	8.920226
592.977756	8.903293
593.405034	8.895744
593.832292	8.901772
594.259529	8.918481
594.686746	8.947926
595.113942	8.988603
595.541117	9.039342
595.968272	9.098468
596.395406	9.163701
596.822519	9.232893
597.249612	9.304770
597.676684	9.377946
598.103735	9.447993
598.530766	9.513617
598.957775	9.574013
599.384764	9.627140
599.811733	9.673574
600.238680	9.714549
600.665606	9.746187
601.092512	9.772582
601.519397	9.792234
601.946261	9.809466
602.373104	9.822049
602.799926	9.831465
603.226727	9.835560
603.653507	9.838268
604.080266	9.838020
604.507004	9.832345
604.933721	9.820373
605.360417	9.802152
605.787092	9.775993
606.213746	9.741398
606.640379	9.697744
607.066991	9.644043
607.493581	9.581803
607.920150	9.508141
608.346699	9.426205
608.773226	9.336988
609.199731	9.241984
609.626216	9.142741
610.052679	9.039924
610.479121	8.936728
610.905542	8.830800
611.331941	8.727884
611.758319	8.625749
612.184676	8.525976
612.611011	8.428293
613.037325	8.334721
613.463617	8.243697
613.889888	8.156465
614.316138	8.072340
614.742366	7.993601
615.168573	7.918641
615.594758	7.848037
616.020921	7.784984
616.447063	7.730269
616.873184	7.682573
617.299283	7.643479
617.725360	7.615807
618.151416	7.600067
618.577450	7.596250
619.003462	7.606133
619.429453	7.628501
619.855422	7.664918
620.281369	7.712305
620.707295	7.771744
621.133199	7.844015
621.559081	7.925927
621.984941	8.014574
622.410779	8.109378
622.836596	8.206926
623.262391	8.307461
623.688163	8.407474
624.113914	8.507644
624.539644	8.607354
624.965351	8.704628
625.391036	8.797977
625.816699	8.887952
626.242340	8.974209
626.667960	9.056290
627.093557	9.135722
627.519132	9.210800
627.944685	9.283176
628.370216	9.352017
628.795725	9.417670
629.221212	9.474724
629.646677	9.525068
630.072119	9.567576
630.497540	9.601445
630.922938	9.624112
631.348314	9.635102
631.773668	9.633419
632.198999	9.617594
632.624308	9.589809
633.049595	9.548251
633.474860	9.495214
633.900102	9.431705
634.325322	9.357335
634.750520	9.274577
635.175695	9.185732
635.600848	9.093253
636.025978	8.998498
636.451086	8.901420
636.876171	8.805034
637.301234	8.710313
637.726275	8.616253
638.151293	8.524471
638.576288	8.436675
639.001261	8.351759
639.426211	8.269989
639.851139	8.190993
640.276044	8.115137
640.700927	8.042624
641.125787	7.971225
641.550624	7.900805
641.975438	7.831681
642.400230	7.765208
642.824999	7.699900
643.249745	7.636540
643.674469	7.575500
644.099169	7.518664
644.523847	7.465992
644.948502	7.418283
645.373135	7.377699
645.797744	7.340606
646.222330	7.309776
646.646894	7.284723
647.071435	7.264148
647.495953	7.248156
647.920447	7.236911
648.344919	7.229204
648.769368	7.224602
649.193794	7.221753
649.618197	7.222111
650.042576	7.223755
650.466933	7.227126
650.891267	7.230636
651.315577	7.234871
651.739864	7.240112
652.164129	7.246794
652.588370	7.254929
653.012587	7.262737
653.436782	7.271230
653.860953	7.281271
654.285102	7.293126
654.709226	7.307148
655.133328	7.321799
655.557406	7.339429
655.981461	7.359363
656.405493	7.382936
656.829501	7.406200
657.253486	7.429217
657.677448	7.452199
658.101386	7.475054
658.525301	7.496159
658.949192	7.514976
659.373060	7.532078
659.796904	7.546678
660.220725	7.558378
660.644522	7.568339
661.068296	7.576904
661.492046	7.584459
661.915772	7.590016
662.339475	7.596680
662.763154	7.603613
663.186810	7.612167
663.610442	7.624237
664.034050	7.640654
664.457635	7.662618
664.881196	7.690235
665.304733	7.722950
665.728247	7.762366
666.151736	7.809459
666.575202	7.863140
666.998644	7.922698
667.422062	7.987271
667.845457	8.057260
668.268827	8.132426
668.692174	8.209543
669.115496	8.288232
669.538795	8.365682
669.962070	8.444833
670.385321	8.521519
670.808547	8.593571
671.231750	8.659568
671.654929	8.718967
672.078084	8.774051
672.501214	8.820939
672.924321	8.861028
673.347404	8.895129
673.770462	8.921408
674.193496	8.941744
674.616506	8.956832
675.039492	8.967257
675.462454	8.971797
675.885391	8.971744
676.308305	8.968723
676.731194	8.961542
677.154058	8.951491
677.576899	8.937832
677.999715	8.920492
678.422507	8.901405
678.845274	8.879195
679.268017	8.854565
679.690736	8.825872
680.113430	8.794760
680.536100	8.760424
680.958746	8.723209
681.381367	8.681788
681.803963	8.640069
682.226535	8.597006
682.649083	8.553706
683.071605	8.509974
683.494104	8.466422
683.916578	8.426109
684.339027	8.388659
684.761451	8.354579
685.183851	8.323704
685.606227	8.295929
686.028577	8.271049
686.450903	8.250316
686.873204	8.232599
687.295481	8.215500
687.717733	8.200547
688.139959	8.186745
688.562162	8.174207
688.984339	8.162398
689.406492	8.149709
689.828619	8.136460
690.250722	8.120300
690.672800	8.102135
691.094853	8.082319
691.516881	8.061242
691.938884	8.035982
692.360863	8.007869
692.782816	7.980385
693.204744	7.950477
693.626647	7.920836
694.048526	7.890643
694.470379	7.862532
694.892207	7.835108
695.314010	7.810046
695.735788	7.787254
696.157540	7.767174
696.579268	7.750370
697.000970	7.737402
697.422648	7.728311
697.844300	7.723485
698.265926	7.722586
698.687528	7.727586
699.109104	7.737640
699.530655	7.750105
699.952181	7.768178
