Time1=100ms:Average1=5:Objective=10X:Aperture=1: (11/21/2018 2:22:57 PM)
11/21/2018 2:22:57 PM
Reflectance
10X
Ap#: 1
Avg1: 5.000000
Avg2: 0.000000
Int.Time1:100.000000

420.190645	3.373661
420.624620	3.323208
421.058582	3.279934
421.492531	3.239239
421.926468	3.196794
422.360391	3.167492
422.794301	3.145552
423.228199	3.131226
423.662083	3.119570
424.095955	3.108963
424.529813	3.099692
424.963658	3.091495
425.397491	3.075059
425.831310	3.059018
426.265116	3.035925
426.698909	3.018559
427.132689	3.003773
427.566455	2.995764
428.000209	2.995323
428.433949	2.989714
428.867676	2.985771
429.301389	2.979700
429.735090	2.975126
430.168777	2.965405
430.602451	2.954727
431.036111	2.938222
431.469759	2.921253
431.903392	2.907987
432.337013	2.888369
432.770620	2.873239
433.204213	2.863585
433.637794	2.861309
434.071360	2.857526
434.504914	2.856600
434.938453	2.861279
435.371979	2.867393
435.805492	2.875093
436.238991	2.877725
436.672477	2.877130
437.105949	2.876570
437.539407	2.870128
437.972852	2.866510
438.406283	2.862781
438.839700	2.865963
439.273104	2.867763
439.706494	2.872189
440.139871	2.879875
440.573233	2.888242
441.006582	2.895974
441.439917	2.896729
441.873238	2.899273
442.306546	2.899468
442.739839	2.893245
443.173119	2.885980
443.606385	2.877814
444.039636	2.872972
444.472874	2.870145
444.906099	2.871717
445.339309	2.876396
445.772505	2.884363
446.205687	2.895766
446.638855	2.907843
447.072009	2.921127
447.505149	2.938413
447.938275	2.954030
448.371387	2.966248
448.804485	2.973964
449.237569	2.977876
449.670638	2.988080
450.103694	2.992012
450.536735	2.998133
450.969762	3.004087
451.402774	3.008814
451.835773	3.014636
452.268757	3.024509
452.701727	3.036258
453.134683	3.051556
453.567624	3.065302
454.000551	3.077298
454.433464	3.086553
454.866362	3.095116
455.299246	3.103146
455.732116	3.108524
456.164971	3.116210
456.597811	3.125680
457.030638	3.133163
457.463449	3.144076
457.896246	3.153998
458.329029	3.162771
458.761797	3.173597
459.194551	3.187112
459.627290	3.198010
460.060014	3.208925
460.492724	3.220489
460.925419	3.231436
461.358099	3.243944
461.790765	3.255292
462.223416	3.266515
462.656052	3.277058
463.088674	3.283734
463.521281	3.289860
463.953873	3.295933
464.386450	3.300971
464.819012	3.308597
465.251560	3.317329
465.684093	3.323457
466.116611	3.332667
466.549114	3.342159
466.981602	3.351712
467.414075	3.361224
467.846533	3.370132
468.278977	3.375626
468.711405	3.383266
469.143818	3.391350
469.576216	3.396584
470.008600	3.398343
470.440968	3.400024
470.873321	3.399089
471.305659	3.395426
471.737982	3.393420
472.170289	3.389570
472.602582	3.385831
473.034859	3.382723
473.467122	3.378891
473.899369	3.376820
474.331600	3.377165
474.763817	3.378282
475.196018	3.383320
475.628204	3.391470
476.060375	3.399424
476.492530	3.407603
476.924670	3.416917
477.356795	3.426291
477.788904	3.436431
478.220998	3.442444
478.653076	3.446914
479.085139	3.451613
479.517186	3.455688
479.949219	3.459894
480.381235	3.469342
480.813236	3.480854
481.245221	3.497439
481.677191	3.519648
482.109146	3.540758
482.541084	3.565662
482.973008	3.589925
483.404915	3.615982
483.836807	3.641195
484.268683	3.666521
484.700544	3.690938
485.132388	3.714671
485.564217	3.737093
485.996031	3.757707
486.427828	3.777492
486.859610	3.798646
487.291376	3.822281
487.723126	3.848352
488.154860	3.876914
488.586579	3.907349
489.018281	3.946272
489.449968	3.990268
489.881639	4.040974
490.313293	4.097719
490.744932	4.156029
491.176555	4.218928
491.608162	4.283853
492.039753	4.350366
492.471328	4.412241
492.902886	4.470045
493.334429	4.525490
493.765956	4.575269
494.197466	4.626215
494.628960	4.674990
495.060439	4.727767
495.491901	4.787776
495.923347	4.849489
496.354776	4.920365
496.786190	4.996391
497.217587	5.078294
497.648968	5.161690
498.080332	5.250167
498.511681	5.336619
498.943013	5.423707
499.374328	5.507077
499.805628	5.586644
500.236911	5.659965
500.668177	5.726804
501.099427	5.786992
501.530661	5.840628
501.961878	5.890515
502.393079	5.933506
502.824264	5.974789
503.255431	6.014520
503.686583	6.050970
504.117717	6.093786
504.548835	6.139125
504.979937	6.190679
505.411022	6.246483
505.842090	6.311917
506.273142	6.385227
506.704177	6.460549
507.135195	6.539287
507.566197	6.615145
507.997182	6.688086
508.428150	6.752241
508.859102	6.808098
509.290036	6.855138
509.720954	6.893206
510.151855	6.927281
510.582739	6.954486
511.013607	6.982990
511.444457	7.012403
511.875291	7.047900
512.306107	7.087490
512.736907	7.137667
513.167690	7.195916
513.598456	7.263324
514.029205	7.335560
514.459936	7.410957
514.890651	7.490776
515.321349	7.565964
515.752030	7.636631
516.182693	7.700027
516.613340	7.753401
517.043969	7.802052
517.474582	7.839526
517.905177	7.868193
518.335755	7.887424
518.766315	7.898650
519.196859	7.904666
519.627385	7.905188
520.057894	7.904572
520.488386	7.904788
520.918860	7.910086
521.349318	7.921256
521.779757	7.942945
522.210180	7.972858
522.640585	8.015042
523.070973	8.068481
523.501343	8.128321
523.931696	8.198188
524.362031	8.270301
524.792349	8.342678
525.222650	8.411015
525.652933	8.475875
526.083198	8.530168
526.513446	8.575010
526.943677	8.609116
527.373890	8.636157
527.804085	8.661339
528.234262	8.680127
528.664422	8.702755
529.094565	8.730518
529.524689	8.767410
529.954796	8.816748
530.384885	8.874923
530.814957	8.945392
531.245011	9.024569
531.675047	9.115355
532.105065	9.211989
532.535065	9.311120
532.965048	9.410411
533.395013	9.507253
533.824959	9.595335
534.254888	9.673885
534.684799	9.740033
535.114693	9.795037
535.544568	9.840045
535.974425	9.872944
536.404264	9.893602
536.834086	9.904235
537.263889	9.907435
537.693674	9.905452
538.123441	9.905404
538.553190	9.906543
538.982921	9.912711
539.412634	9.927213
539.842329	9.950076
540.272006	9.984842
540.701664	10.029649
541.131304	10.081679
541.560926	10.144613
541.990530	10.214512
542.420116	10.288114
542.849683	10.361572
543.279232	10.433299
543.708763	10.501824
544.138275	10.563451
544.567769	10.619151
544.997245	10.664216
545.426702	10.702740
545.856141	10.734415
546.285562	10.761762
546.714964	10.787096
547.144347	10.814567
547.573713	10.844032
548.003059	10.882675
548.432387	10.926873
548.861697	10.980670
549.290988	11.042920
549.720260	11.115308
550.149514	11.195821
550.578750	11.284621
551.007966	11.381981
551.437164	11.480509
551.866344	11.581726
552.295504	11.681126
552.724646	11.775524
553.153769	11.865256
553.582874	11.944867
554.011960	12.013585
554.441027	12.071105
554.870075	12.117191
555.299104	12.151397
555.728115	12.174054
556.157106	12.187630
556.586079	12.191912
557.015033	12.191047
557.443968	12.187068
557.872884	12.182126
558.301781	12.179452
558.730659	12.173988
559.159518	12.176793
559.588358	12.186303
560.017180	12.200188
560.445982	12.219742
560.874765	12.247886
561.303528	12.280437
561.732273	12.320056
562.160999	12.362338
562.589705	12.408897
563.018393	12.459763
563.447061	12.515287
563.875710	12.573303
564.304340	12.632471
564.732950	12.691944
565.161542	12.751671
565.590114	12.811605
566.018666	12.867905
566.447200	12.922388
566.875714	12.976726
567.304208	13.028628
567.732684	13.076834
568.161140	13.123092
568.589576	13.168745
569.017993	13.216091
569.446391	13.264480
569.874769	13.318085
570.303128	13.378563
570.731467	13.444208
571.159787	13.517359
571.588087	13.596410
572.016368	13.692148
572.444629	13.792472
572.872870	13.896289
573.301092	14.007816
573.729294	14.118488
574.157476	14.225901
574.585639	14.328509
575.013782	14.421011
575.441906	14.503184
575.870009	14.573767
576.298093	14.630520
576.726157	14.670007
577.154202	14.692886
577.582226	14.702637
578.010231	14.702942
578.438216	14.695528
578.866181	14.680403
579.294126	14.664642
579.722051	14.647442
580.149957	14.631148
580.577842	14.622007
581.005707	14.616291
581.433553	14.619310
581.861378	14.626457
582.289184	14.640985
582.716969	14.660447
583.144734	14.685622
583.572479	14.715724
584.000205	14.750810
584.427910	14.789473
584.855594	14.834538
585.283259	14.877277
585.710904	14.923998
586.138528	14.974742
586.566132	15.023031
586.993716	15.075801
587.421280	15.128122
587.848823	15.180964
588.276346	15.232446
588.703849	15.281803
589.131332	15.324352
589.558794	15.363330
589.986236	15.399128
590.413657	15.432541
590.841058	15.460421
591.268438	15.485187
591.695799	15.508353
592.123138	15.536110
592.550458	15.567459
592.977756	15.605213
593.405034	15.649452
593.832292	15.698683
594.259529	15.758198
594.686746	15.825018
595.113942	15.900593
595.541117	15.979263
595.968272	16.066870
596.395406	16.151874
596.822519	16.234723
597.249612	16.312404
597.676684	16.382065
598.103735	16.438799
598.530766	16.485492
598.957775	16.515741
599.384764	16.532178
599.811733	16.537223
600.238680	16.528492
600.665606	16.511525
601.092512	16.486918
601.519397	16.458984
601.946261	16.428959
602.373104	16.401860
602.799926	16.380389
603.226727	16.363510
603.653507	16.353033
604.080266	16.350414
604.507004	16.355381
604.933721	16.366256
605.360417	16.378788
605.787092	16.393394
606.213746	16.409374
606.640379	16.423690
607.066991	16.437445
607.493581	16.452680
607.920150	16.467259
608.346699	16.481796
608.773226	16.500787
609.199731	16.515645
609.626216	16.536462
610.052679	16.559186
610.479121	16.586940
610.905542	16.618449
611.331941	16.655291
611.758319	16.693743
612.184676	16.738202
612.611011	16.784576
613.037325	16.829186
613.463617	16.875736
613.889888	16.916633
614.316138	16.955527
614.742366	16.991342
615.168573	17.022749
615.594758	17.048623
616.020921	17.070304
616.447063	17.091199
616.873184	17.110488
617.299283	17.129636
617.725360	17.151022
618.151416	17.174596
618.577450	17.197423
619.003462	17.228886
619.429453	17.264270
619.855422	17.306916
620.281369	17.355582
620.707295	17.404179
621.133199	17.451155
621.559081	17.497128
621.984941	17.540057
622.410779	17.580528
622.836596	17.614272
623.262391	17.639531
623.688163	17.655215
624.113914	17.663694
624.539644	17.662832
624.965351	17.657506
625.391036	17.646290
625.816699	17.630902
626.242340	17.614428
626.667960	17.597587
627.093557	17.586379
627.519132	17.578075
627.944685	17.572953
628.370216	17.574301
628.795725	17.586368
629.221212	17.597000
629.646677	17.612425
630.072119	17.632067
630.497540	17.649328
630.922938	17.665426
631.348314	17.678294
631.773668	17.691146
632.198999	17.696883
632.624308	17.695164
633.049595	17.688312
633.474860	17.675797
633.900102	17.661712
634.325322	17.646150
634.750520	17.630781
635.175695	17.615313
635.600848	17.605412
636.025978	17.600870
636.451086	17.606596
636.876171	17.619907
637.301234	17.640720
637.726275	17.671544
638.151293	17.711940
638.576288	17.756377
639.001261	17.805883
639.426211	17.861382
639.851139	17.919100
640.276044	17.977249
640.700927	18.032990
641.125787	18.087033
641.550624	18.135254
641.975438	18.176796
642.400230	18.214897
642.824999	18.245272
643.249745	18.265138
643.674469	18.285242
644.099169	18.299390
644.523847	18.314279
644.948502	18.326570
645.373135	18.339243
645.797744	18.355100
646.222330	18.375120
646.646894	18.396504
647.071435	18.422597
647.495953	18.451203
647.920447	18.483863
648.344919	18.518746
648.769368	18.552511
649.193794	18.588013
649.618197	18.615218
650.042576	18.642105
650.466933	18.667489
650.891267	18.687883
651.315577	18.701822
651.739864	18.710652
652.164129	18.714723
652.588370	18.710798
653.012587	18.700745
653.436782	18.687042
653.860953	18.670342
654.285102	18.649050
654.709226	18.627405
655.133328	18.602303
655.557406	18.575259
655.981461	18.547243
656.405493	18.520387
656.829501	18.489615
657.253486	18.458704
657.677448	18.419935
658.101386	18.380548
658.525301	18.334454
658.949192	18.283742
659.373060	18.224350
659.796904	18.157875
660.220725	18.083938
660.644522	18.001241
661.068296	17.911980
661.492046	17.813757
661.915772	17.714581
662.339475	17.611447
662.763154	17.510622
663.186810	17.411822
663.610442	17.315844
664.034050	17.225860
664.457635	17.145505
664.881196	17.079310
665.304733	17.027295
665.728247	16.989918
666.151736	16.969318
666.575202	16.962720
666.998644	16.972933
667.422062	16.997606
667.845457	17.034603
668.268827	17.083927
668.692174	17.144180
669.115496	17.215103
669.538795	17.291748
669.962070	17.375260
670.385321	17.459991
670.808547	17.546771
671.231750	17.630811
671.654929	17.713608
672.078084	17.793673
672.501214	17.866825
672.924321	17.941482
673.347404	18.012083
673.770462	18.082762
674.193496	18.148874
674.616506	18.216840
675.039492	18.282516
675.462454	18.347878
675.885391	18.414966
676.308305	18.480274
676.731194	18.549503
677.154058	18.621264
677.576899	18.696738
677.999715	18.772650
678.422507	18.846717
678.845274	18.923712
679.268017	19.001823
679.690736	19.081590
680.113430	19.158474
680.536100	19.237600
680.958746	19.314415
681.381367	19.390520
681.803963	19.462959
682.226535	19.530943
682.649083	19.596218
683.071605	19.659138
683.494104	19.718376
683.916578	19.775641
684.339027	19.832740
684.761451	19.886368
685.183851	19.936470
685.606227	19.987968
686.028577	20.029665
686.450903	20.068832
686.873204	20.100840
687.295481	20.128016
687.717733	20.146048
688.139959	20.154280
688.562162	20.155642
688.984339	20.146162
689.406492	20.127438
689.828619	20.095120
690.250722	20.051310
690.672800	19.992616
691.094853	19.923647
691.516881	19.847646
691.938884	19.761262
692.360863	19.665778
692.782816	19.565713
693.204744	19.464499
693.626647	19.360915
694.048526	19.263080
694.470379	19.169899
694.892207	19.086305
695.314010	19.014801
695.735788	18.959656
696.157540	18.915662
696.579268	18.890589
697.000970	18.883466
697.422648	18.895531
697.844300	18.925348
698.265926	18.974598
698.687528	19.043099
699.109104	19.128321
699.530655	19.227077
699.952181	19.342277
