PE UV       SUBTECH     SPECTRUM    ASCII       PEDS        4.00        
   -1
INBUCR0321-4.Sample.ASC
24/02/08
17:14:49.00
24/02/08
17:14:49.00
Vinicio Soto Monge
COSTA RICA, Prov. Guanacaste. Sector Santa María, 25 km al NE. de Liberia. 790 m. 9-27 OCT 1996. D. Briceño. Foso L_N_304700_393450 #44748. INBIOCRI002492827. Sin cabeza. (Aparentemente Phanaeus pyrois)
250,000000
1
Lambda 1050
1050L1511233
PerkinElmer UV WinLab 6.3.2.0749 / 2.02.05 Lambda 900 UV/VIS/NIR, Aug  7 2015 09:38:08

0
0
3350/servo 860,8/2
0
0
UV/VIS
1
1
1
DoubleDePol,CommonBeamDepol,RBeamAtt,SBeamAtt,60mm sphere, WB InGaAs Detector
0
0
0
0
Program
Program
3350/servo 860,8/2
3350/0,2 860,8/0,2
3350/0,2 860,8/0,2
0
15.00
 
 
 
0
 
860,8
319,2
860,8
Front
100
on
S:100 R:100
0
0
0
0
 
0
 
 
 
0
 
 
0
0
0
0
0
 
 
 
 
0
0


0
0
#HDR
-1
-1
#GR
nm
%R
1.0
0.0
2500,000000
-1,000000
2251
8
6,205400
0,362100
#DATA

250.000000	3.285410
251.000000	3.302358
252.000000	3.303077
253.000000	3.294522
254.000000	3.297587
255.000000	3.280233
256.000000	3.295137
257.000000	3.303889
258.000000	3.314068
259.000000	3.324974
260.000000	3.310083
261.000000	3.306181
262.000000	3.327845
263.000000	3.318812
264.000000	3.317371
265.000000	3.316799
266.000000	3.303359
267.000000	3.310372
268.000000	3.314435
269.000000	3.313328
270.000000	3.320301
271.000000	3.331951
272.000000	3.359735
273.000000	3.343861
274.000000	3.379296
275.000000	3.372517
276.000000	3.373943
277.000000	3.391792
278.000000	3.399203
279.000000	3.413775
280.000000	3.432457
281.000000	3.486766
282.000000	3.489493
283.000000	3.503149
284.000000	3.491107
285.000000	3.535368
286.000000	3.558533
287.000000	3.565987
288.000000	3.628632
289.000000	3.637786
290.000000	3.654668
291.000000	3.682877
292.000000	3.736713
293.000000	3.776520
294.000000	3.806017
295.000000	3.842160
296.000000	3.883503
297.000000	3.929008
298.000000	3.963924
299.000000	3.997652
300.000000	4.019057
301.000000	4.054565
302.000000	4.116107
303.000000	4.130666
304.000000	4.207166
305.000000	4.230107
306.000000	4.256281
307.000000	4.353166
308.000000	4.393591
309.000000	4.471850
310.000000	4.512262
311.000000	4.602150
312.000000	4.678064
313.000000	4.743635
314.000000	4.797050
315.000000	4.871353
316.000000	4.894992
317.000000	4.738364
318.000000	4.730120
319.000000	4.853316
320.000000	4.734033
321.000000	4.798532
322.000000	4.943723
323.000000	5.078729
324.000000	5.012043
325.000000	5.126140
326.000000	5.242796
327.000000	5.185790
328.000000	5.220377
329.000000	5.269885
330.000000	5.352453
331.000000	5.385383
332.000000	5.471722
333.000000	5.536937
334.000000	5.570439
335.000000	5.586855
336.000000	5.588431
337.000000	5.711457
338.000000	5.711562
339.000000	5.775914
340.000000	5.812192
341.000000	5.870226
342.000000	5.966604
343.000000	6.020569
344.000000	6.042340
345.000000	6.075119
346.000000	6.112605
347.000000	6.116056
348.000000	6.148568
349.000000	6.251522
350.000000	6.242279
351.000000	6.258710
352.000000	6.298917
353.000000	6.384700
354.000000	6.417740
355.000000	6.477094
356.000000	6.516134
357.000000	6.550990
358.000000	6.593265
359.000000	6.644086
360.000000	6.711583
361.000000	6.745296
362.000000	6.822987
363.000000	6.849917
364.000000	6.915442
365.000000	6.914262
366.000000	6.964892
367.000000	7.026982
368.000000	7.084330
369.000000	7.113399
370.000000	7.172004
371.000000	7.180626
372.000000	7.234822
373.000000	7.313648
374.000000	7.360014
375.000000	7.350819
376.000000	7.652141
377.000000	8.132112
378.000000	8.154202
379.000000	8.195176
380.000000	8.231598
381.000000	8.257042
382.000000	8.290937
383.000000	8.326395
384.000000	8.355496
385.000000	8.386272
386.000000	8.415842
387.000000	8.439013
388.000000	8.470863
389.000000	8.509398
390.000000	8.533951
391.000000	8.549086
392.000000	8.576162
393.000000	8.603147
394.000000	8.623042
395.000000	8.659643
396.000000	8.683852
397.000000	8.706733
398.000000	8.733928
399.000000	8.760386
400.000000	8.782520
401.000000	8.800005
402.000000	8.822735
403.000000	8.851948
404.000000	8.874010
405.000000	8.892065
406.000000	8.914647
407.000000	8.937980
408.000000	8.960862
409.000000	8.973035
410.000000	8.985575
411.000000	8.997726
412.000000	9.027949
413.000000	9.058026
414.000000	9.074719
415.000000	9.095092
416.000000	9.115195
417.000000	9.130900
418.000000	9.153381
419.000000	9.170676
420.000000	9.186312
421.000000	9.200773
422.000000	9.208538
423.000000	9.220271
424.000000	9.229279
425.000000	9.232095
426.000000	9.241454
427.000000	9.253584
428.000000	9.255216
429.000000	9.264608
430.000000	9.274546
431.000000	9.279239
432.000000	9.289850
433.000000	9.304532
434.000000	9.318832
435.000000	9.333199
436.000000	9.346577
437.000000	9.372027
438.000000	9.388472
439.000000	9.405730
440.000000	9.432055
441.000000	9.452067
442.000000	9.477883
443.000000	9.493189
444.000000	9.509006
445.000000	9.526850
446.000000	9.531623
447.000000	9.544146
448.000000	9.552634
449.000000	9.564066
450.000000	9.566150
451.000000	9.568825
452.000000	9.572251
453.000000	9.570294
454.000000	9.572687
455.000000	9.578675
456.000000	9.581703
457.000000	9.584057
458.000000	9.591362
459.000000	9.598691
460.000000	9.611725
461.000000	9.637473
462.000000	9.663890
463.000000	9.687219
464.000000	9.725240
465.000000	9.766535
466.000000	9.812620
467.000000	9.855477
468.000000	9.904357
469.000000	9.948415
470.000000	10.000805
471.000000	10.050439
472.000000	10.104696
473.000000	10.162771
474.000000	10.215262
475.000000	10.265403
476.000000	10.316694
477.000000	10.371096
478.000000	10.417014
479.000000	10.464369
480.000000	10.506732
481.000000	10.543115
482.000000	10.574851
483.000000	10.589184
484.000000	10.595548
485.000000	10.601261
486.000000	10.598560
487.000000	10.597450
488.000000	10.603411
489.000000	10.604580
490.000000	10.601770
491.000000	10.606058
492.000000	10.605294
493.000000	10.609233
494.000000	10.615619
495.000000	10.614563
496.000000	10.620310
497.000000	10.625507
498.000000	10.643499
499.000000	10.654575
500.000000	10.662896
501.000000	10.665975
502.000000	10.676101
503.000000	10.699231
504.000000	10.703334
505.000000	10.710856
506.000000	10.726526
507.000000	10.747004
508.000000	10.767653
509.000000	10.788787
510.000000	10.811895
511.000000	10.840503
512.000000	10.867122
513.000000	10.903734
514.000000	10.937055
515.000000	10.974741
516.000000	11.008014
517.000000	11.045282
518.000000	11.084580
519.000000	11.121395
520.000000	11.161561
521.000000	11.201408
522.000000	11.236691
523.000000	11.270848
524.000000	11.293496
525.000000	11.320154
526.000000	11.348493
527.000000	11.368549
528.000000	11.402585
529.000000	11.415061
530.000000	11.435107
531.000000	11.449891
532.000000	11.461953
533.000000	11.477285
534.000000	11.489282
535.000000	11.497821
536.000000	11.507963
537.000000	11.514280
538.000000	11.523422
539.000000	11.532151
540.000000	11.534170
541.000000	11.548441
542.000000	11.548478
543.000000	11.552311
544.000000	11.556977
545.000000	11.566351
546.000000	11.574755
547.000000	11.572690
548.000000	11.582215
549.000000	11.583846
550.000000	11.590468
551.000000	11.597399
552.000000	11.593806
553.000000	11.604565
554.000000	11.613525
555.000000	11.616161
556.000000	11.618247
557.000000	11.624637
558.000000	11.623761
559.000000	11.629198
560.000000	11.930571
561.000000	11.946919
562.000000	11.955381
563.000000	11.955230
564.000000	11.971243
565.000000	11.960376
566.000000	11.973847
567.000000	11.975639
568.000000	11.989164
569.000000	11.985479
570.000000	11.993264
571.000000	12.009382
572.000000	12.014265
573.000000	12.021900
574.000000	12.026021
575.000000	12.022168
576.000000	12.036620
577.000000	12.043171
578.000000	12.047475
579.000000	12.053698
580.000000	12.058563
581.000000	12.061604
582.000000	12.076064
583.000000	12.082507
584.000000	12.093369
585.000000	12.096308
586.000000	12.096164
587.000000	12.106147
588.000000	12.108965
589.000000	12.123338
590.000000	12.134514
591.000000	12.130894
592.000000	12.144464
593.000000	12.147111
594.000000	12.163357
595.000000	12.161926
596.000000	12.161384
597.000000	12.168236
598.000000	12.180130
599.000000	12.188980
600.000000	12.194548
601.000000	12.201662
602.000000	12.208132
603.000000	12.217166
604.000000	12.214645
605.000000	12.219754
606.000000	12.230663
607.000000	12.235564
608.000000	12.243150
609.000000	12.246009
610.000000	12.255297
611.000000	12.272709
612.000000	12.273696
613.000000	12.277749
614.000000	12.286656
615.000000	12.289524
616.000000	12.291420
617.000000	12.298047
618.000000	12.305083
619.000000	12.319948
620.000000	12.314325
621.000000	12.321339
622.000000	12.320674
623.000000	12.335379
624.000000	12.334977
625.000000	12.347265
626.000000	12.363515
627.000000	12.368516
628.000000	12.368142
629.000000	12.370118
630.000000	12.389281
631.000000	12.387170
632.000000	12.401915
633.000000	12.397658
634.000000	12.409546
635.000000	12.421328
636.000000	12.436066
637.000000	12.456178
638.000000	12.463144
639.000000	12.470420
640.000000	12.471666
641.000000	12.484426
642.000000	12.494152
643.000000	12.514855
644.000000	12.527967
645.000000	12.544328
646.000000	12.584311
647.000000	12.595960
648.000000	12.604729
649.000000	12.620133
650.000000	12.639358
651.000000	12.644755
652.000000	12.659780
653.000000	12.681783
654.000000	12.685948
655.000000	12.701291
656.000000	12.701886
657.000000	12.698659
658.000000	12.716601
659.000000	12.735484
660.000000	12.766288
661.000000	12.782466
662.000000	12.794078
663.000000	12.809311
664.000000	12.802195
665.000000	12.809704
666.000000	12.811272
667.000000	12.821755
668.000000	12.832075
669.000000	12.841733
670.000000	12.859140
671.000000	12.877807
672.000000	12.899801
673.000000	12.908835
674.000000	12.918999
675.000000	12.935959
676.000000	12.950952
677.000000	12.958382
678.000000	12.959250
679.000000	12.970293
680.000000	12.980052
681.000000	12.986757
682.000000	12.981959
683.000000	12.989987
684.000000	13.008294
685.000000	13.023973
686.000000	13.036257
687.000000	13.053107
688.000000	13.060990
689.000000	13.070881
690.000000	13.071357
691.000000	13.089824
692.000000	13.098507
693.000000	13.104855
694.000000	13.110700
695.000000	13.126255
696.000000	13.140632
697.000000	13.159849
698.000000	13.186102
699.000000	13.193149
700.000000	13.205382
701.000000	13.218675
702.000000	13.225904
703.000000	13.239864
704.000000	13.262816
705.000000	13.278185
706.000000	13.273243
707.000000	13.283828
708.000000	13.300319
709.000000	13.310348
710.000000	13.328044
711.000000	13.344836
712.000000	13.362416
713.000000	13.371315
714.000000	13.367220
715.000000	13.377800
716.000000	13.401431
717.000000	13.419147
718.000000	13.422669
719.000000	13.421940
720.000000	13.441050
721.000000	13.474605
722.000000	13.488868
723.000000	13.483935
724.000000	13.496933
725.000000	13.515787
726.000000	13.536092
727.000000	13.549445
728.000000	13.549747
729.000000	13.558062
730.000000	13.577847
731.000000	13.606419
732.000000	13.617646
733.000000	13.630825
734.000000	13.641782
735.000000	13.670189
736.000000	13.681402
737.000000	13.682134
738.000000	13.698047
739.000000	13.714582
740.000000	13.741164
741.000000	13.764796
742.000000	13.762589
743.000000	13.790885
744.000000	13.814754
745.000000	13.830044
746.000000	13.840864
747.000000	13.855574
748.000000	13.871705
749.000000	13.877642
750.000000	13.907274
751.000000	13.923174
752.000000	13.959249
753.000000	13.956887
754.000000	13.953144
755.000000	13.973797
756.000000	14.007363
757.000000	14.025786
758.000000	14.042270
759.000000	14.057649
760.000000	14.077058
761.000000	14.101481
762.000000	14.119175
763.000000	14.118769
764.000000	14.144794
765.000000	14.185758
766.000000	14.177961
767.000000	14.211726
768.000000	14.218714
769.000000	14.251554
770.000000	14.260580
771.000000	14.289906
772.000000	14.322297
773.000000	14.306929
774.000000	14.341607
775.000000	14.347068
776.000000	14.390029
777.000000	14.409080
778.000000	14.427187
779.000000	14.454360
780.000000	14.479493
781.000000	14.497411
782.000000	14.489617
783.000000	14.536084
784.000000	14.564784
785.000000	14.592664
786.000000	14.604200
787.000000	14.617750
788.000000	14.658236
789.000000	14.656325
790.000000	14.662219
791.000000	14.723284
792.000000	14.732902
793.000000	14.755283
794.000000	14.764094
795.000000	14.783648
796.000000	14.820843
797.000000	14.848692
798.000000	14.837323
799.000000	14.871175
800.000000	14.895313
801.000000	14.930288
802.000000	14.984334
803.000000	14.981380
804.000000	14.989313
805.000000	15.041981
806.000000	15.001428
807.000000	15.042757
808.000000	15.087912
809.000000	15.085349
810.000000	15.122654
811.000000	15.149498
812.000000	15.140355
813.000000	15.167209
814.000000	15.211613
815.000000	15.237598
816.000000	15.225137
817.000000	15.252256
818.000000	15.265912
819.000000	15.302616
820.000000	15.314177
821.000000	15.336935
822.000000	15.355617
823.000000	15.403394
824.000000	15.380319
825.000000	15.467144
826.000000	15.450537
827.000000	15.498608
828.000000	15.472269
829.000000	15.468668
830.000000	15.510857
831.000000	15.555592
832.000000	15.564714
833.000000	15.646504
834.000000	15.632369
835.000000	15.642909
836.000000	15.608481
837.000000	15.619238
838.000000	15.730262
839.000000	15.631919
840.000000	15.675235
841.000000	15.763318
842.000000	15.754675
843.000000	15.649822
844.000000	15.845937
845.000000	15.784645
846.000000	15.729705
847.000000	15.822869
848.000000	15.685427
849.000000	15.780800
850.000000	15.836058
851.000000	15.899278
852.000000	15.757595
853.000000	16.002618
854.000000	15.914470
855.000000	15.916477
856.000000	15.890043
857.000000	15.952405
858.000000	17.164967
859.000000	16.385324
860.000000	16.208710
861.000000	16.045903
862.000000	15.773049
863.000000	15.963548
864.000000	16.038303
865.000000	15.912421
866.000000	15.659223
867.000000	15.595995
868.000000	15.337434
869.000000	15.411390
870.000000	15.419008
871.000000	15.308223
872.000000	15.227728
873.000000	15.393265
874.000000	15.126831
875.000000	15.300028
876.000000	15.233043
877.000000	14.918570
878.000000	15.473064
879.000000	15.057683
880.000000	14.893846
881.000000	14.776055
882.000000	14.833863
883.000000	14.882679
884.000000	14.801396
885.000000	14.839404
886.000000	14.704568
887.000000	14.792402
888.000000	14.601031
889.000000	14.836649
890.000000	14.609836
891.000000	14.689524
892.000000	14.624953
893.000000	14.612373
894.000000	14.382443
895.000000	14.475410
896.000000	14.533333
897.000000	14.406498
898.000000	14.597231
899.000000	14.571954
900.000000	14.614771
901.000000	14.514788
902.000000	14.379429
903.000000	14.469311
904.000000	14.449792
905.000000	14.381834
906.000000	14.234611
907.000000	14.393292
908.000000	14.443030
909.000000	14.444526
910.000000	14.520439
911.000000	14.427695
912.000000	14.383039
913.000000	14.444821
914.000000	14.480636
915.000000	14.506894
916.000000	14.489114
917.000000	14.438781
918.000000	14.467478
919.000000	14.427818
920.000000	14.318241
921.000000	14.431079
922.000000	14.508650
923.000000	14.447977
924.000000	14.423922
925.000000	14.441314
926.000000	14.454309
927.000000	14.424268
928.000000	14.428536
929.000000	14.479812
930.000000	14.479140
931.000000	14.441248
932.000000	14.523253
933.000000	14.447596
934.000000	14.450964
935.000000	14.486547
936.000000	14.471696
937.000000	14.524121
938.000000	14.545272
939.000000	14.532744
940.000000	14.540989
941.000000	14.517287
942.000000	14.521340
943.000000	14.535485
944.000000	14.599777
945.000000	14.596235
946.000000	14.627446
947.000000	14.637736
948.000000	14.599656
949.000000	14.598520
950.000000	14.669946
951.000000	14.650807
952.000000	14.636374
953.000000	14.688776
954.000000	14.699944
955.000000	14.692791
956.000000	14.726109
957.000000	14.751913
958.000000	14.755270
959.000000	14.741193
960.000000	14.765832
961.000000	14.747074
962.000000	14.773208
963.000000	14.824653
964.000000	14.797733
965.000000	14.849501
966.000000	14.898016
967.000000	14.864622
968.000000	14.864997
969.000000	14.924165
970.000000	14.941935
971.000000	14.918609
972.000000	14.936154
973.000000	14.963937
974.000000	14.973005
975.000000	14.981360
976.000000	15.005099
977.000000	15.022046
978.000000	15.025026
979.000000	15.045395
980.000000	15.068217
981.000000	15.085667
982.000000	15.095397
983.000000	15.110558
984.000000	15.141511
985.000000	15.174593
986.000000	15.172769
987.000000	15.177727
988.000000	15.199473
989.000000	15.206034
990.000000	15.214787
991.000000	15.244534
992.000000	15.281759
993.000000	15.305690
994.000000	15.313211
995.000000	15.320025
996.000000	15.334307
997.000000	15.323491
998.000000	15.351530
999.000000	15.387291
1000.000000	15.394448
1001.000000	15.414053
1002.000000	15.443345
1003.000000	15.468363
1004.000000	15.468717
1005.000000	15.480952
1006.000000	15.511766
1007.000000	15.509911
1008.000000	15.522951
1009.000000	15.555558
1010.000000	15.573313
1011.000000	15.586625
1012.000000	15.617030
1013.000000	15.629699
1014.000000	15.633575
1015.000000	15.663951
1016.000000	15.678388
1017.000000	15.698123
1018.000000	15.726251
1019.000000	15.739083
1020.000000	15.745611
1021.000000	15.776331
1022.000000	15.797550
1023.000000	15.815311
1024.000000	15.838271
1025.000000	15.836152
1026.000000	15.862926
1027.000000	15.893224
1028.000000	15.910093
1029.000000	15.911915
1030.000000	15.928831
1031.000000	15.951984
1032.000000	15.976323
1033.000000	15.989824
1034.000000	16.002603
1035.000000	16.028890
1036.000000	16.047585
1037.000000	16.075740
1038.000000	16.100652
1039.000000	16.114673
1040.000000	16.136067
1041.000000	16.161251
1042.000000	16.168811
1043.000000	16.184222
1044.000000	16.216332
1045.000000	16.244656
1046.000000	16.270088
1047.000000	16.287346
1048.000000	16.297791
1049.000000	16.303728
1050.000000	16.313353
1051.000000	16.333590
1052.000000	16.337968
1053.000000	16.356397
1054.000000	16.395929
1055.000000	16.416950
1056.000000	16.431775
1057.000000	16.461834
1058.000000	16.485894
1059.000000	16.500838
1060.000000	16.529699
1061.000000	16.558655
1062.000000	16.565763
1063.000000	16.574050
1064.000000	16.612542
1065.000000	16.644961
1066.000000	16.660946
1067.000000	16.680985
1068.000000	16.696372
1069.000000	16.707401
1070.000000	16.710825
1071.000000	16.720278
1072.000000	16.751994
1073.000000	16.782504
1074.000000	16.788998
1075.000000	16.800751
1076.000000	16.823283
1077.000000	16.843120
1078.000000	16.855827
1079.000000	16.892710
1080.000000	16.923764
1081.000000	16.925334
1082.000000	16.954334
1083.000000	16.975361
1084.000000	16.978536
1085.000000	16.989891
1086.000000	17.004562
1087.000000	17.039620
1088.000000	17.057259
1089.000000	17.073460
1090.000000	17.094194
1091.000000	17.113378
1092.000000	17.130111
1093.000000	17.150532
1094.000000	17.171613
1095.000000	17.192710
1096.000000	17.198749
1097.000000	17.210533
1098.000000	17.226674
1099.000000	17.246021
1100.000000	17.288130
1101.000000	17.313275
1102.000000	17.319241
1103.000000	17.338216
1104.000000	17.369956
1105.000000	17.389592
1106.000000	17.408017
1107.000000	17.425357
1108.000000	17.448282
1109.000000	17.468768
1110.000000	17.492515
1111.000000	17.508350
1112.000000	17.526183
1113.000000	17.533061
1114.000000	17.564517
1115.000000	17.554988
1116.000000	17.574200
1117.000000	17.588766
1118.000000	17.611331
1119.000000	17.638921
1120.000000	17.631534
1121.000000	17.641519
1122.000000	17.652761
1123.000000	17.653762
1124.000000	17.670375
1125.000000	17.671547
1126.000000	17.676392
1127.000000	17.691607
1128.000000	17.698503
1129.000000	17.716528
1130.000000	17.727866
1131.000000	17.745151
1132.000000	17.764801
1133.000000	17.770767
1134.000000	17.755538
1135.000000	17.760431
1136.000000	17.770248
1137.000000	17.791934
1138.000000	17.808961
1139.000000	17.830296
1140.000000	17.830804
1141.000000	17.843508
1142.000000	17.841270
1143.000000	17.851734
1144.000000	17.858274
1145.000000	17.869550
1146.000000	17.883416
1147.000000	17.900378
1148.000000	17.908594
1149.000000	17.908961
1150.000000	17.897336
1151.000000	17.904747
1152.000000	17.914960
1153.000000	17.927021
1154.000000	17.937740
1155.000000	17.959010
1156.000000	17.944750
1157.000000	17.945421
1158.000000	17.944969
1159.000000	17.941572
1160.000000	17.941899
1161.000000	17.949581
1162.000000	17.949441
1163.000000	17.957295
1164.000000	17.959304
1165.000000	17.971115
1166.000000	17.970491
1167.000000	17.963214
1168.000000	17.968178
1169.000000	17.967110
1170.000000	17.962393
1171.000000	17.960136
1172.000000	17.977255
1173.000000	17.984859
1174.000000	17.991168
1175.000000	17.993755
1176.000000	18.010487
1177.000000	18.013635
1178.000000	18.013552
1179.000000	18.020806
1180.000000	18.032949
1181.000000	18.027432
1182.000000	18.023099
1183.000000	18.037034
1184.000000	18.052252
1185.000000	18.066301
1186.000000	18.086418
1187.000000	18.107566
1188.000000	18.131520
1189.000000	18.138698
1190.000000	18.155877
1191.000000	18.172357
1192.000000	18.195064
1193.000000	18.198428
1194.000000	18.198648
1195.000000	18.214341
1196.000000	18.243300
1197.000000	18.236571
1198.000000	18.254431
1199.000000	18.267391
1200.000000	18.278919
1201.000000	18.293808
1202.000000	18.313802
1203.000000	18.313203
1204.000000	18.329474
1205.000000	18.352045
1206.000000	18.355533
1207.000000	18.368496
1208.000000	18.384802
1209.000000	18.411910
1210.000000	18.431746
1211.000000	18.455880
1212.000000	18.461473
1213.000000	18.482741
1214.000000	18.505633
1215.000000	18.525872
1216.000000	18.552817
1217.000000	18.579324
1218.000000	18.609776
1219.000000	18.633549
1220.000000	18.664970
1221.000000	18.683491
1222.000000	18.701740
1223.000000	18.736467
1224.000000	18.757190
1225.000000	18.771528
1226.000000	18.795656
1227.000000	18.816022
1228.000000	18.838183
1229.000000	18.852432
1230.000000	18.875357
1231.000000	18.901743
1232.000000	18.905098
1233.000000	18.917073
1234.000000	18.927528
1235.000000	18.941840
1236.000000	18.946349
1237.000000	18.957333
1238.000000	18.963911
1239.000000	18.976078
1240.000000	18.980246
1241.000000	18.986353
1242.000000	19.010692
1243.000000	19.022827
1244.000000	19.034742
1245.000000	19.045641
1246.000000	19.060266
1247.000000	19.077172
1248.000000	19.087002
1249.000000	19.110567
1250.000000	19.124634
1251.000000	19.130667
1252.000000	19.153256
1253.000000	19.167710
1254.000000	19.180013
1255.000000	19.198813
1256.000000	19.218456
1257.000000	19.246653
1258.000000	19.258582
1259.000000	19.275332
1260.000000	19.289583
1261.000000	19.303485
1262.000000	19.331495
1263.000000	19.344772
1264.000000	19.354794
1265.000000	19.373466
1266.000000	19.399983
1267.000000	19.416240
1268.000000	19.426516
1269.000000	19.438907
1270.000000	19.459007
1271.000000	19.476962
1272.000000	19.487206
1273.000000	19.494533
1274.000000	19.505347
1275.000000	19.518707
1276.000000	19.533902
1277.000000	19.548481
1278.000000	19.551584
1279.000000	19.565359
1280.000000	19.580128
1281.000000	19.591495
1282.000000	19.600194
1283.000000	19.606596
1284.000000	19.619944
1285.000000	19.632819
1286.000000	19.649026
1287.000000	19.656507
1288.000000	19.671568
1289.000000	19.680659
1290.000000	19.685182
1291.000000	19.701803
1292.000000	19.713233
1293.000000	19.719527
1294.000000	19.734290
1295.000000	19.749458
1296.000000	19.760570
1297.000000	19.788801
1298.000000	19.803310
1299.000000	19.809246
1300.000000	19.819561
1301.000000	19.823930
1302.000000	19.834981
1303.000000	19.851519
1304.000000	19.864489
1305.000000	19.868743
1306.000000	19.879068
1307.000000	19.891379
1308.000000	19.898968
1309.000000	19.905216
1310.000000	19.919442
1311.000000	19.934611
1312.000000	19.938733
1313.000000	19.938683
1314.000000	19.948202
1315.000000	19.953534
1316.000000	19.960649
1317.000000	19.976392
1318.000000	19.977407
1319.000000	19.977187
1320.000000	19.977336
1321.000000	19.981043
1322.000000	19.984574
1323.000000	19.974068
1324.000000	19.965587
1325.000000	19.960572
1326.000000	19.958781
1327.000000	19.949580
1328.000000	19.939378
1329.000000	19.941345
1330.000000	19.936595
1331.000000	19.922488
1332.000000	19.920369
1333.000000	19.920340
1334.000000	19.914261
1335.000000	19.904672
1336.000000	19.895761
1337.000000	19.883971
1338.000000	19.871398
1339.000000	19.863894
1340.000000	19.859972
1341.000000	19.843473
1342.000000	19.835606
1343.000000	19.835649
1344.000000	19.837252
1345.000000	19.838977
1346.000000	19.822821
1347.000000	19.801072
1348.000000	19.799462
1349.000000	19.803149
1350.000000	19.794978
1351.000000	19.768473
1352.000000	19.764533
1353.000000	19.743493
1354.000000	19.705332
1355.000000	19.669196
1356.000000	19.663732
1357.000000	19.647635
1358.000000	19.650745
1359.000000	19.672007
1360.000000	19.610397
1361.000000	19.517515
1362.000000	19.478061
1363.000000	19.464390
1364.000000	19.429781
1365.000000	19.407855
1366.000000	19.411832
1367.000000	19.360494
1368.000000	19.333452
1369.000000	19.335081
1370.000000	19.286427
1371.000000	19.195390
1372.000000	19.148473
1373.000000	19.091079
1374.000000	19.019947
1375.000000	18.957400
1376.000000	18.896178
1377.000000	18.868692
1378.000000	18.834724
1379.000000	18.793870
1380.000000	18.756386
1381.000000	18.641185
1382.000000	18.555096
1383.000000	18.490727
1384.000000	18.460107
1385.000000	18.431503
1386.000000	18.432204
1387.000000	18.382048
1388.000000	18.341562
1389.000000	18.353402
1390.000000	18.374502
1391.000000	18.341731
1392.000000	18.296188
1393.000000	18.304880
1394.000000	18.268220
1395.000000	18.151413
1396.000000	18.103744
1397.000000	18.129625
1398.000000	18.174574
1399.000000	18.078811
1400.000000	17.950590
1401.000000	17.893503
1402.000000	17.926462
1403.000000	17.865199
1404.000000	17.781150
1405.000000	17.707995
1406.000000	17.678238
1407.000000	17.609796
1408.000000	17.532321
1409.000000	17.431004
1410.000000	17.373661
1411.000000	17.344906
1412.000000	17.295180
1413.000000	17.195687
1414.000000	17.102812
1415.000000	17.060855
1416.000000	17.033334
1417.000000	16.969086
1418.000000	16.900577
1419.000000	16.826306
1420.000000	16.772045
1421.000000	16.730411
1422.000000	16.668534
1423.000000	16.614182
1424.000000	16.565413
1425.000000	16.527588
1426.000000	16.490604
1427.000000	16.456038
1428.000000	16.397419
1429.000000	16.381565
1430.000000	16.345698
1431.000000	16.295595
1432.000000	16.258277
1433.000000	16.231829
1434.000000	16.195275
1435.000000	16.162525
1436.000000	16.122829
1437.000000	16.098888
1438.000000	16.058932
1439.000000	16.036063
1440.000000	16.008204
1441.000000	15.970990
1442.000000	15.935873
1443.000000	15.941799
1444.000000	15.907118
1445.000000	15.878385
1446.000000	15.846826
1447.000000	15.837694
1448.000000	15.833553
1449.000000	15.800385
1450.000000	15.759906
1451.000000	15.733287
1452.000000	15.726362
1453.000000	15.711656
1454.000000	15.672776
1455.000000	15.657886
1456.000000	15.642734
1457.000000	15.624420
1458.000000	15.599359
1459.000000	15.580450
1460.000000	15.553379
1461.000000	15.540122
1462.000000	15.518265
1463.000000	15.505577
1464.000000	15.493538
1465.000000	15.466269
1466.000000	15.434005
1467.000000	15.432351
1468.000000	15.417016
1469.000000	15.392919
1470.000000	15.373434
1471.000000	15.354527
1472.000000	15.339776
1473.000000	15.316235
1474.000000	15.307529
1475.000000	15.296649
1476.000000	15.283259
1477.000000	15.268077
1478.000000	15.259624
1479.000000	15.242277
1480.000000	15.236295
1481.000000	15.220739
1482.000000	15.214581
1483.000000	15.204686
1484.000000	15.195648
1485.000000	15.198667
1486.000000	15.198120
1487.000000	15.203186
1488.000000	15.178571
1489.000000	15.176882
1490.000000	15.161509
1491.000000	15.171587
1492.000000	15.179693
1493.000000	15.177484
1494.000000	15.182607
1495.000000	15.187623
1496.000000	15.191627
1497.000000	15.199762
1498.000000	15.204263
1499.000000	15.216012
1500.000000	15.227462
1501.000000	15.235127
1502.000000	15.255359
1503.000000	15.275306
1504.000000	15.289072
1505.000000	15.300534
1506.000000	15.335428
1507.000000	15.362654
1508.000000	15.370517
1509.000000	15.388575
1510.000000	15.405544
1511.000000	15.425290
1512.000000	15.453970
1513.000000	15.478836
1514.000000	15.495566
1515.000000	15.517231
1516.000000	15.541753
1517.000000	15.568585
1518.000000	15.589314
1519.000000	15.599621
1520.000000	15.624874
1521.000000	15.644430
1522.000000	15.670323
1523.000000	15.686062
1524.000000	15.704502
1525.000000	15.723753
1526.000000	15.742981
1527.000000	15.770145
1528.000000	15.780154
1529.000000	15.791445
1530.000000	15.800948
1531.000000	15.820972
1532.000000	15.844135
1533.000000	15.860471
1534.000000	15.880209
1535.000000	15.892059
1536.000000	15.898249
1537.000000	15.909724
1538.000000	15.927648
1539.000000	15.940768
1540.000000	15.959632
1541.000000	15.975555
1542.000000	15.984678
1543.000000	15.998314
1544.000000	16.017312
1545.000000	16.032201
1546.000000	16.051270
1547.000000	16.065296
1548.000000	16.076265
1549.000000	16.090709
1550.000000	16.106097
1551.000000	16.124185
1552.000000	16.145605
1553.000000	16.164819
1554.000000	16.178248
1555.000000	16.184184
1556.000000	16.199638
1557.000000	16.221011
1558.000000	16.227970
1559.000000	16.222450
1560.000000	16.225170
1561.000000	16.232901
1562.000000	16.240362
1563.000000	16.241240
1564.000000	16.241320
1565.000000	16.244619
1566.000000	16.253693
1567.000000	16.256696
1568.000000	16.252731
1569.000000	16.257747
1570.000000	16.260501
1571.000000	16.256927
1572.000000	16.263672
1573.000000	16.269527
1574.000000	16.275703
1575.000000	16.279201
1576.000000	16.278633
1577.000000	16.282518
1578.000000	16.288055
1579.000000	16.298229
1580.000000	16.307434
1581.000000	16.328665
1582.000000	16.333175
1583.000000	16.339494
1584.000000	16.351231
1585.000000	16.373593
1586.000000	16.385962
1587.000000	16.405812
1588.000000	16.417561
1589.000000	16.437612
1590.000000	16.456976
1591.000000	16.473065
1592.000000	16.485611
1593.000000	16.494047
1594.000000	16.515748
1595.000000	16.541543
1596.000000	16.566800
1597.000000	16.594056
1598.000000	16.620011
1599.000000	16.646534
1600.000000	16.675976
1601.000000	16.695965
1602.000000	16.718969
1603.000000	16.746942
1604.000000	16.770607
1605.000000	16.780202
1606.000000	16.811624
1607.000000	16.843026
1608.000000	16.851732
1609.000000	16.871787
1610.000000	16.890263
1611.000000	16.902902
1612.000000	16.925947
1613.000000	16.941749
1614.000000	16.944190
1615.000000	16.968340
1616.000000	16.996995
1617.000000	17.020733
1618.000000	17.037370
1619.000000	17.054279
1620.000000	17.055873
1621.000000	17.073282
1622.000000	17.089623
1623.000000	17.089460
1624.000000	17.110403
1625.000000	17.137286
1626.000000	17.138484
1627.000000	17.152021
1628.000000	17.178340
1629.000000	17.179439
1630.000000	17.185691
1631.000000	17.194868
1632.000000	17.216740
1633.000000	17.217719
1634.000000	17.230800
1635.000000	17.236095
1636.000000	17.240597
1637.000000	17.257578
1638.000000	17.257176
1639.000000	17.259845
1640.000000	17.251993
1641.000000	17.238512
1642.000000	17.244400
1643.000000	17.241879
1644.000000	17.222316
1645.000000	17.221940
1646.000000	17.219012
1647.000000	17.193608
1648.000000	17.196261
1649.000000	17.181916
1650.000000	17.156560
1651.000000	17.134952
1652.000000	17.111157
1653.000000	17.086862
1654.000000	17.073703
1655.000000	17.051188
1656.000000	17.016375
1657.000000	16.968844
1658.000000	16.963446
1659.000000	16.913243
1660.000000	16.884038
1661.000000	16.852127
1662.000000	16.819221
1663.000000	16.787376
1664.000000	16.771797
1665.000000	16.732014
1666.000000	16.717290
1667.000000	16.703667
1668.000000	16.696662
1669.000000	16.668329
1670.000000	16.619670
1671.000000	16.601505
1672.000000	16.581640
1673.000000	16.542966
1674.000000	16.511398
1675.000000	16.480141
1676.000000	16.463733
1677.000000	16.431605
1678.000000	16.410141
1679.000000	16.371790
1680.000000	16.366615
1681.000000	16.309702
1682.000000	16.267527
1683.000000	16.249072
1684.000000	16.215236
1685.000000	16.198929
1686.000000	16.184752
1687.000000	16.169751
1688.000000	16.170280
1689.000000	16.165378
1690.000000	16.168420
1691.000000	16.188246
1692.000000	16.177081
1693.000000	16.189254
1694.000000	16.200975
1695.000000	16.199054
1696.000000	16.206567
1697.000000	16.197656
1698.000000	16.203121
1699.000000	16.184554
1700.000000	16.196974
1701.000000	16.156486
1702.000000	16.140475
1703.000000	16.112609
1704.000000	16.082009
1705.000000	16.074822
1706.000000	16.043629
1707.000000	16.032602
1708.000000	16.005552
1709.000000	15.968324
1710.000000	15.940788
1711.000000	15.915971
1712.000000	15.866976
1713.000000	15.828653
1714.000000	15.793376
1715.000000	15.742756
1716.000000	15.698436
1717.000000	15.649518
1718.000000	15.625108
1719.000000	15.568338
1720.000000	15.527651
1721.000000	15.508574
1722.000000	15.481430
1723.000000	15.465288
1724.000000	15.439152
1725.000000	15.430583
1726.000000	15.432131
1727.000000	15.429518
1728.000000	15.421484
1729.000000	15.421554
1730.000000	15.436069
1731.000000	15.437514
1732.000000	15.468102
1733.000000	15.488399
1734.000000	15.516054
1735.000000	15.545433
1736.000000	15.554522
1737.000000	15.589562
1738.000000	15.604000
1739.000000	15.624986
1740.000000	15.659765
1741.000000	15.675734
1742.000000	15.703702
1743.000000	15.741208
1744.000000	15.765870
1745.000000	15.759778
1746.000000	15.787566
1747.000000	15.823222
1748.000000	15.825101
1749.000000	15.845764
1750.000000	15.855418
1751.000000	15.855881
1752.000000	15.866535
1753.000000	15.870218
1754.000000	15.872433
1755.000000	15.873946
1756.000000	15.889501
1757.000000	15.890005
1758.000000	15.898699
1759.000000	15.884262
1760.000000	15.874389
1761.000000	15.886439
1762.000000	15.905097
1763.000000	15.928571
1764.000000	15.948772
1765.000000	15.943191
1766.000000	15.946368
1767.000000	15.968195
1768.000000	15.964586
1769.000000	15.965729
1770.000000	15.994420
1771.000000	16.001603
1772.000000	16.014571
1773.000000	16.042418
1774.000000	16.050221
1775.000000	16.055630
1776.000000	16.065553
1777.000000	16.074775
1778.000000	16.076264
1779.000000	16.075409
1780.000000	16.072566
1781.000000	16.080244
1782.000000	16.107832
1783.000000	16.126096
1784.000000	16.117664
1785.000000	16.126599
1786.000000	16.128465
1787.000000	16.130525
1788.000000	16.146711
1789.000000	16.155219
1790.000000	16.157839
1791.000000	16.163048
1792.000000	16.166750
1793.000000	16.183608
1794.000000	16.195569
1795.000000	16.202487
1796.000000	16.206540
1797.000000	16.221943
1798.000000	16.249071
1799.000000	16.260071
1800.000000	16.247978
1801.000000	16.246577
1802.000000	16.258030
1803.000000	16.290924
1804.000000	16.307004
1805.000000	16.297475
1806.000000	16.300613
1807.000000	16.317913
1808.000000	16.343319
1809.000000	16.366961
1810.000000	16.370953
1811.000000	16.352259
1812.000000	16.354769
1813.000000	16.383061
1814.000000	16.398543
1815.000000	16.384170
1816.000000	16.411047
1817.000000	16.485442
1818.000000	16.519074
1819.000000	16.480182
1820.000000	16.399846
1821.000000	16.357559
1822.000000	16.402963
1823.000000	16.491026
1824.000000	16.548348
1825.000000	16.577300
1826.000000	16.574839
1827.000000	16.563657
1828.000000	16.548444
1829.000000	16.536523
1830.000000	16.531927
1831.000000	16.565828
1832.000000	16.620996
1833.000000	16.703099
1834.000000	16.731985
1835.000000	16.703980
1836.000000	16.655623
1837.000000	16.641904
1838.000000	16.658307
1839.000000	16.666458
1840.000000	16.604245
1841.000000	16.532587
1842.000000	16.559594
1843.000000	16.671896
1844.000000	16.804986
1845.000000	16.878250
1846.000000	16.837803
1847.000000	16.683119
1848.000000	16.585621
1849.000000	16.611466
1850.000000	16.688688
1851.000000	16.767788
1852.000000	16.776307
1853.000000	16.747379
1854.000000	16.715156
1855.000000	16.736716
1856.000000	16.774671
1857.000000	16.783919
1858.000000	16.733313
1859.000000	16.696429
1860.000000	16.664487
1861.000000	16.681308
1862.000000	16.681874
1863.000000	16.721325
1864.000000	16.774361
1865.000000	16.783767
1866.000000	16.782617
1867.000000	16.727784
1868.000000	16.659904
1869.000000	16.530795
1870.000000	16.394823
1871.000000	16.289790
1872.000000	16.169989
1873.000000	16.074024
1874.000000	16.003237
1875.000000	15.911482
1876.000000	15.860533
1877.000000	15.791109
1878.000000	15.703426
1879.000000	15.679944
1880.000000	15.638984
1881.000000	15.546464
1882.000000	15.458082
1883.000000	15.339466
1884.000000	15.252354
1885.000000	15.122022
1886.000000	15.031587
1887.000000	14.940439
1888.000000	14.837038
1889.000000	14.705879
1890.000000	14.549981
1891.000000	14.346667
1892.000000	14.178079
1893.000000	14.038328
1894.000000	13.934010
1895.000000	13.824792
1896.000000	13.713844
1897.000000	13.538601
1898.000000	13.365796
1899.000000	13.139385
1900.000000	12.914441
1901.000000	12.769251
1902.000000	12.653816
1903.000000	12.458366
1904.000000	12.289939
1905.000000	12.071667
1906.000000	11.922269
1907.000000	11.774832
1908.000000	11.705349
1909.000000	11.618681
1910.000000	11.514711
1911.000000	11.401220
1912.000000	11.273287
1913.000000	11.169056
1914.000000	11.024098
1915.000000	10.925168
1916.000000	10.873928
1917.000000	10.834746
1918.000000	10.756438
1919.000000	10.689179
1920.000000	10.618906
1921.000000	10.492729
1922.000000	10.473296
1923.000000	10.433337
1924.000000	10.421012
1925.000000	10.335042
1926.000000	10.299903
1927.000000	10.256469
1928.000000	10.268836
1929.000000	10.207981
1930.000000	10.211279
1931.000000	10.157895
1932.000000	10.188360
1933.000000	10.195077
1934.000000	10.200784
1935.000000	10.215298
1936.000000	10.242519
1937.000000	10.191777
1938.000000	10.195835
1939.000000	10.188409
1940.000000	10.190070
1941.000000	10.230894
1942.000000	10.265342
1943.000000	10.314330
1944.000000	10.342751
1945.000000	10.335929
1946.000000	10.358938
1947.000000	10.358606
1948.000000	10.384066
1949.000000	10.463075
1950.000000	10.482557
1951.000000	10.520218
1952.000000	10.554322
1953.000000	10.569365
1954.000000	10.643389
1955.000000	10.662015
1956.000000	10.670281
1957.000000	10.722802
1958.000000	10.779863
1959.000000	10.812845
1960.000000	10.852491
1961.000000	10.894885
1962.000000	10.901481
1963.000000	10.950479
1964.000000	10.985813
1965.000000	11.025745
1966.000000	11.030048
1967.000000	11.111174
1968.000000	11.139993
1969.000000	11.193675
1970.000000	11.203556
1971.000000	11.219021
1972.000000	11.298015
1973.000000	11.350049
1974.000000	11.381869
1975.000000	11.387064
1976.000000	11.448053
1977.000000	11.467160
1978.000000	11.499878
1979.000000	11.549635
1980.000000	11.562002
1981.000000	11.624376
1982.000000	11.665281
1983.000000	11.717170
1984.000000	11.739895
1985.000000	11.790243
1986.000000	11.849737
1987.000000	11.900699
1988.000000	11.905677
1989.000000	11.951615
1990.000000	11.983220
1991.000000	12.019131
1992.000000	12.055751
1993.000000	12.060898
1994.000000	12.088947
1995.000000	12.140707
1996.000000	12.178936
1997.000000	12.158643
1998.000000	12.187739
1999.000000	12.226389
2000.000000	12.244496
2001.000000	12.279293
2002.000000	12.292447
2003.000000	12.316114
2004.000000	12.336036
2005.000000	12.345478
2006.000000	12.341655
2007.000000	12.381431
2008.000000	12.388783
2009.000000	12.378577
2010.000000	12.358367
2011.000000	12.388287
2012.000000	12.379318
2013.000000	12.396909
2014.000000	12.402312
2015.000000	12.371978
2016.000000	12.362772
2017.000000	12.403261
2018.000000	12.386311
2019.000000	12.324302
2020.000000	12.314301
2021.000000	12.298100
2022.000000	12.268534
2023.000000	12.275370
2024.000000	12.253317
2025.000000	12.248180
2026.000000	12.241906
2027.000000	12.203801
2028.000000	12.177347
2029.000000	12.128310
2030.000000	12.091056
2031.000000	12.043316
2032.000000	11.973632
2033.000000	11.934087
2034.000000	11.915719
2035.000000	11.893503
2036.000000	11.827673
2037.000000	11.765006
2038.000000	11.706647
2039.000000	11.639771
2040.000000	11.580189
2041.000000	11.559944
2042.000000	11.570721
2043.000000	11.552534
2044.000000	11.463877
2045.000000	11.407013
2046.000000	11.396822
2047.000000	11.388013
2048.000000	11.324189
2049.000000	11.262572
2050.000000	11.189321
2051.000000	11.170664
2052.000000	11.157032
2053.000000	11.108045
2054.000000	11.053939
2055.000000	11.051871
2056.000000	11.076544
2057.000000	11.093654
2058.000000	11.107128
2059.000000	11.113120
2060.000000	11.078311
2061.000000	11.046799
2062.000000	11.060895
2063.000000	11.101017
2064.000000	11.099742
2065.000000	11.124479
2066.000000	11.156367
2067.000000	11.149333
2068.000000	11.188419
2069.000000	11.188518
2070.000000	11.171920
2071.000000	11.219744
2072.000000	11.250711
2073.000000	11.241230
2074.000000	11.239269
2075.000000	11.304511
2076.000000	11.313530
2077.000000	11.331144
2078.000000	11.349558
2079.000000	11.346035
2080.000000	11.307209
2081.000000	11.329909
2082.000000	11.340418
2083.000000	11.343960
2084.000000	11.335318
2085.000000	11.284148
2086.000000	11.274617
2087.000000	11.311613
2088.000000	11.333648
2089.000000	11.363392
2090.000000	11.361950
2091.000000	11.401416
2092.000000	11.385484
2093.000000	11.345826
2094.000000	11.308265
2095.000000	11.269617
2096.000000	11.302079
2097.000000	11.324506
2098.000000	11.394709
2099.000000	11.357288
2100.000000	11.280258
2101.000000	11.296324
2102.000000	11.309247
2103.000000	11.404979
2104.000000	11.411217
2105.000000	11.379591
2106.000000	11.352067
2107.000000	11.272482
2108.000000	11.304559
2109.000000	11.387850
2110.000000	11.380042
2111.000000	11.400460
2112.000000	11.334402
2113.000000	11.349810
2114.000000	11.351968
2115.000000	11.296222
2116.000000	11.339162
2117.000000	11.253121
2118.000000	11.280489
2119.000000	11.290836
2120.000000	11.341618
2121.000000	11.391943
2122.000000	11.327513
2123.000000	11.266783
2124.000000	11.360065
2125.000000	11.308067
2126.000000	11.246386
2127.000000	11.249378
2128.000000	11.333734
2129.000000	11.271994
2130.000000	11.343177
2131.000000	11.329125
2132.000000	11.264091
2133.000000	11.140706
2134.000000	11.269426
2135.000000	11.105240
2136.000000	11.156760
2137.000000	11.168508
2138.000000	11.268285
2139.000000	11.211786
2140.000000	11.147807
2141.000000	11.198348
2142.000000	11.126433
2143.000000	11.070747
2144.000000	11.025197
2145.000000	11.076981
2146.000000	11.003527
2147.000000	11.014554
2148.000000	10.907279
2149.000000	10.895635
2150.000000	10.790239
2151.000000	10.883089
2152.000000	10.719221
2153.000000	10.848112
2154.000000	10.869121
2155.000000	10.910368
2156.000000	10.873970
2157.000000	10.865178
2158.000000	10.702249
2159.000000	10.658485
2160.000000	10.604600
2161.000000	10.705917
2162.000000	10.641223
2163.000000	10.703176
2164.000000	10.736472
2165.000000	10.532775
2166.000000	10.677471
2167.000000	10.739465
2168.000000	10.624133
2169.000000	10.667251
2170.000000	10.704375
2171.000000	10.680950
2172.000000	10.607114
2173.000000	10.664360
2174.000000	10.696010
2175.000000	10.710153
2176.000000	10.727134
2177.000000	10.788105
2178.000000	10.751471
2179.000000	10.850442
2180.000000	10.750495
2181.000000	10.708875
2182.000000	10.734312
2183.000000	10.618029
2184.000000	10.779902
2185.000000	10.697179
2186.000000	10.786256
2187.000000	10.921346
2188.000000	10.781502
2189.000000	10.820095
2190.000000	10.666451
2191.000000	10.795848
2192.000000	10.699314
2193.000000	10.711311
2194.000000	10.717273
2195.000000	10.794957
2196.000000	10.879819
2197.000000	10.860552
2198.000000	10.865731
2199.000000	10.972850
2200.000000	10.913728
2201.000000	10.865646
2202.000000	10.889246
2203.000000	10.812879
2204.000000	10.938298
2205.000000	10.895395
2206.000000	10.909938
2207.000000	10.985354
2208.000000	11.007369
2209.000000	11.146874
2210.000000	11.096585
2211.000000	11.093149
2212.000000	11.030975
2213.000000	10.811216
2214.000000	11.002907
2215.000000	10.949629
2216.000000	10.977395
2217.000000	11.170997
2218.000000	10.949789
2219.000000	11.124815
2220.000000	11.088337
2221.000000	11.179006
2222.000000	11.163762
2223.000000	11.101690
2224.000000	11.063894
2225.000000	11.058261
2226.000000	11.012144
2227.000000	11.248446
2228.000000	11.176601
2229.000000	10.951234
2230.000000	11.098551
2231.000000	10.954488
2232.000000	10.978269
2233.000000	11.012566
2234.000000	11.156012
2235.000000	11.191491
2236.000000	10.946967
2237.000000	11.073221
2238.000000	10.948311
2239.000000	10.919650
2240.000000	10.913848
2241.000000	10.943410
2242.000000	10.789227
2243.000000	10.809455
2244.000000	10.744857
2245.000000	10.632131
2246.000000	10.590613
2247.000000	10.504419
2248.000000	10.633910
2249.000000	10.524381
2250.000000	10.451121
2251.000000	10.307470
2252.000000	10.462060
2253.000000	10.268053
2254.000000	10.297582
2255.000000	10.180846
2256.000000	10.158901
2257.000000	10.116680
2258.000000	10.094077
2259.000000	9.900414
2260.000000	9.914510
2261.000000	9.904701
2262.000000	9.942766
2263.000000	9.848450
2264.000000	9.763071
2265.000000	9.758549
2266.000000	9.883983
2267.000000	9.947359
2268.000000	9.792299
2269.000000	9.812982
2270.000000	9.709945
2271.000000	9.873857
2272.000000	9.949053
2273.000000	9.811762
2274.000000	9.732323
2275.000000	9.870838
2276.000000	9.803421
2277.000000	9.629928
2278.000000	9.831287
2279.000000	9.914928
2280.000000	9.912032
2281.000000	9.828224
2282.000000	9.768811
2283.000000	9.902238
2284.000000	9.929618
2285.000000	9.875071
2286.000000	9.785417
2287.000000	9.877438
2288.000000	9.893132
2289.000000	9.805356
2290.000000	9.801946
2291.000000	9.906537
2292.000000	9.798026
2293.000000	9.716103
2294.000000	9.922741
2295.000000	10.080195
2296.000000	9.845105
2297.000000	9.784025
2298.000000	9.797472
2299.000000	9.833125
2300.000000	9.889067
2301.000000	9.834697
2302.000000	9.764453
2303.000000	9.829564
2304.000000	9.966879
2305.000000	9.812246
2306.000000	9.779832
2307.000000	9.744231
2308.000000	9.740907
2309.000000	9.727314
2310.000000	9.915596
2311.000000	9.930948
2312.000000	9.967772
2313.000000	9.972603
2314.000000	9.902195
2315.000000	9.706781
2316.000000	9.798118
2317.000000	9.872662
2318.000000	9.906292
2319.000000	9.979224
2320.000000	9.765351
2321.000000	9.819910
2322.000000	9.950862
2323.000000	9.919023
2324.000000	9.930762
2325.000000	10.013258
2326.000000	9.972386
2327.000000	10.065412
2328.000000	10.146872
2329.000000	10.223004
2330.000000	10.166421
2331.000000	10.042484
2332.000000	9.978381
2333.000000	9.893537
2334.000000	10.061187
2335.000000	10.126290
2336.000000	10.071886
2337.000000	10.022953
2338.000000	10.006160
2339.000000	10.088972
2340.000000	10.182061
2341.000000	10.174087
2342.000000	10.196321
2343.000000	10.212101
2344.000000	10.042192
2345.000000	10.224139
2346.000000	10.266089
2347.000000	10.223260
2348.000000	10.187241
2349.000000	10.245537
2350.000000	10.223357
2351.000000	10.220802
2352.000000	10.230265
2353.000000	10.273021
2354.000000	10.299315
2355.000000	10.195581
2356.000000	10.416255
2357.000000	10.504229
2358.000000	10.596054
2359.000000	10.450297
2360.000000	10.416289
2361.000000	10.614051
2362.000000	10.679120
2363.000000	10.714791
2364.000000	10.599404
2365.000000	10.455874
2366.000000	10.575682
2367.000000	10.617367
2368.000000	10.463010
2369.000000	10.730558
2370.000000	10.711102
2371.000000	10.779304
2372.000000	10.896978
2373.000000	10.925292
2374.000000	10.868173
2375.000000	10.782533
2376.000000	10.933863
2377.000000	10.884161
2378.000000	10.768576
2379.000000	10.832194
2380.000000	10.671229
2381.000000	10.798878
2382.000000	10.823993
2383.000000	10.814830
2384.000000	10.808352
2385.000000	10.825330
2386.000000	10.892432
2387.000000	10.670797
2388.000000	10.882997
2389.000000	11.168110
2390.000000	11.016906
2391.000000	10.936687
2392.000000	10.940826
2393.000000	11.057396
2394.000000	11.054697
2395.000000	10.893871
2396.000000	10.804565
2397.000000	10.781635
2398.000000	10.952852
2399.000000	11.250549
2400.000000	11.446187
2401.000000	11.091929
2402.000000	11.054450
2403.000000	11.148487
2404.000000	11.212044
2405.000000	11.318383
2406.000000	11.310196
2407.000000	11.140952
2408.000000	11.283596
2409.000000	11.009986
2410.000000	11.557964
2411.000000	11.364395
2412.000000	11.511310
2413.000000	10.908304
2414.000000	11.248912
2415.000000	11.413977
2416.000000	11.232545
2417.000000	11.597059
2418.000000	11.696865
2419.000000	11.466589
2420.000000	11.809493
2421.000000	11.482889
2422.000000	10.997930
2423.000000	11.268270
2424.000000	11.497662
2425.000000	11.735253
2426.000000	11.387192
2427.000000	11.527155
2428.000000	10.955211
2429.000000	11.399346
2430.000000	11.601930
2431.000000	11.701985
2432.000000	11.459409
2433.000000	11.299617
2434.000000	11.456898
2435.000000	11.627483
2436.000000	11.604235
2437.000000	11.372686
2438.000000	11.156499
2439.000000	11.319497
2440.000000	11.596755
2441.000000	11.834004
2442.000000	11.783284
2443.000000	12.160818
2444.000000	11.409297
2445.000000	12.283792
2446.000000	12.204665
2447.000000	12.395708
2448.000000	11.657270
2449.000000	11.415315
2450.000000	11.386969
2451.000000	12.186123
2452.000000	12.036580
2453.000000	12.246929
2454.000000	11.496537
2455.000000	11.998806
2456.000000	11.602091
2457.000000	11.694672
2458.000000	11.389195
2459.000000	11.607678
2460.000000	12.257067
2461.000000	11.705859
2462.000000	12.540317
2463.000000	12.477200
2464.000000	13.252795
2465.000000	13.325095
2466.000000	13.789457
2467.000000	13.332338
2468.000000	14.065318
2469.000000	14.510877
2470.000000	13.460226
2471.000000	13.985573
2472.000000	13.796189
2473.000000	14.378749
2474.000000	14.747682
2475.000000	14.905453
2476.000000	15.137979
2477.000000	15.567057
2478.000000	15.761745
2479.000000	15.159788
2480.000000	16.525822
2481.000000	17.099137
2482.000000	17.091338
2483.000000	16.676283
2484.000000	16.686013
2485.000000	19.004826
2486.000000	18.699294
2487.000000	18.012863
2488.000000	17.601042
2489.000000	17.919667
2490.000000	19.725430
2491.000000	19.024244
2492.000000	20.542505
2493.000000	19.300300
2494.000000	20.885951
2495.000000	20.697300
2496.000000	22.142196
2497.000000	22.352702
2498.000000	21.556493
2499.000000	22.946599
2500.000000	22.837365
2501.000000	nan
2502.000000	nan
2503.000000	nan
2504.000000	nan
2505.000000	nan
2506.000000	nan
2507.000000	nan
2508.000000	nan
2509.000000	nan
2510.000000	nan
2511.000000	nan
2512.000000	nan
2513.000000	nan
2514.000000	nan
2515.000000	nan
2516.000000	nan
2517.000000	nan
2518.000000	nan
2519.000000	nan
2520.000000	nan
2521.000000	nan
2522.000000	nan
2523.000000	nan
2524.000000	nan
2525.000000	nan
2526.000000	nan
2527.000000	nan
2528.000000	nan
2529.000000	nan
2530.000000	nan
2531.000000	nan
2532.000000	nan
2533.000000	nan
2534.000000	nan
2535.000000	nan
2536.000000	nan
2537.000000	nan
2538.000000	nan
2539.000000	nan
2540.000000	nan
2541.000000	nan
2542.000000	nan
2543.000000	nan
2544.000000	nan
2545.000000	nan
2546.000000	nan
2547.000000	nan
2548.000000	nan
2549.000000	nan
2550.000000	nan
2551.000000	nan
2552.000000	nan
2553.000000	nan
2554.000000	nan
2555.000000	nan
2556.000000	nan
2557.000000	nan
2558.000000	nan
2559.000000	nan
2560.000000	nan
2561.000000	nan
2562.000000	nan
2563.000000	nan
2564.000000	nan
2565.000000	nan
2566.000000	nan
2567.000000	nan
2568.000000	nan
2569.000000	nan
2570.000000	nan
2571.000000	nan
2572.000000	nan
2573.000000	nan
2574.000000	nan
2575.000000	nan
2576.000000	nan
2577.000000	nan
2578.000000	nan
2579.000000	nan
2580.000000	nan
2581.000000	nan
2582.000000	nan
2583.000000	nan
2584.000000	nan
2585.000000	nan
2586.000000	nan
2587.000000	nan
2588.000000	nan
2589.000000	nan
2590.000000	nan
2591.000000	nan
2592.000000	nan
2593.000000	nan
2594.000000	nan
2595.000000	nan
2596.000000	nan
2597.000000	nan
2598.000000	nan
2599.000000	nan
2600.000000	nan
2601.000000	nan
2602.000000	nan
2603.000000	nan
2604.000000	nan
2605.000000	nan
2606.000000	nan
2607.000000	nan
2608.000000	nan
2609.000000	nan
2610.000000	nan
2611.000000	nan
2612.000000	nan
2613.000000	nan
2614.000000	nan
2615.000000	nan
2616.000000	nan
2617.000000	nan
2618.000000	nan
2619.000000	nan
2620.000000	nan
2621.000000	nan
2622.000000	nan
2623.000000	nan
2624.000000	nan
2625.000000	nan
2626.000000	nan
2627.000000	nan
2628.000000	nan
2629.000000	nan
2630.000000	nan
2631.000000	nan
2632.000000	nan
2633.000000	nan
2634.000000	nan
2635.000000	nan
2636.000000	nan
2637.000000	nan
2638.000000	nan
2639.000000	nan
2640.000000	nan
2641.000000	nan
2642.000000	nan
2643.000000	nan
2644.000000	nan
2645.000000	nan
2646.000000	nan
2647.000000	nan
2648.000000	nan
2649.000000	nan
2650.000000	nan
2651.000000	nan
2652.000000	nan
2653.000000	nan
2654.000000	nan
2655.000000	nan
2656.000000	nan
2657.000000	nan
2658.000000	nan
2659.000000	nan
2660.000000	nan
2661.000000	nan
2662.000000	nan
2663.000000	nan
2664.000000	nan
2665.000000	nan
2666.000000	nan
2667.000000	nan
2668.000000	nan
2669.000000	nan
2670.000000	nan
2671.000000	nan
2672.000000	nan
2673.000000	nan
2674.000000	nan
2675.000000	nan
2676.000000	nan
2677.000000	nan
2678.000000	nan
2679.000000	nan
2680.000000	nan
2681.000000	nan
2682.000000	nan
2683.000000	nan
2684.000000	nan
2685.000000	nan
2686.000000	nan
2687.000000	nan
2688.000000	nan
2689.000000	nan
2690.000000	nan
2691.000000	nan
2692.000000	nan
2693.000000	nan
2694.000000	nan
2695.000000	nan
2696.000000	nan
2697.000000	nan
2698.000000	nan
2699.000000	nan
2700.000000	nan
2701.000000	nan
2702.000000	nan
2703.000000	nan
2704.000000	nan
2705.000000	nan
2706.000000	nan
2707.000000	nan
2708.000000	nan
2709.000000	nan
2710.000000	nan
2711.000000	nan
2712.000000	nan
2713.000000	nan
2714.000000	nan
2715.000000	nan
2716.000000	nan
2717.000000	nan
2718.000000	nan
2719.000000	nan
2720.000000	nan
2721.000000	nan
2722.000000	nan
2723.000000	nan
2724.000000	nan
2725.000000	nan
2726.000000	nan
2727.000000	nan
2728.000000	nan
2729.000000	nan
2730.000000	nan
2731.000000	nan
2732.000000	nan
2733.000000	nan
2734.000000	nan
2735.000000	nan
2736.000000	nan
2737.000000	nan
2738.000000	nan
2739.000000	nan
2740.000000	nan
2741.000000	nan
2742.000000	nan
2743.000000	nan
2744.000000	nan
2745.000000	nan
2746.000000	nan
2747.000000	nan
2748.000000	nan
2749.000000	nan
2750.000000	nan
2751.000000	nan
2752.000000	nan
2753.000000	nan
2754.000000	nan
2755.000000	nan
2756.000000	nan
2757.000000	nan
2758.000000	nan
2759.000000	nan
2760.000000	nan
2761.000000	nan
2762.000000	nan
2763.000000	nan
2764.000000	nan
2765.000000	nan
2766.000000	nan
2767.000000	nan
2768.000000	nan
2769.000000	nan
2770.000000	nan
2771.000000	nan
2772.000000	nan
2773.000000	nan
2774.000000	nan
2775.000000	nan
2776.000000	nan
2777.000000	nan
2778.000000	nan
2779.000000	nan
2780.000000	nan
2781.000000	nan
2782.000000	nan
2783.000000	nan
2784.000000	nan
2785.000000	nan
2786.000000	nan
2787.000000	nan
2788.000000	nan
2789.000000	nan
2790.000000	nan
2791.000000	nan
2792.000000	nan
2793.000000	nan
2794.000000	nan
2795.000000	nan
2796.000000	nan
2797.000000	nan
2798.000000	nan
2799.000000	nan
2800.000000	nan
2801.000000	nan
2802.000000	nan
2803.000000	nan
2804.000000	nan
2805.000000	nan
2806.000000	nan
2807.000000	nan
2808.000000	nan
2809.000000	nan
2810.000000	nan
2811.000000	nan
2812.000000	nan
2813.000000	nan
2814.000000	nan
2815.000000	nan
2816.000000	nan
2817.000000	nan
2818.000000	nan
2819.000000	nan
2820.000000	nan
2821.000000	nan
2822.000000	nan
2823.000000	nan
2824.000000	nan
2825.000000	nan
2826.000000	nan
2827.000000	nan
2828.000000	nan
2829.000000	nan
2830.000000	nan
2831.000000	nan
2832.000000	nan
2833.000000	nan
2834.000000	nan
2835.000000	nan
2836.000000	nan
2837.000000	nan
2838.000000	nan
2839.000000	nan
2840.000000	nan
2841.000000	nan
2842.000000	nan
2843.000000	nan
2844.000000	nan
2845.000000	nan
2846.000000	nan
2847.000000	nan
2848.000000	nan
2849.000000	nan
2850.000000	nan
2851.000000	nan
2852.000000	nan
2853.000000	nan
2854.000000	nan
2855.000000	nan
2856.000000	nan
2857.000000	nan
2858.000000	nan
2859.000000	nan
2860.000000	nan
2861.000000	nan
2862.000000	nan
2863.000000	nan
2864.000000	nan
2865.000000	nan
2866.000000	nan
2867.000000	nan
2868.000000	nan
2869.000000	nan
2870.000000	nan
2871.000000	nan
2872.000000	nan
2873.000000	nan
2874.000000	nan
2875.000000	nan
2876.000000	nan
2877.000000	nan
2878.000000	nan
2879.000000	nan
2880.000000	nan
2881.000000	nan
2882.000000	nan
2883.000000	nan
2884.000000	nan
2885.000000	nan
2886.000000	nan
2887.000000	nan
2888.000000	nan
2889.000000	nan
2890.000000	nan
2891.000000	nan
2892.000000	nan
2893.000000	nan
2894.000000	nan
2895.000000	nan
2896.000000	nan
2897.000000	nan
2898.000000	nan
2899.000000	nan
2900.000000	nan
2901.000000	nan
2902.000000	nan
2903.000000	nan
2904.000000	nan
2905.000000	nan
2906.000000	nan
2907.000000	nan
2908.000000	nan
2909.000000	nan
2910.000000	nan
2911.000000	nan
2912.000000	nan
2913.000000	nan
2914.000000	nan
2915.000000	nan
2916.000000	nan
2917.000000	nan
2918.000000	nan
2919.000000	nan
2920.000000	nan
2921.000000	nan
2922.000000	nan
2923.000000	nan
2924.000000	nan
2925.000000	nan
2926.000000	nan
2927.000000	nan
2928.000000	nan
2929.000000	nan
2930.000000	nan
2931.000000	nan
2932.000000	nan
2933.000000	nan
2934.000000	nan
2935.000000	nan
2936.000000	nan
2937.000000	nan
2938.000000	nan
2939.000000	nan
2940.000000	nan
2941.000000	nan
2942.000000	nan
2943.000000	nan
2944.000000	nan
2945.000000	nan
2946.000000	nan
2947.000000	nan
2948.000000	nan
2949.000000	nan
2950.000000	nan
2951.000000	nan
2952.000000	nan
2953.000000	nan
2954.000000	nan
2955.000000	nan
2956.000000	nan
2957.000000	nan
2958.000000	nan
2959.000000	nan
2960.000000	nan
2961.000000	nan
2962.000000	nan
2963.000000	nan
2964.000000	nan
2965.000000	nan
2966.000000	nan
2967.000000	nan
2968.000000	nan
2969.000000	nan
2970.000000	nan
2971.000000	nan
2972.000000	nan
2973.000000	nan
2974.000000	nan
2975.000000	nan
2976.000000	nan
2977.000000	nan
2978.000000	nan
2979.000000	nan
2980.000000	nan
2981.000000	nan
2982.000000	nan
2983.000000	nan
2984.000000	nan
2985.000000	nan
2986.000000	nan
2987.000000	nan
2988.000000	nan
2989.000000	nan
2990.000000	nan
2991.000000	nan
2992.000000	nan
2993.000000	nan
2994.000000	nan
2995.000000	nan
2996.000000	nan
2997.000000	nan
2998.000000	nan
2999.000000	nan
3000.000000	nan
