PE UV       SUBTECH     SPECTRUM    ASCII       PEDS        4.00        
   -1
INBUCR0122-5.Sample.ASC
24/02/12
14:35:35.00
24/02/12
14:35:35.00
Vinicio Soto Monge
Pelidnota strigosa. Color café con ambos élitros (Det: A. Solís) COSTA RICA Prov. Guanacaste. Cañas. Reserva Leones. Naciente Quebrada Leones Cabo Blanco. 800-900m 25-26 SEP 2008 J.A. Azofeifa. Tp Luz Mercurio L_N_291200_422800 #94907 INB0004171901 
250,000000
1
Lambda 1050
1050L1511233
PerkinElmer UV WinLab 6.3.2.0749 / 2.02.05 Lambda 900 UV/VIS/NIR, Aug  7 2015 09:38:08

0
0
3350/servo 860,8/2
0
0
UV/VIS
1
1
1
DoubleDePol,CommonBeamDepol,RBeamAtt,SBeamAtt,60mm sphere, WB InGaAs Detector
0
0
0
0
Program
Program
3350/servo 860,8/2
3350/0,2 860,8/0,2
3350/0,2 860,8/0,2
0
15.00
 
 
 
0
 
860,8
150
860,8
Front
100
on
S:100 R:100
0
0
0
0
 
0
 
 
 
0
 
 
0
0
0
0
0
 
 
 
 
0
0


0
0
#HDR
-1
-1
#GR
nm
%R
1.0
0.0
2500,000000
-1,000000
2251
8
21,534800
1,590000
#DATA

250.000000	2.862664
251.000000	2.825703
252.000000	2.756838
253.000000	2.802069
254.000000	2.867279
255.000000	2.762665
256.000000	2.788185
257.000000	2.771414
258.000000	2.742743
259.000000	2.768946
260.000000	2.669299
261.000000	2.696316
262.000000	2.676654
263.000000	2.695065
264.000000	2.675776
265.000000	2.658763
266.000000	2.654975
267.000000	2.638274
268.000000	2.647877
269.000000	2.588744
270.000000	2.612653
271.000000	2.616405
272.000000	2.641974
273.000000	2.564906
274.000000	2.591216
275.000000	2.564259
276.000000	2.606126
277.000000	2.594234
278.000000	2.631345
279.000000	2.538904
280.000000	2.542813
281.000000	2.544611
282.000000	2.580390
283.000000	2.528403
284.000000	2.592581
285.000000	2.538931
286.000000	2.551439
287.000000	2.552990
288.000000	2.537302
289.000000	2.538228
290.000000	2.537456
291.000000	2.536389
292.000000	2.528464
293.000000	2.626874
294.000000	2.499067
295.000000	2.516934
296.000000	2.507641
297.000000	2.460794
298.000000	2.554556
299.000000	2.571290
300.000000	2.526033
301.000000	2.501278
302.000000	2.494786
303.000000	2.524277
304.000000	2.493150
305.000000	2.473435
306.000000	2.513051
307.000000	2.489489
308.000000	2.547641
309.000000	2.544809
310.000000	2.542817
311.000000	2.510171
312.000000	2.518399
313.000000	2.488036
314.000000	2.540097
315.000000	2.475953
316.000000	2.467673
317.000000	2.617604
318.000000	2.664495
319.000000	2.576968
320.000000	2.501622
321.000000	2.707890
322.000000	2.289983
323.000000	2.462529
324.000000	2.605853
325.000000	2.393051
326.000000	2.500701
327.000000	2.619406
328.000000	2.458248
329.000000	2.537952
330.000000	2.451664
331.000000	2.320437
332.000000	2.430603
333.000000	2.374743
334.000000	2.474759
335.000000	2.441816
336.000000	2.419633
337.000000	2.331311
338.000000	2.369304
339.000000	2.361748
340.000000	2.496080
341.000000	2.460135
342.000000	2.341594
343.000000	2.337131
344.000000	2.381657
345.000000	2.356906
346.000000	2.333312
347.000000	2.340972
348.000000	2.384609
349.000000	2.402180
350.000000	2.405284
351.000000	2.364780
352.000000	2.389336
353.000000	2.339991
354.000000	2.312382
355.000000	2.343913
356.000000	2.388494
357.000000	2.357602
358.000000	2.396730
359.000000	2.350176
360.000000	2.304562
361.000000	2.348481
362.000000	2.352016
363.000000	2.342460
364.000000	2.342545
365.000000	2.310799
366.000000	2.326117
367.000000	2.397806
368.000000	2.394934
369.000000	2.261058
370.000000	2.272516
371.000000	2.306351
372.000000	2.333085
373.000000	2.356676
374.000000	2.344231
375.000000	2.357330
376.000000	2.420770
377.000000	2.422508
378.000000	2.414344
379.000000	2.419929
380.000000	2.420445
381.000000	2.417741
382.000000	2.416716
383.000000	2.416111
384.000000	2.413006
385.000000	2.410850
386.000000	2.406280
387.000000	2.410946
388.000000	2.411342
389.000000	2.404612
390.000000	2.395586
391.000000	2.386408
392.000000	2.394237
393.000000	2.400349
394.000000	2.398318
395.000000	2.396949
396.000000	2.398860
397.000000	2.407568
398.000000	2.402774
399.000000	2.401822
400.000000	2.404515
401.000000	2.399254
402.000000	2.398586
403.000000	2.402806
404.000000	2.407437
405.000000	2.404244
406.000000	2.405450
407.000000	2.407365
408.000000	2.401714
409.000000	2.401134
410.000000	2.404361
411.000000	2.414950
412.000000	2.426614
413.000000	2.435713
414.000000	2.438059
415.000000	2.437603
416.000000	2.442020
417.000000	2.449460
418.000000	2.459257
419.000000	2.467736
420.000000	2.480999
421.000000	2.485552
422.000000	2.487806
423.000000	2.497901
424.000000	2.507174
425.000000	2.517395
426.000000	2.529916
427.000000	2.540585
428.000000	2.553204
429.000000	2.556326
430.000000	2.572506
431.000000	2.584160
432.000000	2.594357
433.000000	2.610666
434.000000	2.623842
435.000000	2.637012
436.000000	2.658164
437.000000	2.673548
438.000000	2.681013
439.000000	2.696222
440.000000	2.713157
441.000000	2.730860
442.000000	2.750871
443.000000	2.767679
444.000000	2.781918
445.000000	2.803755
446.000000	2.818516
447.000000	2.830248
448.000000	2.853937
449.000000	2.868690
450.000000	2.886174
451.000000	2.907600
452.000000	2.931752
453.000000	2.951259
454.000000	2.969433
455.000000	2.989205
456.000000	3.007233
457.000000	3.030184
458.000000	3.052741
459.000000	3.077340
460.000000	3.097963
461.000000	3.120656
462.000000	3.140272
463.000000	3.158192
464.000000	3.179197
465.000000	3.207158
466.000000	3.233044
467.000000	3.253948
468.000000	3.276489
469.000000	3.303712
470.000000	3.331852
471.000000	3.356197
472.000000	3.384234
473.000000	3.416518
474.000000	3.442428
475.000000	3.466457
476.000000	3.494042
477.000000	3.523139
478.000000	3.560052
479.000000	3.589927
480.000000	3.619404
481.000000	3.655155
482.000000	3.688083
483.000000	3.725003
484.000000	3.747680
485.000000	3.780424
486.000000	3.803954
487.000000	3.831284
488.000000	3.859650
489.000000	3.892596
490.000000	3.929057
491.000000	3.960584
492.000000	3.994240
493.000000	4.034581
494.000000	4.063754
495.000000	4.095192
496.000000	4.128643
497.000000	4.167191
498.000000	4.206573
499.000000	4.255583
500.000000	4.290312
501.000000	4.335208
502.000000	4.374032
503.000000	4.413584
504.000000	4.456877
505.000000	4.493185
506.000000	4.554006
507.000000	4.600911
508.000000	4.644039
509.000000	4.699754
510.000000	4.747769
511.000000	4.797053
512.000000	4.850284
513.000000	4.908953
514.000000	4.959141
515.000000	5.023183
516.000000	5.086257
517.000000	5.140304
518.000000	5.206182
519.000000	5.268962
520.000000	5.332137
521.000000	5.396205
522.000000	5.462147
523.000000	5.525288
524.000000	5.586069
525.000000	5.654187
526.000000	5.721154
527.000000	5.785080
528.000000	5.854664
529.000000	5.920771
530.000000	5.983658
531.000000	6.043933
532.000000	6.118545
533.000000	6.193241
534.000000	6.260227
535.000000	6.328196
536.000000	6.408466
537.000000	6.472089
538.000000	6.546585
539.000000	6.622316
540.000000	6.696280
541.000000	6.772119
542.000000	6.856539
543.000000	6.932715
544.000000	7.024587
545.000000	7.100881
546.000000	7.190743
547.000000	7.270583
548.000000	7.358243
549.000000	7.445956
550.000000	7.530151
551.000000	7.640222
552.000000	7.731778
553.000000	7.820769
554.000000	7.915767
555.000000	8.015184
556.000000	8.131472
557.000000	8.233136
558.000000	8.325542
559.000000	8.430138
560.000000	8.589368
561.000000	8.728268
562.000000	8.828002
563.000000	8.943303
564.000000	9.080619
565.000000	9.201823
566.000000	9.338453
567.000000	9.470079
568.000000	9.606736
569.000000	9.756751
570.000000	9.887501
571.000000	10.042693
572.000000	10.186084
573.000000	10.348630
574.000000	10.514897
575.000000	10.661272
576.000000	10.828797
577.000000	10.995528
578.000000	11.142576
579.000000	11.311094
580.000000	11.466806
581.000000	11.628295
582.000000	11.799704
583.000000	11.926639
584.000000	12.091264
585.000000	12.237323
586.000000	12.371149
587.000000	12.508859
588.000000	12.622542
589.000000	12.746579
590.000000	12.855612
591.000000	12.953312
592.000000	13.044390
593.000000	13.137178
594.000000	13.202891
595.000000	13.274194
596.000000	13.340348
597.000000	13.368516
598.000000	13.432435
599.000000	13.447143
600.000000	13.475969
601.000000	13.510535
602.000000	13.510035
603.000000	13.539737
604.000000	13.549358
605.000000	13.562619
606.000000	13.555153
607.000000	13.533431
608.000000	13.539855
609.000000	13.515354
610.000000	13.517533
611.000000	13.491858
612.000000	13.488508
613.000000	13.472328
614.000000	13.477476
615.000000	13.460851
616.000000	13.457195
617.000000	13.461807
618.000000	13.460284
619.000000	13.444229
620.000000	13.474578
621.000000	13.484444
622.000000	13.482921
623.000000	13.505832
624.000000	13.531585
625.000000	13.560934
626.000000	13.600552
627.000000	13.654753
628.000000	13.695748
629.000000	13.745473
630.000000	13.807290
631.000000	13.857167
632.000000	13.915809
633.000000	13.995621
634.000000	14.064471
635.000000	14.140025
636.000000	14.204759
637.000000	14.296262
638.000000	14.390287
639.000000	14.470718
640.000000	14.544010
641.000000	14.636883
642.000000	14.728154
643.000000	14.825770
644.000000	14.919337
645.000000	15.006609
646.000000	15.113945
647.000000	15.195758
648.000000	15.303256
649.000000	15.385523
650.000000	15.482911
651.000000	15.594750
652.000000	15.683000
653.000000	15.782338
654.000000	15.883023
655.000000	15.956646
656.000000	16.042811
657.000000	16.163276
658.000000	16.264585
659.000000	16.346685
660.000000	16.447493
661.000000	16.532414
662.000000	16.631808
663.000000	16.747598
664.000000	16.837984
665.000000	16.952853
666.000000	17.018696
667.000000	17.118769
668.000000	17.223451
669.000000	17.307544
670.000000	17.369144
671.000000	17.460434
672.000000	17.571301
673.000000	17.663022
674.000000	17.727991
675.000000	17.849327
676.000000	17.947984
677.000000	18.038335
678.000000	18.122408
679.000000	18.213932
680.000000	18.305004
681.000000	18.379951
682.000000	18.472687
683.000000	18.577111
684.000000	18.643677
685.000000	18.734131
686.000000	18.825770
687.000000	18.916580
688.000000	18.982763
689.000000	19.068591
690.000000	19.184498
691.000000	19.274958
692.000000	19.344665
693.000000	19.437337
694.000000	19.530729
695.000000	19.616663
696.000000	19.704242
697.000000	19.783348
698.000000	19.877095
699.000000	19.957470
700.000000	20.052642
701.000000	20.118946
702.000000	20.176678
703.000000	20.283564
704.000000	20.400169
705.000000	20.492276
706.000000	20.547596
707.000000	20.624463
708.000000	20.711029
709.000000	20.796561
710.000000	20.882719
711.000000	20.951723
712.000000	21.022316
713.000000	21.110232
714.000000	21.216309
715.000000	21.275946
716.000000	21.332364
717.000000	21.446257
718.000000	21.520794
719.000000	21.611886
720.000000	21.741528
721.000000	21.792610
722.000000	21.865105
723.000000	21.959985
724.000000	21.993238
725.000000	22.074600
726.000000	22.191531
727.000000	22.268037
728.000000	22.331695
729.000000	22.401236
730.000000	22.504087
731.000000	22.598056
732.000000	22.639778
733.000000	22.745729
734.000000	22.810126
735.000000	22.863278
736.000000	22.941180
737.000000	23.042949
738.000000	23.145520
739.000000	23.185951
740.000000	23.252557
741.000000	23.370160
742.000000	23.449977
743.000000	23.534164
744.000000	23.620167
745.000000	23.633568
746.000000	23.729321
747.000000	23.858593
748.000000	23.908081
749.000000	23.961797
750.000000	24.084119
751.000000	24.140239
752.000000	24.221747
753.000000	24.275400
754.000000	24.311400
755.000000	24.385847
756.000000	24.503717
757.000000	24.628599
758.000000	24.718451
759.000000	24.752516
760.000000	24.823218
761.000000	24.892821
762.000000	24.968237
763.000000	25.015048
764.000000	25.119237
765.000000	25.197900
766.000000	25.307621
767.000000	25.371699
768.000000	25.420278
769.000000	25.503341
770.000000	25.620222
771.000000	25.653228
772.000000	25.717935
773.000000	25.799665
774.000000	25.840581
775.000000	26.006706
776.000000	26.035305
777.000000	26.155042
778.000000	26.239975
779.000000	26.288342
780.000000	26.397877
781.000000	26.439810
782.000000	26.556366
783.000000	26.608854
784.000000	26.623958
785.000000	26.707213
786.000000	26.847251
787.000000	26.944740
788.000000	26.927577
789.000000	27.031554
790.000000	27.049495
791.000000	27.156964
792.000000	27.343878
793.000000	27.315758
794.000000	27.367448
795.000000	27.460411
796.000000	27.542042
797.000000	27.531743
798.000000	27.591039
799.000000	27.748462
800.000000	27.877244
801.000000	27.871691
802.000000	27.881354
803.000000	28.083848
804.000000	28.151493
805.000000	28.113520
806.000000	28.152430
807.000000	28.234993
808.000000	28.334030
809.000000	28.461228
810.000000	28.466722
811.000000	28.569369
812.000000	28.631836
813.000000	28.699985
814.000000	28.706127
815.000000	28.838739
816.000000	28.908044
817.000000	29.036762
818.000000	29.054734
819.000000	28.968226
820.000000	29.029512
821.000000	29.293329
822.000000	29.365232
823.000000	29.389999
824.000000	29.363196
825.000000	29.380883
826.000000	29.487400
827.000000	29.638195
828.000000	29.820070
829.000000	29.841409
830.000000	29.833167
831.000000	29.901891
832.000000	29.754466
833.000000	29.886409
834.000000	29.981269
835.000000	29.932856
836.000000	30.184079
837.000000	30.252308
838.000000	30.096461
839.000000	30.073949
840.000000	29.946231
841.000000	30.190131
842.000000	30.428734
843.000000	30.475412
844.000000	30.339968
845.000000	30.470264
846.000000	30.181963
847.000000	30.377435
848.000000	30.563606
849.000000	30.507774
850.000000	30.952952
851.000000	30.952938
852.000000	30.638632
853.000000	30.985443
854.000000	30.977458
855.000000	31.404795
856.000000	30.751683
857.000000	31.041639
858.000000	33.124021
859.000000	31.725328
860.000000	31.579264
861.000000	31.811907
862.000000	31.991656
863.000000	31.521727
864.000000	30.438908
865.000000	31.416084
866.000000	31.551604
867.000000	31.701954
868.000000	31.605042
869.000000	31.272538
870.000000	31.232562
871.000000	30.702564
872.000000	31.389294
873.000000	31.466893
874.000000	31.264904
875.000000	31.577602
876.000000	31.076487
877.000000	31.203814
878.000000	31.390558
879.000000	30.848108
880.000000	31.246946
881.000000	31.359108
882.000000	31.125694
883.000000	30.800134
884.000000	30.779847
885.000000	31.080212
886.000000	31.169056
887.000000	30.696902
888.000000	30.827784
889.000000	30.752027
890.000000	30.789197
891.000000	30.620061
892.000000	30.701493
893.000000	30.694205
894.000000	30.668070
895.000000	30.509499
896.000000	30.477316
897.000000	30.801568
898.000000	30.698728
899.000000	30.656622
900.000000	30.041997
901.000000	30.343408
902.000000	30.273769
903.000000	30.147435
904.000000	30.222051
905.000000	30.248970
906.000000	30.427916
907.000000	30.454156
908.000000	30.271709
909.000000	30.089183
910.000000	30.073718
911.000000	30.194402
912.000000	30.123521
913.000000	30.218804
914.000000	30.134242
915.000000	30.121917
916.000000	30.197389
917.000000	30.071820
918.000000	30.202039
919.000000	30.030120
920.000000	29.950644
921.000000	30.060926
922.000000	30.067754
923.000000	30.054977
924.000000	29.993561
925.000000	29.876435
926.000000	29.976703
927.000000	29.879624
928.000000	30.018170
929.000000	29.990947
930.000000	29.957770
931.000000	29.895877
932.000000	29.879597
933.000000	29.897264
934.000000	29.923169
935.000000	30.020619
936.000000	30.001281
937.000000	30.047593
938.000000	29.922592
939.000000	29.869943
940.000000	29.782490
941.000000	29.854010
942.000000	29.936061
943.000000	29.880706
944.000000	29.909433
945.000000	29.823748
946.000000	29.798215
947.000000	29.847911
948.000000	29.888553
949.000000	29.882787
950.000000	29.844857
951.000000	29.817403
952.000000	29.901407
953.000000	29.834461
954.000000	29.838995
955.000000	29.912424
956.000000	29.922366
957.000000	29.847233
958.000000	29.813056
959.000000	29.840988
960.000000	29.840176
961.000000	29.878755
962.000000	29.861530
963.000000	29.849613
964.000000	29.823044
965.000000	29.811639
966.000000	29.783471
967.000000	29.759334
968.000000	29.798152
969.000000	29.775820
970.000000	29.770569
971.000000	29.791618
972.000000	29.807618
973.000000	29.772710
974.000000	29.770778
975.000000	29.775355
976.000000	29.766852
977.000000	29.728739
978.000000	29.703470
979.000000	29.717384
980.000000	29.716470
981.000000	29.756809
982.000000	29.736070
983.000000	29.728234
984.000000	29.763975
985.000000	29.762849
986.000000	29.729200
987.000000	29.712830
988.000000	29.715611
989.000000	29.749554
990.000000	29.779200
991.000000	29.772588
992.000000	29.761620
993.000000	29.740244
994.000000	29.725880
995.000000	29.746593
996.000000	29.766562
997.000000	29.779352
998.000000	29.810562
999.000000	29.845723
1000.000000	29.839790
1001.000000	29.802237
1002.000000	29.799975
1003.000000	29.852681
1004.000000	29.845971
1005.000000	29.793012
1006.000000	29.790268
1007.000000	29.789303
1008.000000	29.809910
1009.000000	29.803864
1010.000000	29.774185
1011.000000	29.848449
1012.000000	29.870151
1013.000000	29.816418
1014.000000	29.822700
1015.000000	29.835930
1016.000000	29.838538
1017.000000	29.866524
1018.000000	29.886648
1019.000000	29.882950
1020.000000	29.865966
1021.000000	29.858035
1022.000000	29.868038
1023.000000	29.882299
1024.000000	29.893701
1025.000000	29.915296
1026.000000	29.951671
1027.000000	29.940733
1028.000000	29.921893
1029.000000	29.928511
1030.000000	29.939507
1031.000000	29.977549
1032.000000	29.991052
1033.000000	29.972901
1034.000000	29.981493
1035.000000	30.007792
1036.000000	30.053346
1037.000000	30.053847
1038.000000	30.043357
1039.000000	30.061354
1040.000000	30.055776
1041.000000	30.068827
1042.000000	30.094580
1043.000000	30.120179
1044.000000	30.102978
1045.000000	30.121863
1046.000000	30.133074
1047.000000	30.160753
1048.000000	30.154660
1049.000000	30.154020
1050.000000	30.198948
1051.000000	30.188460
1052.000000	30.177507
1053.000000	30.213811
1054.000000	30.202625
1055.000000	30.229013
1056.000000	30.253566
1057.000000	30.241497
1058.000000	30.269688
1059.000000	30.268785
1060.000000	30.255787
1061.000000	30.296163
1062.000000	30.312648
1063.000000	30.320677
1064.000000	30.316768
1065.000000	30.325792
1066.000000	30.332943
1067.000000	30.365457
1068.000000	30.389140
1069.000000	30.408717
1070.000000	30.401248
1071.000000	30.437115
1072.000000	30.440865
1073.000000	30.423000
1074.000000	30.418654
1075.000000	30.476170
1076.000000	30.446056
1077.000000	30.490126
1078.000000	30.475871
1079.000000	30.486247
1080.000000	30.520544
1081.000000	30.521181
1082.000000	30.532303
1083.000000	30.548424
1084.000000	30.552873
1085.000000	30.534968
1086.000000	30.535618
1087.000000	30.553055
1088.000000	30.556580
1089.000000	30.584831
1090.000000	30.570452
1091.000000	30.572616
1092.000000	30.615775
1093.000000	30.632398
1094.000000	30.628512
1095.000000	30.605770
1096.000000	30.599664
1097.000000	30.613665
1098.000000	30.617427
1099.000000	30.634125
1100.000000	30.639168
1101.000000	30.663490
1102.000000	30.667068
1103.000000	30.637915
1104.000000	30.616901
1105.000000	30.639542
1106.000000	30.645098
1107.000000	30.668357
1108.000000	30.681008
1109.000000	30.674302
1110.000000	30.649865
1111.000000	30.676427
1112.000000	30.638895
1113.000000	30.660942
1114.000000	30.681438
1115.000000	30.671105
1116.000000	30.679914
1117.000000	30.657452
1118.000000	30.659241
1119.000000	30.668977
1120.000000	30.637865
1121.000000	30.664177
1122.000000	30.629520
1123.000000	30.631834
1124.000000	30.613165
1125.000000	30.587819
1126.000000	30.566898
1127.000000	30.522941
1128.000000	30.496677
1129.000000	30.481238
1130.000000	30.463613
1131.000000	30.439237
1132.000000	30.422326
1133.000000	30.398711
1134.000000	30.340677
1135.000000	30.270778
1136.000000	30.269550
1137.000000	30.254533
1138.000000	30.235310
1139.000000	30.196328
1140.000000	30.176625
1141.000000	30.112008
1142.000000	30.110552
1143.000000	30.079964
1144.000000	29.992115
1145.000000	30.016306
1146.000000	29.954740
1147.000000	29.977337
1148.000000	29.924440
1149.000000	29.853218
1150.000000	29.816110
1151.000000	29.799298
1152.000000	29.733379
1153.000000	29.698239
1154.000000	29.681766
1155.000000	29.631409
1156.000000	29.585439
1157.000000	29.556253
1158.000000	29.461253
1159.000000	29.430974
1160.000000	29.374381
1161.000000	29.339308
1162.000000	29.286538
1163.000000	29.235728
1164.000000	29.190104
1165.000000	29.162381
1166.000000	29.100852
1167.000000	29.040590
1168.000000	29.012775
1169.000000	28.974910
1170.000000	28.881959
1171.000000	28.871891
1172.000000	28.833724
1173.000000	28.795343
1174.000000	28.747992
1175.000000	28.722500
1176.000000	28.686668
1177.000000	28.673245
1178.000000	28.688336
1179.000000	28.638704
1180.000000	28.614528
1181.000000	28.610577
1182.000000	28.613551
1183.000000	28.607574
1184.000000	28.592890
1185.000000	28.589394
1186.000000	28.604350
1187.000000	28.599400
1188.000000	28.594684
1189.000000	28.614166
1190.000000	28.647412
1191.000000	28.667491
1192.000000	28.671060
1193.000000	28.688999
1194.000000	28.726559
1195.000000	28.743374
1196.000000	28.770220
1197.000000	28.785052
1198.000000	28.812217
1199.000000	28.834842
1200.000000	28.873557
1201.000000	28.898182
1202.000000	28.935770
1203.000000	28.944377
1204.000000	28.951246
1205.000000	28.979955
1206.000000	29.003184
1207.000000	29.007245
1208.000000	29.029342
1209.000000	29.050098
1210.000000	29.059179
1211.000000	29.080174
1212.000000	29.105490
1213.000000	29.106097
1214.000000	29.125286
1215.000000	29.122625
1216.000000	29.145163
1217.000000	29.172609
1218.000000	29.188940
1219.000000	29.213884
1220.000000	29.219269
1221.000000	29.255851
1222.000000	29.278124
1223.000000	29.286565
1224.000000	29.317408
1225.000000	29.319448
1226.000000	29.346106
1227.000000	29.370063
1228.000000	29.371767
1229.000000	29.402646
1230.000000	29.437510
1231.000000	29.455091
1232.000000	29.476391
1233.000000	29.495821
1234.000000	29.519389
1235.000000	29.552279
1236.000000	29.573526
1237.000000	29.610862
1238.000000	29.615285
1239.000000	29.632712
1240.000000	29.663650
1241.000000	29.688094
1242.000000	29.707825
1243.000000	29.747192
1244.000000	29.771671
1245.000000	29.776530
1246.000000	29.782782
1247.000000	29.786318
1248.000000	29.814345
1249.000000	29.841297
1250.000000	29.834682
1251.000000	29.845613
1252.000000	29.862713
1253.000000	29.866609
1254.000000	29.849457
1255.000000	29.852098
1256.000000	29.856008
1257.000000	29.851191
1258.000000	29.847880
1259.000000	29.857374
1260.000000	29.851166
1261.000000	29.841155
1262.000000	29.843158
1263.000000	29.848133
1264.000000	29.852034
1265.000000	29.845149
1266.000000	29.843784
1267.000000	29.858814
1268.000000	29.860415
1269.000000	29.864552
1270.000000	29.867530
1271.000000	29.865808
1272.000000	29.886095
1273.000000	29.890061
1274.000000	29.885668
1275.000000	29.902002
1276.000000	29.911848
1277.000000	29.909365
1278.000000	29.927539
1279.000000	29.933173
1280.000000	29.938588
1281.000000	29.936384
1282.000000	29.936051
1283.000000	29.959033
1284.000000	29.972467
1285.000000	29.983954
1286.000000	29.977638
1287.000000	29.992387
1288.000000	30.004720
1289.000000	30.013331
1290.000000	30.026242
1291.000000	30.027924
1292.000000	30.033651
1293.000000	30.046181
1294.000000	30.044891
1295.000000	30.042488
1296.000000	30.062204
1297.000000	30.067390
1298.000000	30.063755
1299.000000	30.063798
1300.000000	30.052222
1301.000000	30.050929
1302.000000	30.051234
1303.000000	30.044729
1304.000000	30.041947
1305.000000	30.042240
1306.000000	30.031399
1307.000000	30.021572
1308.000000	30.012927
1309.000000	30.008601
1310.000000	30.003638
1311.000000	29.996593
1312.000000	29.982989
1313.000000	29.961773
1314.000000	29.946245
1315.000000	29.943078
1316.000000	29.922840
1317.000000	29.930698
1318.000000	29.925402
1319.000000	29.907629
1320.000000	29.894346
1321.000000	29.868013
1322.000000	29.851549
1323.000000	29.838689
1324.000000	29.810198
1325.000000	29.788540
1326.000000	29.759301
1327.000000	29.760411
1328.000000	29.716728
1329.000000	29.686554
1330.000000	29.662443
1331.000000	29.616361
1332.000000	29.585732
1333.000000	29.557917
1334.000000	29.515922
1335.000000	29.478045
1336.000000	29.427067
1337.000000	29.380233
1338.000000	29.331999
1339.000000	29.264956
1340.000000	29.229137
1341.000000	29.158450
1342.000000	29.094604
1343.000000	29.041399
1344.000000	28.972978
1345.000000	28.931674
1346.000000	28.865836
1347.000000	28.790147
1348.000000	28.729574
1349.000000	28.672457
1350.000000	28.607984
1351.000000	28.569330
1352.000000	28.525184
1353.000000	28.492778
1354.000000	28.398970
1355.000000	28.337619
1356.000000	28.292315
1357.000000	28.273548
1358.000000	28.217101
1359.000000	28.193225
1360.000000	28.145937
1361.000000	28.036840
1362.000000	28.019492
1363.000000	27.991661
1364.000000	27.930243
1365.000000	27.910663
1366.000000	27.908839
1367.000000	27.842455
1368.000000	27.802944
1369.000000	27.795890
1370.000000	27.779699
1371.000000	27.775812
1372.000000	27.814975
1373.000000	27.834674
1374.000000	27.873563
1375.000000	27.867335
1376.000000	27.864961
1377.000000	27.910271
1378.000000	27.896588
1379.000000	27.869893
1380.000000	27.835205
1381.000000	27.704205
1382.000000	27.609507
1383.000000	27.506025
1384.000000	27.437002
1385.000000	27.344046
1386.000000	27.219621
1387.000000	27.070658
1388.000000	26.935498
1389.000000	26.815338
1390.000000	26.740400
1391.000000	26.571875
1392.000000	26.425462
1393.000000	26.307438
1394.000000	26.159892
1395.000000	25.965337
1396.000000	25.783871
1397.000000	25.672344
1398.000000	25.561598
1399.000000	25.360756
1400.000000	25.139619
1401.000000	24.992882
1402.000000	24.855269
1403.000000	24.733328
1404.000000	24.530886
1405.000000	24.354663
1406.000000	24.210042
1407.000000	24.049847
1408.000000	23.858481
1409.000000	23.695379
1410.000000	23.531233
1411.000000	23.409432
1412.000000	23.251846
1413.000000	23.094221
1414.000000	22.903070
1415.000000	22.775505
1416.000000	22.674471
1417.000000	22.538417
1418.000000	22.408840
1419.000000	22.274747
1420.000000	22.165310
1421.000000	22.070039
1422.000000	21.961835
1423.000000	21.833839
1424.000000	21.738984
1425.000000	21.641222
1426.000000	21.562651
1427.000000	21.478457
1428.000000	21.358578
1429.000000	21.287733
1430.000000	21.198317
1431.000000	21.124602
1432.000000	21.044578
1433.000000	20.977296
1434.000000	20.920445
1435.000000	20.840681
1436.000000	20.776312
1437.000000	20.717511
1438.000000	20.668465
1439.000000	20.611205
1440.000000	20.566275
1441.000000	20.484037
1442.000000	20.444188
1443.000000	20.378210
1444.000000	20.345220
1445.000000	20.285737
1446.000000	20.236126
1447.000000	20.189060
1448.000000	20.124457
1449.000000	20.074540
1450.000000	20.016000
1451.000000	19.957441
1452.000000	19.897991
1453.000000	19.843060
1454.000000	19.810389
1455.000000	19.750788
1456.000000	19.688721
1457.000000	19.626351
1458.000000	19.594728
1459.000000	19.510986
1460.000000	19.464103
1461.000000	19.422313
1462.000000	19.352301
1463.000000	19.295786
1464.000000	19.230928
1465.000000	19.183461
1466.000000	19.149599
1467.000000	19.109208
1468.000000	19.045137
1469.000000	18.986331
1470.000000	18.936875
1471.000000	18.898142
1472.000000	18.864930
1473.000000	18.825518
1474.000000	18.799608
1475.000000	18.755759
1476.000000	18.713844
1477.000000	18.677478
1478.000000	18.655179
1479.000000	18.623454
1480.000000	18.586978
1481.000000	18.575527
1482.000000	18.540504
1483.000000	18.509827
1484.000000	18.493344
1485.000000	18.462362
1486.000000	18.463380
1487.000000	18.434140
1488.000000	18.432479
1489.000000	18.415545
1490.000000	18.405380
1491.000000	18.401094
1492.000000	18.415363
1493.000000	18.418836
1494.000000	18.429376
1495.000000	18.439496
1496.000000	18.431494
1497.000000	18.440066
1498.000000	18.459473
1499.000000	18.468363
1500.000000	18.499261
1501.000000	18.534054
1502.000000	18.567051
1503.000000	18.595924
1504.000000	18.621551
1505.000000	18.654481
1506.000000	18.686226
1507.000000	18.738692
1508.000000	18.776117
1509.000000	18.823803
1510.000000	18.862087
1511.000000	18.899878
1512.000000	18.957688
1513.000000	18.997904
1514.000000	19.032184
1515.000000	19.065647
1516.000000	19.085869
1517.000000	19.129702
1518.000000	19.179233
1519.000000	19.213942
1520.000000	19.267190
1521.000000	19.301446
1522.000000	19.340150
1523.000000	19.379769
1524.000000	19.395315
1525.000000	19.425193
1526.000000	19.465872
1527.000000	19.504259
1528.000000	19.550329
1529.000000	19.584351
1530.000000	19.598939
1531.000000	19.631971
1532.000000	19.658549
1533.000000	19.679185
1534.000000	19.706783
1535.000000	19.751977
1536.000000	19.783801
1537.000000	19.794749
1538.000000	19.839195
1539.000000	19.870477
1540.000000	19.884504
1541.000000	19.917046
1542.000000	19.941515
1543.000000	19.963025
1544.000000	19.991211
1545.000000	20.032262
1546.000000	20.073603
1547.000000	20.105137
1548.000000	20.134623
1549.000000	20.169708
1550.000000	20.216634
1551.000000	20.253236
1552.000000	20.270540
1553.000000	20.298199
1554.000000	20.331717
1555.000000	20.338787
1556.000000	20.363510
1557.000000	20.381454
1558.000000	20.394078
1559.000000	20.409893
1560.000000	20.413445
1561.000000	20.431918
1562.000000	20.417507
1563.000000	20.404606
1564.000000	20.408268
1565.000000	20.412374
1566.000000	20.411065
1567.000000	20.395739
1568.000000	20.377640
1569.000000	20.390232
1570.000000	20.392332
1571.000000	20.367909
1572.000000	20.386258
1573.000000	20.374805
1574.000000	20.379193
1575.000000	20.380959
1576.000000	20.393314
1577.000000	20.408309
1578.000000	20.411290
1579.000000	20.424765
1580.000000	20.417284
1581.000000	20.421188
1582.000000	20.476775
1583.000000	20.509440
1584.000000	20.527134
1585.000000	20.557362
1586.000000	20.575182
1587.000000	20.590930
1588.000000	20.590225
1589.000000	20.630213
1590.000000	20.660593
1591.000000	20.701808
1592.000000	20.743114
1593.000000	20.760211
1594.000000	20.810590
1595.000000	20.851027
1596.000000	20.890632
1597.000000	20.929662
1598.000000	20.935684
1599.000000	20.969416
1600.000000	21.029622
1601.000000	21.069050
1602.000000	21.117201
1603.000000	21.161265
1604.000000	21.202781
1605.000000	21.227155
1606.000000	21.276055
1607.000000	21.317640
1608.000000	21.360008
1609.000000	21.383999
1610.000000	21.417177
1611.000000	21.449627
1612.000000	21.487503
1613.000000	21.497817
1614.000000	21.534407
1615.000000	21.557931
1616.000000	21.611410
1617.000000	21.641451
1618.000000	21.668773
1619.000000	21.713686
1620.000000	21.720673
1621.000000	21.748660
1622.000000	21.735618
1623.000000	21.762451
1624.000000	21.782053
1625.000000	21.843569
1626.000000	21.837439
1627.000000	21.892473
1628.000000	21.908836
1629.000000	21.931492
1630.000000	21.935268
1631.000000	21.971658
1632.000000	21.972147
1633.000000	22.010502
1634.000000	21.993568
1635.000000	22.017357
1636.000000	22.033344
1637.000000	22.011368
1638.000000	22.058799
1639.000000	22.084666
1640.000000	22.081101
1641.000000	22.118361
1642.000000	22.090252
1643.000000	22.111847
1644.000000	22.089604
1645.000000	22.125872
1646.000000	22.109547
1647.000000	22.089102
1648.000000	22.061448
1649.000000	22.090917
1650.000000	22.058265
1651.000000	22.039581
1652.000000	22.036473
1653.000000	22.002723
1654.000000	21.982571
1655.000000	21.937080
1656.000000	21.892601
1657.000000	21.867730
1658.000000	21.776459
1659.000000	21.741998
1660.000000	21.652226
1661.000000	21.614159
1662.000000	21.588174
1663.000000	21.508149
1664.000000	21.402884
1665.000000	21.297209
1666.000000	21.222561
1667.000000	21.141549
1668.000000	21.120355
1669.000000	20.994366
1670.000000	20.894043
1671.000000	20.787710
1672.000000	20.690943
1673.000000	20.545253
1674.000000	20.444420
1675.000000	20.350753
1676.000000	20.218601
1677.000000	20.117178
1678.000000	20.005284
1679.000000	19.840017
1680.000000	19.780059
1681.000000	19.724419
1682.000000	19.615924
1683.000000	19.549758
1684.000000	19.436470
1685.000000	19.400199
1686.000000	19.393492
1687.000000	19.310961
1688.000000	19.289802
1689.000000	19.264140
1690.000000	19.236927
1691.000000	19.263313
1692.000000	19.238514
1693.000000	19.224165
1694.000000	19.252645
1695.000000	19.252817
1696.000000	19.258613
1697.000000	19.279299
1698.000000	19.282357
1699.000000	19.319714
1700.000000	19.277132
1701.000000	19.290351
1702.000000	19.236742
1703.000000	19.197585
1704.000000	19.179650
1705.000000	19.117844
1706.000000	19.074596
1707.000000	18.978270
1708.000000	18.920630
1709.000000	18.831214
1710.000000	18.698901
1711.000000	18.624705
1712.000000	18.551505
1713.000000	18.457911
1714.000000	18.394678
1715.000000	18.280558
1716.000000	18.166540
1717.000000	18.076443
1718.000000	18.050395
1719.000000	17.955722
1720.000000	17.915269
1721.000000	17.897900
1722.000000	17.820011
1723.000000	17.757505
1724.000000	17.757044
1725.000000	17.745564
1726.000000	17.757212
1727.000000	17.754882
1728.000000	17.807517
1729.000000	17.846429
1730.000000	17.845397
1731.000000	17.845447
1732.000000	17.879606
1733.000000	17.971714
1734.000000	18.047596
1735.000000	18.124595
1736.000000	18.183284
1737.000000	18.201999
1738.000000	18.242439
1739.000000	18.295529
1740.000000	18.364829
1741.000000	18.448734
1742.000000	18.481198
1743.000000	18.546965
1744.000000	18.623827
1745.000000	18.638196
1746.000000	18.694546
1747.000000	18.702545
1748.000000	18.753805
1749.000000	18.763080
1750.000000	18.783372
1751.000000	18.815113
1752.000000	18.841490
1753.000000	18.859887
1754.000000	18.899412
1755.000000	18.911257
1756.000000	18.876424
1757.000000	18.903594
1758.000000	18.939775
1759.000000	18.951099
1760.000000	18.938099
1761.000000	18.942019
1762.000000	18.984266
1763.000000	19.000138
1764.000000	19.037203
1765.000000	19.058275
1766.000000	19.057724
1767.000000	19.076599
1768.000000	19.114248
1769.000000	19.162324
1770.000000	19.201750
1771.000000	19.246423
1772.000000	19.288530
1773.000000	19.320423
1774.000000	19.330500
1775.000000	19.356231
1776.000000	19.359366
1777.000000	19.381214
1778.000000	19.411599
1779.000000	19.406703
1780.000000	19.454659
1781.000000	19.471655
1782.000000	19.461641
1783.000000	19.500248
1784.000000	19.501394
1785.000000	19.504637
1786.000000	19.525112
1787.000000	19.548858
1788.000000	19.573514
1789.000000	19.539327
1790.000000	19.553090
1791.000000	19.594804
1792.000000	19.600949
1793.000000	19.596311
1794.000000	19.596043
1795.000000	19.641931
1796.000000	19.659054
1797.000000	19.656150
1798.000000	19.683841
1799.000000	19.682089
1800.000000	19.688403
1801.000000	19.691195
1802.000000	19.687378
1803.000000	19.733326
1804.000000	19.779844
1805.000000	19.784399
1806.000000	19.771150
1807.000000	19.801320
1808.000000	19.842984
1809.000000	19.869724
1810.000000	19.866268
1811.000000	19.864553
1812.000000	19.883889
1813.000000	19.918728
1814.000000	19.914499
1815.000000	19.907464
1816.000000	19.938926
1817.000000	19.966481
1818.000000	20.017873
1819.000000	20.054269
1820.000000	20.013527
1821.000000	19.963335
1822.000000	19.982933
1823.000000	20.033488
1824.000000	20.087949
1825.000000	20.078262
1826.000000	20.088548
1827.000000	20.073852
1828.000000	20.094545
1829.000000	20.121533
1830.000000	20.138402
1831.000000	20.149503
1832.000000	20.189025
1833.000000	20.296441
1834.000000	20.394677
1835.000000	20.412543
1836.000000	20.322711
1837.000000	20.309413
1838.000000	20.333998
1839.000000	20.370251
1840.000000	20.377115
1841.000000	20.381172
1842.000000	20.414938
1843.000000	20.514363
1844.000000	20.662913
1845.000000	20.697371
1846.000000	20.639804
1847.000000	20.538496
1848.000000	20.524454
1849.000000	20.545818
1850.000000	20.548493
1851.000000	20.595292
1852.000000	20.591247
1853.000000	20.563248
1854.000000	20.526403
1855.000000	20.520452
1856.000000	20.531197
1857.000000	20.513540
1858.000000	20.494651
1859.000000	20.495313
1860.000000	20.431590
1861.000000	20.463565
1862.000000	20.445954
1863.000000	20.415859
1864.000000	20.461016
1865.000000	20.459917
1866.000000	20.433058
1867.000000	20.311298
1868.000000	20.314970
1869.000000	20.131323
1870.000000	20.069885
1871.000000	19.908190
1872.000000	19.752950
1873.000000	19.585618
1874.000000	19.407511
1875.000000	19.323532
1876.000000	19.152116
1877.000000	19.033454
1878.000000	18.903615
1879.000000	18.780490
1880.000000	18.648834
1881.000000	18.475726
1882.000000	18.242342
1883.000000	18.093012
1884.000000	17.863997
1885.000000	17.688572
1886.000000	17.438861
1887.000000	17.230399
1888.000000	16.942212
1889.000000	16.725490
1890.000000	16.516371
1891.000000	16.212553
1892.000000	15.964161
1893.000000	15.700940
1894.000000	15.466382
1895.000000	15.329462
1896.000000	15.093483
1897.000000	14.844742
1898.000000	14.510534
1899.000000	14.273015
1900.000000	14.099775
1901.000000	13.754277
1902.000000	13.606540
1903.000000	13.331058
1904.000000	13.061893
1905.000000	12.838062
1906.000000	12.547763
1907.000000	12.365066
1908.000000	12.142442
1909.000000	12.080182
1910.000000	11.998637
1911.000000	11.793242
1912.000000	11.659324
1913.000000	11.467842
1914.000000	11.408099
1915.000000	11.286034
1916.000000	11.075472
1917.000000	11.070790
1918.000000	10.963268
1919.000000	10.943225
1920.000000	10.752223
1921.000000	10.671107
1922.000000	10.604090
1923.000000	10.526137
1924.000000	10.517704
1925.000000	10.443365
1926.000000	10.380017
1927.000000	10.323062
1928.000000	10.206760
1929.000000	10.230325
1930.000000	10.221668
1931.000000	10.149975
1932.000000	10.163236
1933.000000	10.075426
1934.000000	10.200986
1935.000000	10.116385
1936.000000	10.168677
1937.000000	10.145533
1938.000000	10.011050
1939.000000	10.125775
1940.000000	10.141467
1941.000000	10.225247
1942.000000	10.123706
1943.000000	10.203865
1944.000000	10.243121
1945.000000	10.157432
1946.000000	10.297936
1947.000000	10.274662
1948.000000	10.266596
1949.000000	10.346084
1950.000000	10.362401
1951.000000	10.421007
1952.000000	10.504665
1953.000000	10.661127
1954.000000	10.587481
1955.000000	10.570332
1956.000000	10.761868
1957.000000	10.852764
1958.000000	10.913973
1959.000000	10.831209
1960.000000	10.888747
1961.000000	11.024757
1962.000000	10.992372
1963.000000	11.035841
1964.000000	11.056573
1965.000000	11.200384
1966.000000	11.213151
1967.000000	11.228386
1968.000000	11.275336
1969.000000	11.445812
1970.000000	11.455995
1971.000000	11.437847
1972.000000	11.457384
1973.000000	11.590903
1974.000000	11.674985
1975.000000	11.661088
1976.000000	11.770888
1977.000000	11.752031
1978.000000	11.829014
1979.000000	11.907589
1980.000000	12.025064
1981.000000	12.001207
1982.000000	12.004079
1983.000000	12.144566
1984.000000	12.186916
1985.000000	12.176718
1986.000000	12.202850
1987.000000	12.312380
1988.000000	12.325917
1989.000000	12.389655
1990.000000	12.432472
1991.000000	12.598539
1992.000000	12.526743
1993.000000	12.569325
1994.000000	12.681166
1995.000000	12.682437
1996.000000	12.704219
1997.000000	12.729706
1998.000000	12.799866
1999.000000	12.824387
2000.000000	12.871443
2001.000000	12.902132
2002.000000	12.923143
2003.000000	12.895534
2004.000000	13.039673
2005.000000	12.909535
2006.000000	12.876915
2007.000000	13.001851
2008.000000	13.016467
2009.000000	13.018308
2010.000000	12.965395
2011.000000	12.972067
2012.000000	13.045675
2013.000000	13.027188
2014.000000	12.933429
2015.000000	12.891769
2016.000000	12.848592
2017.000000	12.844452
2018.000000	12.863054
2019.000000	12.956210
2020.000000	12.825900
2021.000000	12.767747
2022.000000	12.780967
2023.000000	12.664016
2024.000000	12.605128
2025.000000	12.596406
2026.000000	12.490883
2027.000000	12.428310
2028.000000	12.465144
2029.000000	12.340928
2030.000000	12.312708
2031.000000	12.272157
2032.000000	12.209065
2033.000000	12.174469
2034.000000	12.081072
2035.000000	11.971110
2036.000000	12.008320
2037.000000	11.914471
2038.000000	11.890324
2039.000000	11.818967
2040.000000	11.823277
2041.000000	11.704244
2042.000000	11.497554
2043.000000	11.400096
2044.000000	11.347667
2045.000000	11.355074
2046.000000	11.282654
2047.000000	11.121165
2048.000000	11.214151
2049.000000	11.147944
2050.000000	10.931327
2051.000000	10.897597
2052.000000	11.019776
2053.000000	11.076866
2054.000000	11.064297
2055.000000	11.038779
2056.000000	11.074555
2057.000000	11.163588
2058.000000	11.149352
2059.000000	11.166564
2060.000000	11.353952
2061.000000	11.445010
2062.000000	11.474856
2063.000000	11.420265
2064.000000	11.335566
2065.000000	11.490874
2066.000000	11.700195
2067.000000	11.767169
2068.000000	11.854287
2069.000000	11.903298
2070.000000	11.875320
2071.000000	11.958730
2072.000000	12.085404
2073.000000	12.269334
2074.000000	12.364500
2075.000000	12.366658
2076.000000	12.465560
2077.000000	12.515722
2078.000000	12.607403
2079.000000	12.667057
2080.000000	12.771308
2081.000000	12.768384
2082.000000	12.596793
2083.000000	12.705109
2084.000000	12.820102
2085.000000	12.816459
2086.000000	12.813304
2087.000000	12.764942
2088.000000	12.905623
2089.000000	12.930204
2090.000000	12.753721
2091.000000	12.782252
2092.000000	12.984447
2093.000000	12.904166
2094.000000	12.879141
2095.000000	13.108410
2096.000000	13.065841
2097.000000	13.147533
2098.000000	13.027665
2099.000000	12.971670
2100.000000	13.026273
2101.000000	13.024462
2102.000000	13.103709
2103.000000	13.221714
2104.000000	13.004195
2105.000000	12.768192
2106.000000	13.013329
2107.000000	13.123799
2108.000000	13.158482
2109.000000	12.973339
2110.000000	13.172645
2111.000000	13.257897
2112.000000	13.151035
2113.000000	13.157045
2114.000000	13.297170
2115.000000	13.359217
2116.000000	13.373026
2117.000000	13.510859
2118.000000	13.439745
2119.000000	13.700352
2120.000000	13.582051
2121.000000	13.631146
2122.000000	13.346498
2123.000000	13.422576
2124.000000	13.351201
2125.000000	13.379124
2126.000000	13.350686
2127.000000	13.268892
2128.000000	13.322260
2129.000000	13.402564
2130.000000	13.307569
2131.000000	13.443930
2132.000000	13.775813
2133.000000	13.513112
2134.000000	13.337502
2135.000000	13.330772
2136.000000	12.875045
2137.000000	13.073664
2138.000000	13.066712
2139.000000	12.877741
2140.000000	12.919387
2141.000000	12.744556
2142.000000	12.641221
2143.000000	12.634848
2144.000000	12.493186
2145.000000	12.927339
2146.000000	12.381756
2147.000000	12.415778
2148.000000	12.461615
2149.000000	12.348814
2150.000000	12.346884
2151.000000	12.343528
2152.000000	12.462900
2153.000000	12.207333
2154.000000	12.093121
2155.000000	12.258890
2156.000000	12.237351
2157.000000	12.286666
2158.000000	11.791145
2159.000000	11.792074
2160.000000	11.840016
2161.000000	12.140223
2162.000000	11.991552
2163.000000	11.824965
2164.000000	11.698192
2165.000000	11.695627
2166.000000	11.731991
2167.000000	11.573017
2168.000000	11.684198
2169.000000	11.565074
2170.000000	11.245144
2171.000000	11.754991
2172.000000	11.392243
2173.000000	11.231647
2174.000000	11.769990
2175.000000	11.679178
2176.000000	11.733804
2177.000000	11.577543
2178.000000	11.732474
2179.000000	11.227742
2180.000000	11.869725
2181.000000	11.691859
2182.000000	11.315496
2183.000000	11.686524
2184.000000	11.519840
2185.000000	11.861885
2186.000000	11.215494
2187.000000	11.301956
2188.000000	11.381896
2189.000000	11.272140
2190.000000	11.774396
2191.000000	11.494183
2192.000000	11.616384
2193.000000	11.486351
2194.000000	11.954495
2195.000000	11.955843
2196.000000	11.734973
2197.000000	12.168525
2198.000000	11.855083
2199.000000	12.133988
2200.000000	12.013604
2201.000000	12.423665
2202.000000	12.067580
2203.000000	11.957316
2204.000000	12.385009
2205.000000	12.368785
2206.000000	12.546461
2207.000000	12.425885
2208.000000	12.349478
2209.000000	12.296636
2210.000000	12.235825
2211.000000	12.653626
2212.000000	12.369890
2213.000000	12.504768
2214.000000	12.833650
2215.000000	12.692574
2216.000000	12.683475
2217.000000	12.667696
2218.000000	12.922449
2219.000000	12.750081
2220.000000	12.599836
2221.000000	13.026423
2222.000000	13.023783
2223.000000	13.002955
2224.000000	12.972079
2225.000000	13.078203
2226.000000	13.219172
2227.000000	13.024804
2228.000000	13.050244
2229.000000	13.350220
2230.000000	13.428204
2231.000000	13.381858
2232.000000	13.009252
2233.000000	13.097462
2234.000000	13.405767
2235.000000	12.896574
2236.000000	12.924525
2237.000000	13.022756
2238.000000	13.253033
2239.000000	13.116065
2240.000000	12.956644
2241.000000	13.303231
2242.000000	12.993255
2243.000000	13.085554
2244.000000	12.666481
2245.000000	12.628623
2246.000000	13.141584
2247.000000	12.959824
2248.000000	12.676712
2249.000000	12.745272
2250.000000	12.493826
2251.000000	12.544980
2252.000000	12.348521
2253.000000	11.718139
2254.000000	11.941234
2255.000000	12.154665
2256.000000	12.092025
2257.000000	11.807509
2258.000000	11.713437
2259.000000	11.551591
2260.000000	11.681309
2261.000000	11.714975
2262.000000	11.709693
2263.000000	11.700437
2264.000000	11.722887
2265.000000	11.447221
2266.000000	11.530963
2267.000000	11.643739
2268.000000	11.506432
2269.000000	11.423712
2270.000000	11.569473
2271.000000	11.599759
2272.000000	10.926245
2273.000000	11.220723
2274.000000	11.362974
2275.000000	11.644261
2276.000000	11.633697
2277.000000	11.860716
2278.000000	11.422556
2279.000000	11.537799
2280.000000	11.673393
2281.000000	11.916624
2282.000000	11.721370
2283.000000	11.595907
2284.000000	11.835163
2285.000000	11.510478
2286.000000	11.638393
2287.000000	11.589874
2288.000000	11.508532
2289.000000	11.623393
2290.000000	11.665914
2291.000000	11.969957
2292.000000	11.681350
2293.000000	11.322926
2294.000000	11.432697
2295.000000	11.674852
2296.000000	11.735519
2297.000000	11.717860
2298.000000	11.606401
2299.000000	11.579288
2300.000000	11.715245
2301.000000	11.613495
2302.000000	11.495003
2303.000000	11.454574
2304.000000	11.493780
2305.000000	11.902976
2306.000000	11.950617
2307.000000	12.078603
2308.000000	12.158893
2309.000000	12.202723
2310.000000	12.078069
2311.000000	11.880119
2312.000000	11.797482
2313.000000	12.177911
2314.000000	12.385024
2315.000000	12.148440
2316.000000	11.896730
2317.000000	12.108514
2318.000000	12.421407
2319.000000	12.665017
2320.000000	12.629763
2321.000000	12.625262
2322.000000	12.818282
2323.000000	12.849171
2324.000000	12.677124
2325.000000	12.432707
2326.000000	12.343220
2327.000000	12.673900
2328.000000	12.609519
2329.000000	12.573505
2330.000000	12.880795
2331.000000	13.057514
2332.000000	12.832534
2333.000000	12.683666
2334.000000	12.598908
2335.000000	12.356456
2336.000000	12.701274
2337.000000	12.938728
2338.000000	12.983052
2339.000000	13.092408
2340.000000	13.346860
2341.000000	13.140216
2342.000000	13.017955
2343.000000	13.290962
2344.000000	13.397004
2345.000000	13.483846
2346.000000	13.700140
2347.000000	13.861928
2348.000000	13.343219
2349.000000	13.393937
2350.000000	13.470490
2351.000000	13.132701
2352.000000	13.247726
2353.000000	13.640204
2354.000000	13.919280
2355.000000	13.782823
2356.000000	13.902099
2357.000000	13.769062
2358.000000	13.812332
2359.000000	13.894760
2360.000000	14.014429
2361.000000	13.889805
2362.000000	13.671730
2363.000000	13.938922
2364.000000	13.784467
2365.000000	14.157861
2366.000000	13.966219
2367.000000	14.257185
2368.000000	14.237330
2369.000000	14.055731
2370.000000	14.044875
2371.000000	13.966069
2372.000000	14.051058
2373.000000	14.236129
2374.000000	14.633905
2375.000000	15.033864
2376.000000	15.103361
2377.000000	15.051393
2378.000000	15.066842
2379.000000	15.052706
2380.000000	15.468617
2381.000000	14.316100
2382.000000	13.831918
2383.000000	14.381078
2384.000000	14.872578
2385.000000	14.774981
2386.000000	14.427156
2387.000000	14.546524
2388.000000	15.071714
2389.000000	15.395041
2390.000000	15.020143
2391.000000	15.256666
2392.000000	15.550530
2393.000000	14.938941
2394.000000	14.625984
2395.000000	15.185174
2396.000000	15.191760
2397.000000	15.499507
2398.000000	15.351727
2399.000000	15.093442
2400.000000	14.715876
2401.000000	14.868179
2402.000000	15.060880
2403.000000	14.935216
2404.000000	14.987511
2405.000000	15.290245
2406.000000	15.377757
2407.000000	15.801269
2408.000000	15.954219
2409.000000	15.644018
2410.000000	15.902012
2411.000000	15.802949
2412.000000	16.536304
2413.000000	15.859317
2414.000000	15.597916
2415.000000	15.989090
2416.000000	16.505378
2417.000000	15.785794
2418.000000	15.750044
2419.000000	15.567936
2420.000000	15.801708
2421.000000	15.920309
2422.000000	15.863179
2423.000000	16.440200
2424.000000	15.379997
2425.000000	15.197173
2426.000000	15.765278
2427.000000	16.574798
2428.000000	16.292723
2429.000000	16.443766
2430.000000	16.152927
2431.000000	16.595097
2432.000000	17.236202
2433.000000	16.347814
2434.000000	16.851005
2435.000000	15.897745
2436.000000	16.497226
2437.000000	16.900995
2438.000000	16.262742
2439.000000	16.957173
2440.000000	17.789492
2441.000000	17.185549
2442.000000	17.217834
2443.000000	16.463807
2444.000000	16.962691
2445.000000	16.382380
2446.000000	16.757361
2447.000000	17.436215
2448.000000	18.841347
2449.000000	18.967496
2450.000000	19.348627
2451.000000	17.796618
2452.000000	17.582145
2453.000000	17.176525
2454.000000	17.708352
2455.000000	17.850021
2456.000000	18.936053
2457.000000	17.349978
2458.000000	18.050620
2459.000000	19.272580
2460.000000	18.730939
2461.000000	18.714039
2462.000000	18.670706
2463.000000	19.225751
2464.000000	20.402773
2465.000000	20.091806
2466.000000	20.357136
2467.000000	21.804842
2468.000000	19.137499
2469.000000	21.723570
2470.000000	21.448413
2471.000000	23.425988
2472.000000	22.488362
2473.000000	22.287559
2474.000000	21.574420
2475.000000	22.177384
2476.000000	24.110095
2477.000000	23.489676
2478.000000	21.962940
2479.000000	22.822839
2480.000000	23.418335
2481.000000	25.817074
2482.000000	27.776573
2483.000000	26.336190
2484.000000	26.938930
2485.000000	26.117663
2486.000000	26.881167
2487.000000	27.489020
2488.000000	28.955747
2489.000000	28.467492
2490.000000	27.746523
2491.000000	29.890727
2492.000000	26.745803
2493.000000	32.331025
2494.000000	30.274660
2495.000000	30.774640
2496.000000	31.749031
2497.000000	33.761368
2498.000000	30.095045
2499.000000	30.693889
2500.000000	32.282292
2501.000000	nan
2502.000000	nan
2503.000000	nan
2504.000000	nan
2505.000000	nan
2506.000000	nan
2507.000000	nan
2508.000000	nan
2509.000000	nan
2510.000000	nan
2511.000000	nan
2512.000000	nan
2513.000000	nan
2514.000000	nan
2515.000000	nan
2516.000000	nan
2517.000000	nan
2518.000000	nan
2519.000000	nan
2520.000000	nan
2521.000000	nan
2522.000000	nan
2523.000000	nan
2524.000000	nan
2525.000000	nan
2526.000000	nan
2527.000000	nan
2528.000000	nan
2529.000000	nan
2530.000000	nan
2531.000000	nan
2532.000000	nan
2533.000000	nan
2534.000000	nan
2535.000000	nan
2536.000000	nan
2537.000000	nan
2538.000000	nan
2539.000000	nan
2540.000000	nan
2541.000000	nan
2542.000000	nan
2543.000000	nan
2544.000000	nan
2545.000000	nan
2546.000000	nan
2547.000000	nan
2548.000000	nan
2549.000000	nan
2550.000000	nan
2551.000000	nan
2552.000000	nan
2553.000000	nan
2554.000000	nan
2555.000000	nan
2556.000000	nan
2557.000000	nan
2558.000000	nan
2559.000000	nan
2560.000000	nan
2561.000000	nan
2562.000000	nan
2563.000000	nan
2564.000000	nan
2565.000000	nan
2566.000000	nan
2567.000000	nan
2568.000000	nan
2569.000000	nan
2570.000000	nan
2571.000000	nan
2572.000000	nan
2573.000000	nan
2574.000000	nan
2575.000000	nan
2576.000000	nan
2577.000000	nan
2578.000000	nan
2579.000000	nan
2580.000000	nan
2581.000000	nan
2582.000000	nan
2583.000000	nan
2584.000000	nan
2585.000000	nan
2586.000000	nan
2587.000000	nan
2588.000000	nan
2589.000000	nan
2590.000000	nan
2591.000000	nan
2592.000000	nan
2593.000000	nan
2594.000000	nan
2595.000000	nan
2596.000000	nan
2597.000000	nan
2598.000000	nan
2599.000000	nan
2600.000000	nan
2601.000000	nan
2602.000000	nan
2603.000000	nan
2604.000000	nan
2605.000000	nan
2606.000000	nan
2607.000000	nan
2608.000000	nan
2609.000000	nan
2610.000000	nan
2611.000000	nan
2612.000000	nan
2613.000000	nan
2614.000000	nan
2615.000000	nan
2616.000000	nan
2617.000000	nan
2618.000000	nan
2619.000000	nan
2620.000000	nan
2621.000000	nan
2622.000000	nan
2623.000000	nan
2624.000000	nan
2625.000000	nan
2626.000000	nan
2627.000000	nan
2628.000000	nan
2629.000000	nan
2630.000000	nan
2631.000000	nan
2632.000000	nan
2633.000000	nan
2634.000000	nan
2635.000000	nan
2636.000000	nan
2637.000000	nan
2638.000000	nan
2639.000000	nan
2640.000000	nan
2641.000000	nan
2642.000000	nan
2643.000000	nan
2644.000000	nan
2645.000000	nan
2646.000000	nan
2647.000000	nan
2648.000000	nan
2649.000000	nan
2650.000000	nan
2651.000000	nan
2652.000000	nan
2653.000000	nan
2654.000000	nan
2655.000000	nan
2656.000000	nan
2657.000000	nan
2658.000000	nan
2659.000000	nan
2660.000000	nan
2661.000000	nan
2662.000000	nan
2663.000000	nan
2664.000000	nan
2665.000000	nan
2666.000000	nan
2667.000000	nan
2668.000000	nan
2669.000000	nan
2670.000000	nan
2671.000000	nan
2672.000000	nan
2673.000000	nan
2674.000000	nan
2675.000000	nan
2676.000000	nan
2677.000000	nan
2678.000000	nan
2679.000000	nan
2680.000000	nan
2681.000000	nan
2682.000000	nan
2683.000000	nan
2684.000000	nan
2685.000000	nan
2686.000000	nan
2687.000000	nan
2688.000000	nan
2689.000000	nan
2690.000000	nan
2691.000000	nan
2692.000000	nan
2693.000000	nan
2694.000000	nan
2695.000000	nan
2696.000000	nan
2697.000000	nan
2698.000000	nan
2699.000000	nan
2700.000000	nan
2701.000000	nan
2702.000000	nan
2703.000000	nan
2704.000000	nan
2705.000000	nan
2706.000000	nan
2707.000000	nan
2708.000000	nan
2709.000000	nan
2710.000000	nan
2711.000000	nan
2712.000000	nan
2713.000000	nan
2714.000000	nan
2715.000000	nan
2716.000000	nan
2717.000000	nan
2718.000000	nan
2719.000000	nan
2720.000000	nan
2721.000000	nan
2722.000000	nan
2723.000000	nan
2724.000000	nan
2725.000000	nan
2726.000000	nan
2727.000000	nan
2728.000000	nan
2729.000000	nan
2730.000000	nan
2731.000000	nan
2732.000000	nan
2733.000000	nan
2734.000000	nan
2735.000000	nan
2736.000000	nan
2737.000000	nan
2738.000000	nan
2739.000000	nan
2740.000000	nan
2741.000000	nan
2742.000000	nan
2743.000000	nan
2744.000000	nan
2745.000000	nan
2746.000000	nan
2747.000000	nan
2748.000000	nan
2749.000000	nan
2750.000000	nan
2751.000000	nan
2752.000000	nan
2753.000000	nan
2754.000000	nan
2755.000000	nan
2756.000000	nan
2757.000000	nan
2758.000000	nan
2759.000000	nan
2760.000000	nan
2761.000000	nan
2762.000000	nan
2763.000000	nan
2764.000000	nan
2765.000000	nan
2766.000000	nan
2767.000000	nan
2768.000000	nan
2769.000000	nan
2770.000000	nan
2771.000000	nan
2772.000000	nan
2773.000000	nan
2774.000000	nan
2775.000000	nan
2776.000000	nan
2777.000000	nan
2778.000000	nan
2779.000000	nan
2780.000000	nan
2781.000000	nan
2782.000000	nan
2783.000000	nan
2784.000000	nan
2785.000000	nan
2786.000000	nan
2787.000000	nan
2788.000000	nan
2789.000000	nan
2790.000000	nan
2791.000000	nan
2792.000000	nan
2793.000000	nan
2794.000000	nan
2795.000000	nan
2796.000000	nan
2797.000000	nan
2798.000000	nan
2799.000000	nan
2800.000000	nan
2801.000000	nan
2802.000000	nan
2803.000000	nan
2804.000000	nan
2805.000000	nan
2806.000000	nan
2807.000000	nan
2808.000000	nan
2809.000000	nan
2810.000000	nan
2811.000000	nan
2812.000000	nan
2813.000000	nan
2814.000000	nan
2815.000000	nan
2816.000000	nan
2817.000000	nan
2818.000000	nan
2819.000000	nan
2820.000000	nan
2821.000000	nan
2822.000000	nan
2823.000000	nan
2824.000000	nan
2825.000000	nan
2826.000000	nan
2827.000000	nan
2828.000000	nan
2829.000000	nan
2830.000000	nan
2831.000000	nan
2832.000000	nan
2833.000000	nan
2834.000000	nan
2835.000000	nan
2836.000000	nan
2837.000000	nan
2838.000000	nan
2839.000000	nan
2840.000000	nan
2841.000000	nan
2842.000000	nan
2843.000000	nan
2844.000000	nan
2845.000000	nan
2846.000000	nan
2847.000000	nan
2848.000000	nan
2849.000000	nan
2850.000000	nan
2851.000000	nan
2852.000000	nan
2853.000000	nan
2854.000000	nan
2855.000000	nan
2856.000000	nan
2857.000000	nan
2858.000000	nan
2859.000000	nan
2860.000000	nan
2861.000000	nan
2862.000000	nan
2863.000000	nan
2864.000000	nan
2865.000000	nan
2866.000000	nan
2867.000000	nan
2868.000000	nan
2869.000000	nan
2870.000000	nan
2871.000000	nan
2872.000000	nan
2873.000000	nan
2874.000000	nan
2875.000000	nan
2876.000000	nan
2877.000000	nan
2878.000000	nan
2879.000000	nan
2880.000000	nan
2881.000000	nan
2882.000000	nan
2883.000000	nan
2884.000000	nan
2885.000000	nan
2886.000000	nan
2887.000000	nan
2888.000000	nan
2889.000000	nan
2890.000000	nan
2891.000000	nan
2892.000000	nan
2893.000000	nan
2894.000000	nan
2895.000000	nan
2896.000000	nan
2897.000000	nan
2898.000000	nan
2899.000000	nan
2900.000000	nan
2901.000000	nan
2902.000000	nan
2903.000000	nan
2904.000000	nan
2905.000000	nan
2906.000000	nan
2907.000000	nan
2908.000000	nan
2909.000000	nan
2910.000000	nan
2911.000000	nan
2912.000000	nan
2913.000000	nan
2914.000000	nan
2915.000000	nan
2916.000000	nan
2917.000000	nan
2918.000000	nan
2919.000000	nan
2920.000000	nan
2921.000000	nan
2922.000000	nan
2923.000000	nan
2924.000000	nan
2925.000000	nan
2926.000000	nan
2927.000000	nan
2928.000000	nan
2929.000000	nan
2930.000000	nan
2931.000000	nan
2932.000000	nan
2933.000000	nan
2934.000000	nan
2935.000000	nan
2936.000000	nan
2937.000000	nan
2938.000000	nan
2939.000000	nan
2940.000000	nan
2941.000000	nan
2942.000000	nan
2943.000000	nan
2944.000000	nan
2945.000000	nan
2946.000000	nan
2947.000000	nan
2948.000000	nan
2949.000000	nan
2950.000000	nan
2951.000000	nan
2952.000000	nan
2953.000000	nan
2954.000000	nan
2955.000000	nan
2956.000000	nan
2957.000000	nan
2958.000000	nan
2959.000000	nan
2960.000000	nan
2961.000000	nan
2962.000000	nan
2963.000000	nan
2964.000000	nan
2965.000000	nan
2966.000000	nan
2967.000000	nan
2968.000000	nan
2969.000000	nan
2970.000000	nan
2971.000000	nan
2972.000000	nan
2973.000000	nan
2974.000000	nan
2975.000000	nan
2976.000000	nan
2977.000000	nan
2978.000000	nan
2979.000000	nan
2980.000000	nan
2981.000000	nan
2982.000000	nan
2983.000000	nan
2984.000000	nan
2985.000000	nan
2986.000000	nan
2987.000000	nan
2988.000000	nan
2989.000000	nan
2990.000000	nan
2991.000000	nan
2992.000000	nan
2993.000000	nan
2994.000000	nan
2995.000000	nan
2996.000000	nan
2997.000000	nan
2998.000000	nan
2999.000000	nan
3000.000000	nan
