PE UV       SUBTECH     SPECTRUM    ASCII       PEDS        4.00        
   -1
INBUCR0226-4.Sample.ASC
24/02/08
11:26:34.00
24/02/08
11:26:34.00
Vinicio Soto Monge
Parace ser C. aurigans. Dorado
250,000000
1
Lambda 1050
1050L1511233
PerkinElmer UV WinLab 6.3.2.0749 / 2.02.05 Lambda 900 UV/VIS/NIR, Aug  7 2015 09:38:08

0
0
3350/servo 860,8/2
0
0
UV/VIS
1
1
1
DoubleDePol,CommonBeamDepol,RBeamAtt,SBeamAtt,60mm sphere, WB InGaAs Detector
0
0
0
0
Program
Program
3350/servo 860,8/2
3350/0,2 860,8/0,2
3350/0,2 860,8/0,2
0
15.00
 
 
 
0
 
860,8
319,2
860,8
Front
100
on
S:100 R:100
0
0
0
0
 
0
 
 
 
0
 
 
0
0
0
0
0
 
 
 
 
0
0


0
0
#HDR
-1
-1
#GR
nm
%R
1.0
0.0
2500,000000
-1,000000
2251
8
16,068400
1,228800
#DATA

250.000000	2.736047
251.000000	2.745634
252.000000	2.747850
253.000000	2.728448
254.000000	2.712793
255.000000	2.698076
256.000000	2.708265
257.000000	2.698328
258.000000	2.702099
259.000000	2.693849
260.000000	2.667530
261.000000	2.660761
262.000000	2.656383
263.000000	2.632611
264.000000	2.633052
265.000000	2.606015
266.000000	2.648648
267.000000	2.608831
268.000000	2.603028
269.000000	2.596222
270.000000	2.574581
271.000000	2.582475
272.000000	2.591912
273.000000	2.579596
274.000000	2.566684
275.000000	2.563277
276.000000	2.575163
277.000000	2.554806
278.000000	2.552912
279.000000	2.539136
280.000000	2.559395
281.000000	2.548779
282.000000	2.550767
283.000000	2.536968
284.000000	2.546073
285.000000	2.537587
286.000000	2.555919
287.000000	2.546032
288.000000	2.549512
289.000000	2.557494
290.000000	2.561681
291.000000	2.531401
292.000000	2.535904
293.000000	2.517845
294.000000	2.530241
295.000000	2.529219
296.000000	2.553575
297.000000	2.529374
298.000000	2.527238
299.000000	2.543673
300.000000	2.537469
301.000000	2.543926
302.000000	2.505924
303.000000	2.541855
304.000000	2.505526
305.000000	2.510691
306.000000	2.495610
307.000000	2.533474
308.000000	2.500725
309.000000	2.526952
310.000000	2.519456
311.000000	2.491902
312.000000	2.496262
313.000000	2.482404
314.000000	2.507191
315.000000	2.501269
316.000000	2.542538
317.000000	2.585185
318.000000	2.686844
319.000000	2.691567
320.000000	2.589705
321.000000	2.631302
322.000000	2.543798
323.000000	2.611400
324.000000	2.611348
325.000000	2.552183
326.000000	2.501536
327.000000	2.589401
328.000000	2.616601
329.000000	2.579012
330.000000	2.624288
331.000000	2.547504
332.000000	2.525619
333.000000	2.584501
334.000000	2.617871
335.000000	2.567600
336.000000	2.580466
337.000000	2.591545
338.000000	2.540244
339.000000	2.535355
340.000000	2.557519
341.000000	2.579365
342.000000	2.552895
343.000000	2.583299
344.000000	2.598773
345.000000	2.615572
346.000000	2.572836
347.000000	2.586098
348.000000	2.584223
349.000000	2.600334
350.000000	2.592081
351.000000	2.568273
352.000000	2.582086
353.000000	2.592206
354.000000	2.594034
355.000000	2.621221
356.000000	2.613537
357.000000	2.622710
358.000000	2.616998
359.000000	2.609438
360.000000	2.632039
361.000000	2.639046
362.000000	2.635043
363.000000	2.621963
364.000000	2.667362
365.000000	2.669302
366.000000	2.663444
367.000000	2.649141
368.000000	2.662304
369.000000	2.675701
370.000000	2.662830
371.000000	2.662238
372.000000	2.651077
373.000000	2.642904
374.000000	2.666894
375.000000	2.701142
376.000000	2.768746
377.000000	2.765408
378.000000	2.769006
379.000000	2.775829
380.000000	2.777740
381.000000	2.777679
382.000000	2.779652
383.000000	2.787905
384.000000	2.791263
385.000000	2.794273
386.000000	2.794603
387.000000	2.797717
388.000000	2.799671
389.000000	2.804287
390.000000	2.810654
391.000000	2.819001
392.000000	2.821681
393.000000	2.822881
394.000000	2.826546
395.000000	2.827512
396.000000	2.830527
397.000000	2.832066
398.000000	2.837994
399.000000	2.844884
400.000000	2.847427
401.000000	2.847684
402.000000	2.851534
403.000000	2.862968
404.000000	2.870847
405.000000	2.880325
406.000000	2.883588
407.000000	2.886134
408.000000	2.890838
409.000000	2.893781
410.000000	2.900869
411.000000	2.904046
412.000000	2.910133
413.000000	2.922285
414.000000	2.927337
415.000000	2.930376
416.000000	2.937217
417.000000	2.944219
418.000000	2.949701
419.000000	2.956077
420.000000	2.963676
421.000000	2.970538
422.000000	2.981479
423.000000	2.986289
424.000000	2.990806
425.000000	3.000719
426.000000	3.011748
427.000000	3.019284
428.000000	3.027099
429.000000	3.036939
430.000000	3.043294
431.000000	3.051304
432.000000	3.059073
433.000000	3.064215
434.000000	3.076447
435.000000	3.085233
436.000000	3.091188
437.000000	3.102281
438.000000	3.115344
439.000000	3.125513
440.000000	3.134177
441.000000	3.144611
442.000000	3.155677
443.000000	3.165900
444.000000	3.178506
445.000000	3.185521
446.000000	3.192646
447.000000	3.205386
448.000000	3.220939
449.000000	3.231541
450.000000	3.242124
451.000000	3.259096
452.000000	3.272804
453.000000	3.279684
454.000000	3.292902
455.000000	3.308400
456.000000	3.323406
457.000000	3.337918
458.000000	3.350594
459.000000	3.365788
460.000000	3.385136
461.000000	3.398306
462.000000	3.413077
463.000000	3.428909
464.000000	3.447652
465.000000	3.464941
466.000000	3.481336
467.000000	3.497409
468.000000	3.517008
469.000000	3.537682
470.000000	3.558231
471.000000	3.579492
472.000000	3.600688
473.000000	3.624058
474.000000	3.649444
475.000000	3.673418
476.000000	3.695191
477.000000	3.722900
478.000000	3.753605
479.000000	3.783525
480.000000	3.817847
481.000000	3.853387
482.000000	3.891467
483.000000	3.929103
484.000000	3.965022
485.000000	4.003911
486.000000	4.047541
487.000000	4.088257
488.000000	4.131749
489.000000	4.181792
490.000000	4.242468
491.000000	4.301974
492.000000	4.366628
493.000000	4.441102
494.000000	4.527021
495.000000	4.624047
496.000000	4.728852
497.000000	4.842725
498.000000	4.978228
499.000000	5.129875
500.000000	5.292267
501.000000	5.477497
502.000000	5.680876
503.000000	5.906415
504.000000	6.150608
505.000000	6.409859
506.000000	6.699081
507.000000	7.016303
508.000000	7.356939
509.000000	7.742665
510.000000	8.175925
511.000000	8.666794
512.000000	9.220109
513.000000	9.852398
514.000000	10.567338
515.000000	11.361932
516.000000	12.234511
517.000000	13.164319
518.000000	14.127976
519.000000	15.098035
520.000000	16.030499
521.000000	16.889677
522.000000	17.629517
523.000000	18.245450
524.000000	18.727940
525.000000	19.081036
526.000000	19.327666
527.000000	19.498002
528.000000	19.626660
529.000000	19.728191
530.000000	19.808933
531.000000	19.884556
532.000000	19.956115
533.000000	20.033838
534.000000	20.115512
535.000000	20.194545
536.000000	20.276611
537.000000	20.352507
538.000000	20.411755
539.000000	20.475314
540.000000	20.527188
541.000000	20.582227
542.000000	20.635698
543.000000	20.699535
544.000000	20.768708
545.000000	20.820331
546.000000	20.891964
547.000000	20.948059
548.000000	21.007965
549.000000	21.035680
550.000000	21.077252
551.000000	21.105530
552.000000	21.149210
553.000000	21.169102
554.000000	21.199960
555.000000	21.223495
556.000000	21.267479
557.000000	21.296199
558.000000	21.317771
559.000000	21.344572
560.000000	21.525234
561.000000	21.585725
562.000000	21.631766
563.000000	21.675774
564.000000	21.726479
565.000000	21.755278
566.000000	21.788818
567.000000	21.806498
568.000000	21.818349
569.000000	21.823204
570.000000	21.833688
571.000000	21.827300
572.000000	21.816826
573.000000	21.787576
574.000000	21.767353
575.000000	21.735888
576.000000	21.704031
577.000000	21.657270
578.000000	21.616264
579.000000	21.583887
580.000000	21.565065
581.000000	21.543277
582.000000	21.562847
583.000000	21.578894
584.000000	21.646027
585.000000	21.676937
586.000000	21.725379
587.000000	21.743249
588.000000	21.721815
589.000000	21.680137
590.000000	21.603763
591.000000	21.521726
592.000000	21.447853
593.000000	21.397188
594.000000	21.374238
595.000000	21.373190
596.000000	21.400854
597.000000	21.480501
598.000000	21.555996
599.000000	21.632096
600.000000	21.696504
601.000000	21.686183
602.000000	21.639625
603.000000	21.514338
604.000000	21.368307
605.000000	21.202023
606.000000	21.063944
607.000000	20.971374
608.000000	20.928822
609.000000	20.953959
610.000000	21.015006
611.000000	21.122916
612.000000	21.239937
613.000000	21.368689
614.000000	21.433857
615.000000	21.420477
616.000000	21.325945
617.000000	21.148193
618.000000	20.963161
619.000000	20.790315
620.000000	20.649518
621.000000	20.568926
622.000000	20.547997
623.000000	20.621910
624.000000	20.736641
625.000000	20.890046
626.000000	21.066734
627.000000	21.201340
628.000000	21.288930
629.000000	21.261031
630.000000	21.131316
631.000000	20.918461
632.000000	20.669911
633.000000	20.444093
634.000000	20.274778
635.000000	20.191774
636.000000	20.192843
637.000000	20.269082
638.000000	20.426688
639.000000	20.622407
640.000000	20.845865
641.000000	21.044675
642.000000	21.145669
643.000000	21.143931
644.000000	21.014740
645.000000	20.799120
646.000000	20.564950
647.000000	20.350039
648.000000	20.193282
649.000000	20.121870
650.000000	20.167811
651.000000	20.305063
652.000000	20.518716
653.000000	20.746464
654.000000	21.021977
655.000000	21.232093
656.000000	21.372744
657.000000	21.421143
658.000000	21.333920
659.000000	21.173921
660.000000	20.957964
661.000000	20.747746
662.000000	20.596120
663.000000	20.545498
664.000000	20.586226
665.000000	20.705425
666.000000	20.878702
667.000000	21.099436
668.000000	21.328098
669.000000	21.545153
670.000000	21.706970
671.000000	21.781713
672.000000	21.723910
673.000000	21.566029
674.000000	21.369908
675.000000	21.168362
676.000000	21.002488
677.000000	20.920490
678.000000	20.909650
679.000000	20.958754
680.000000	21.085728
681.000000	21.253650
682.000000	21.437458
683.000000	21.635283
684.000000	21.766404
685.000000	21.839957
686.000000	21.840437
687.000000	21.755410
688.000000	21.579796
689.000000	21.392440
690.000000	21.248932
691.000000	21.143034
692.000000	21.104291
693.000000	21.144072
694.000000	21.236019
695.000000	21.363082
696.000000	21.527316
697.000000	21.686549
698.000000	21.832258
699.000000	21.973143
700.000000	22.032018
701.000000	22.021281
702.000000	21.946408
703.000000	21.845706
704.000000	21.745642
705.000000	21.662275
706.000000	21.627366
707.000000	21.655136
708.000000	21.731259
709.000000	21.843427
710.000000	21.989511
711.000000	22.160553
712.000000	22.327290
713.000000	22.474638
714.000000	22.587376
715.000000	22.653157
716.000000	22.680973
717.000000	22.690110
718.000000	22.644421
719.000000	22.589710
720.000000	22.584968
721.000000	22.616007
722.000000	22.654692
723.000000	22.713545
724.000000	22.802626
725.000000	22.912672
726.000000	23.051881
727.000000	23.193909
728.000000	23.318344
729.000000	23.422628
730.000000	23.536437
731.000000	23.623544
732.000000	23.642725
733.000000	23.651408
734.000000	23.670784
735.000000	23.695235
736.000000	23.708232
737.000000	23.709655
738.000000	23.761754
739.000000	23.820869
740.000000	23.872283
741.000000	23.964563
742.000000	24.050139
743.000000	24.139554
744.000000	24.267850
745.000000	24.370404
746.000000	24.475009
747.000000	24.550441
748.000000	24.615724
749.000000	24.697360
750.000000	24.735564
751.000000	24.746072
752.000000	24.753575
753.000000	24.781236
754.000000	24.815060
755.000000	24.813467
756.000000	24.857353
757.000000	24.909237
758.000000	25.007737
759.000000	25.109896
760.000000	25.239710
761.000000	25.372323
762.000000	25.482928
763.000000	25.556978
764.000000	25.644998
765.000000	25.728541
766.000000	25.785620
767.000000	25.818828
768.000000	25.865788
769.000000	25.898734
770.000000	25.925955
771.000000	25.942142
772.000000	25.984254
773.000000	26.079784
774.000000	26.169860
775.000000	26.259052
776.000000	26.354836
777.000000	26.490491
778.000000	26.615556
779.000000	26.738978
780.000000	26.848739
781.000000	26.961393
782.000000	27.043020
783.000000	27.097388
784.000000	27.063879
785.000000	27.109724
786.000000	27.154646
787.000000	27.203055
788.000000	27.228707
789.000000	27.298967
790.000000	27.337990
791.000000	27.462831
792.000000	27.594587
793.000000	27.749746
794.000000	27.903721
795.000000	28.048285
796.000000	28.138020
797.000000	28.220810
798.000000	28.269387
799.000000	28.310282
800.000000	28.314999
801.000000	28.343592
802.000000	28.355458
803.000000	28.386585
804.000000	28.352824
805.000000	28.483179
806.000000	28.549689
807.000000	28.689382
808.000000	28.731596
809.000000	28.822556
810.000000	28.983348
811.000000	29.175991
812.000000	29.271272
813.000000	29.396350
814.000000	29.411309
815.000000	29.342725
816.000000	29.427545
817.000000	29.475112
818.000000	29.459334
819.000000	29.433433
820.000000	29.388445
821.000000	29.514535
822.000000	29.555445
823.000000	29.687625
824.000000	29.741772
825.000000	29.862620
826.000000	30.025285
827.000000	30.120551
828.000000	30.213078
829.000000	30.337482
830.000000	30.409269
831.000000	30.423203
832.000000	30.447802
833.000000	30.439800
834.000000	30.344465
835.000000	30.411989
836.000000	30.430583
837.000000	30.509597
838.000000	30.435504
839.000000	30.550162
840.000000	30.586772
841.000000	30.572129
842.000000	30.764794
843.000000	30.856026
844.000000	30.975960
845.000000	31.049136
846.000000	31.096455
847.000000	31.219492
848.000000	31.199093
849.000000	31.279219
850.000000	31.069585
851.000000	31.111201
852.000000	31.164529
853.000000	31.111949
854.000000	31.214598
855.000000	31.076471
856.000000	31.358884
857.000000	31.362525
858.000000	32.360942
859.000000	31.758263
860.000000	32.121883
861.000000	32.031731
862.000000	31.916243
863.000000	31.919153
864.000000	31.648937
865.000000	31.523693
866.000000	31.865801
867.000000	31.719017
868.000000	31.531709
869.000000	32.036631
870.000000	31.572161
871.000000	31.839024
872.000000	31.843191
873.000000	31.865537
874.000000	31.662377
875.000000	31.789720
876.000000	31.879075
877.000000	31.658442
878.000000	31.625830
879.000000	31.660475
880.000000	31.771870
881.000000	31.764497
882.000000	31.754099
883.000000	31.718416
884.000000	31.617270
885.000000	31.675723
886.000000	31.583331
887.000000	31.776072
888.000000	31.642456
889.000000	31.593142
890.000000	31.564983
891.000000	31.720290
892.000000	31.631444
893.000000	31.653895
894.000000	31.524917
895.000000	31.584204
896.000000	31.551462
897.000000	31.567886
898.000000	31.683746
899.000000	31.597715
900.000000	31.511804
901.000000	31.597115
902.000000	31.631416
903.000000	31.551345
904.000000	31.462878
905.000000	31.437851
906.000000	31.418478
907.000000	31.390759
908.000000	31.429808
909.000000	31.408777
910.000000	31.342602
911.000000	31.416080
912.000000	31.470454
913.000000	31.450508
914.000000	31.438851
915.000000	31.445988
916.000000	31.412337
917.000000	31.382655
918.000000	31.349508
919.000000	31.282383
920.000000	31.334963
921.000000	31.338491
922.000000	31.247745
923.000000	31.220697
924.000000	31.249021
925.000000	31.272026
926.000000	31.236321
927.000000	31.208849
928.000000	31.180306
929.000000	31.192761
930.000000	31.171266
931.000000	31.197933
932.000000	31.209946
933.000000	31.206437
934.000000	31.133867
935.000000	31.121343
936.000000	31.090854
937.000000	31.110084
938.000000	31.102113
939.000000	31.063333
940.000000	31.015431
941.000000	30.995787
942.000000	30.942828
943.000000	30.948107
944.000000	30.929626
945.000000	30.921160
946.000000	30.919169
947.000000	30.915135
948.000000	30.899273
949.000000	30.878107
950.000000	30.844185
951.000000	30.821938
952.000000	30.847958
953.000000	30.847769
954.000000	30.824357
955.000000	30.831098
956.000000	30.814441
957.000000	30.774259
958.000000	30.736811
959.000000	30.733371
960.000000	30.700135
961.000000	30.691937
962.000000	30.664898
963.000000	30.626186
964.000000	30.605863
965.000000	30.595404
966.000000	30.585488
967.000000	30.577726
968.000000	30.556014
969.000000	30.567860
970.000000	30.557573
971.000000	30.536116
972.000000	30.511189
973.000000	30.502477
974.000000	30.478938
975.000000	30.447857
976.000000	30.424373
977.000000	30.416401
978.000000	30.391228
979.000000	30.363414
980.000000	30.343321
981.000000	30.337546
982.000000	30.329357
983.000000	30.293303
984.000000	30.274389
985.000000	30.260286
986.000000	30.250339
987.000000	30.232935
988.000000	30.229710
989.000000	30.230449
990.000000	30.209785
991.000000	30.201963
992.000000	30.195300
993.000000	30.191040
994.000000	30.182018
995.000000	30.148712
996.000000	30.123989
997.000000	30.119833
998.000000	30.106233
999.000000	30.090335
1000.000000	30.085992
1001.000000	30.056328
1002.000000	30.030106
1003.000000	30.018589
1004.000000	30.017081
1005.000000	30.009630
1006.000000	30.006115
1007.000000	29.999974
1008.000000	29.986381
1009.000000	29.996552
1010.000000	29.990964
1011.000000	29.958478
1012.000000	29.958692
1013.000000	29.967716
1014.000000	29.953480
1015.000000	29.946221
1016.000000	29.942119
1017.000000	29.942077
1018.000000	29.932206
1019.000000	29.926156
1020.000000	29.921572
1021.000000	29.930006
1022.000000	29.931375
1023.000000	29.922047
1024.000000	29.917572
1025.000000	29.929299
1026.000000	29.939128
1027.000000	29.931414
1028.000000	29.935949
1029.000000	29.953462
1030.000000	29.946085
1031.000000	29.941009
1032.000000	29.943415
1033.000000	29.939351
1034.000000	29.941718
1035.000000	29.962953
1036.000000	29.963990
1037.000000	29.962353
1038.000000	29.971655
1039.000000	29.983634
1040.000000	29.981667
1041.000000	29.971711
1042.000000	29.992401
1043.000000	29.993660
1044.000000	29.993149
1045.000000	29.991052
1046.000000	30.008592
1047.000000	30.011834
1048.000000	30.012911
1049.000000	30.006973
1050.000000	30.021899
1051.000000	30.043278
1052.000000	30.034301
1053.000000	30.038645
1054.000000	30.061963
1055.000000	30.066371
1056.000000	30.080563
1057.000000	30.099849
1058.000000	30.090136
1059.000000	30.096450
1060.000000	30.123626
1061.000000	30.140418
1062.000000	30.135936
1063.000000	30.150775
1064.000000	30.133668
1065.000000	30.130425
1066.000000	30.154908
1067.000000	30.171246
1068.000000	30.169854
1069.000000	30.177245
1070.000000	30.195042
1071.000000	30.191559
1072.000000	30.205659
1073.000000	30.220280
1074.000000	30.218967
1075.000000	30.228657
1076.000000	30.236284
1077.000000	30.250527
1078.000000	30.244036
1079.000000	30.270719
1080.000000	30.284309
1081.000000	30.285444
1082.000000	30.287013
1083.000000	30.281539
1084.000000	30.303083
1085.000000	30.309742
1086.000000	30.322100
1087.000000	30.327154
1088.000000	30.340540
1089.000000	30.326751
1090.000000	30.334838
1091.000000	30.337053
1092.000000	30.353794
1093.000000	30.357319
1094.000000	30.360533
1095.000000	30.352248
1096.000000	30.351064
1097.000000	30.371419
1098.000000	30.394813
1099.000000	30.385113
1100.000000	30.389719
1101.000000	30.404202
1102.000000	30.398814
1103.000000	30.400959
1104.000000	30.417584
1105.000000	30.423359
1106.000000	30.411896
1107.000000	30.416365
1108.000000	30.413064
1109.000000	30.428178
1110.000000	30.430435
1111.000000	30.430113
1112.000000	30.429751
1113.000000	30.426228
1114.000000	30.425981
1115.000000	30.406141
1116.000000	30.403801
1117.000000	30.387330
1118.000000	30.379777
1119.000000	30.361060
1120.000000	30.346615
1121.000000	30.322545
1122.000000	30.304343
1123.000000	30.293710
1124.000000	30.258327
1125.000000	30.223369
1126.000000	30.199202
1127.000000	30.176491
1128.000000	30.122407
1129.000000	30.087638
1130.000000	30.058539
1131.000000	30.043989
1132.000000	30.029336
1133.000000	29.977380
1134.000000	29.925610
1135.000000	29.879547
1136.000000	29.855338
1137.000000	29.815296
1138.000000	29.776052
1139.000000	29.747806
1140.000000	29.700518
1141.000000	29.667086
1142.000000	29.640704
1143.000000	29.589006
1144.000000	29.565166
1145.000000	29.531185
1146.000000	29.479174
1147.000000	29.438180
1148.000000	29.397920
1149.000000	29.375513
1150.000000	29.317488
1151.000000	29.266835
1152.000000	29.217225
1153.000000	29.175990
1154.000000	29.110640
1155.000000	29.065457
1156.000000	28.998588
1157.000000	28.956135
1158.000000	28.897262
1159.000000	28.828342
1160.000000	28.768734
1161.000000	28.728085
1162.000000	28.687297
1163.000000	28.629171
1164.000000	28.575056
1165.000000	28.509600
1166.000000	28.467488
1167.000000	28.410422
1168.000000	28.367425
1169.000000	28.331972
1170.000000	28.287288
1171.000000	28.243814
1172.000000	28.206062
1173.000000	28.155273
1174.000000	28.113045
1175.000000	28.082512
1176.000000	28.065153
1177.000000	28.044411
1178.000000	28.029030
1179.000000	28.005432
1180.000000	27.985886
1181.000000	27.968798
1182.000000	27.954013
1183.000000	27.955773
1184.000000	27.946909
1185.000000	27.950199
1186.000000	27.965980
1187.000000	27.954773
1188.000000	27.972387
1189.000000	27.996147
1190.000000	28.012814
1191.000000	28.028646
1192.000000	28.062634
1193.000000	28.085934
1194.000000	28.102908
1195.000000	28.137767
1196.000000	28.173350
1197.000000	28.203983
1198.000000	28.222092
1199.000000	28.251625
1200.000000	28.267406
1201.000000	28.296740
1202.000000	28.326090
1203.000000	28.342177
1204.000000	28.361565
1205.000000	28.388824
1206.000000	28.396070
1207.000000	28.415157
1208.000000	28.437587
1209.000000	28.453330
1210.000000	28.477966
1211.000000	28.475496
1212.000000	28.497785
1213.000000	28.517429
1214.000000	28.532924
1215.000000	28.553337
1216.000000	28.563595
1217.000000	28.571584
1218.000000	28.588667
1219.000000	28.622099
1220.000000	28.646139
1221.000000	28.653548
1222.000000	28.671100
1223.000000	28.690762
1224.000000	28.714038
1225.000000	28.734770
1226.000000	28.746619
1227.000000	28.770319
1228.000000	28.780736
1229.000000	28.801066
1230.000000	28.814545
1231.000000	28.834584
1232.000000	28.859726
1233.000000	28.883553
1234.000000	28.889266
1235.000000	28.915654
1236.000000	28.935095
1237.000000	28.951351
1238.000000	28.979003
1239.000000	29.000339
1240.000000	28.998004
1241.000000	29.015757
1242.000000	29.030382
1243.000000	29.051295
1244.000000	29.070739
1245.000000	29.077775
1246.000000	29.091026
1247.000000	29.097010
1248.000000	29.112562
1249.000000	29.125307
1250.000000	29.140026
1251.000000	29.144831
1252.000000	29.147018
1253.000000	29.163118
1254.000000	29.170034
1255.000000	29.179457
1256.000000	29.176932
1257.000000	29.178395
1258.000000	29.187761
1259.000000	29.194610
1260.000000	29.198686
1261.000000	29.196913
1262.000000	29.204953
1263.000000	29.213949
1264.000000	29.210966
1265.000000	29.211726
1266.000000	29.222697
1267.000000	29.224154
1268.000000	29.225685
1269.000000	29.235763
1270.000000	29.241490
1271.000000	29.247813
1272.000000	29.252616
1273.000000	29.256610
1274.000000	29.268147
1275.000000	29.284616
1276.000000	29.289669
1277.000000	29.294601
1278.000000	29.306958
1279.000000	29.307590
1280.000000	29.323589
1281.000000	29.344181
1282.000000	29.340348
1283.000000	29.345028
1284.000000	29.357384
1285.000000	29.370169
1286.000000	29.378693
1287.000000	29.390169
1288.000000	29.402203
1289.000000	29.401121
1290.000000	29.406158
1291.000000	29.416477
1292.000000	29.427841
1293.000000	29.428738
1294.000000	29.421276
1295.000000	29.421912
1296.000000	29.424559
1297.000000	29.419430
1298.000000	29.423804
1299.000000	29.435611
1300.000000	29.431801
1301.000000	29.420297
1302.000000	29.416492
1303.000000	29.407936
1304.000000	29.398182
1305.000000	29.389053
1306.000000	29.381635
1307.000000	29.377622
1308.000000	29.376780
1309.000000	29.368082
1310.000000	29.355032
1311.000000	29.343408
1312.000000	29.332393
1313.000000	29.313138
1314.000000	29.294462
1315.000000	29.290318
1316.000000	29.270577
1317.000000	29.258720
1318.000000	29.243275
1319.000000	29.217475
1320.000000	29.196414
1321.000000	29.176019
1322.000000	29.145181
1323.000000	29.110036
1324.000000	29.076398
1325.000000	29.043287
1326.000000	29.012393
1327.000000	28.969403
1328.000000	28.929097
1329.000000	28.884688
1330.000000	28.838113
1331.000000	28.781434
1332.000000	28.735330
1333.000000	28.684144
1334.000000	28.623866
1335.000000	28.563093
1336.000000	28.513710
1337.000000	28.451283
1338.000000	28.386087
1339.000000	28.323419
1340.000000	28.258763
1341.000000	28.195917
1342.000000	28.129190
1343.000000	28.069494
1344.000000	27.997895
1345.000000	27.934804
1346.000000	27.880940
1347.000000	27.797214
1348.000000	27.725218
1349.000000	27.681362
1350.000000	27.610084
1351.000000	27.543977
1352.000000	27.491205
1353.000000	27.425448
1354.000000	27.339151
1355.000000	27.269444
1356.000000	27.200352
1357.000000	27.145040
1358.000000	27.098008
1359.000000	27.058620
1360.000000	26.971609
1361.000000	26.853009
1362.000000	26.780780
1363.000000	26.728751
1364.000000	26.662573
1365.000000	26.604118
1366.000000	26.573043
1367.000000	26.503277
1368.000000	26.439756
1369.000000	26.389424
1370.000000	26.319255
1371.000000	26.246642
1372.000000	26.173652
1373.000000	26.108573
1374.000000	26.041056
1375.000000	25.963592
1376.000000	25.895201
1377.000000	25.818647
1378.000000	25.770281
1379.000000	25.685978
1380.000000	25.618020
1381.000000	25.451176
1382.000000	25.328875
1383.000000	25.202062
1384.000000	25.103415
1385.000000	25.007627
1386.000000	24.893684
1387.000000	24.745269
1388.000000	24.591728
1389.000000	24.478321
1390.000000	24.377109
1391.000000	24.236125
1392.000000	24.085117
1393.000000	23.960790
1394.000000	23.816530
1395.000000	23.613842
1396.000000	23.445772
1397.000000	23.321199
1398.000000	23.209639
1399.000000	23.047785
1400.000000	22.822183
1401.000000	22.645786
1402.000000	22.508816
1403.000000	22.349578
1404.000000	22.177680
1405.000000	21.995023
1406.000000	21.831552
1407.000000	21.660990
1408.000000	21.463899
1409.000000	21.283769
1410.000000	21.118082
1411.000000	20.964727
1412.000000	20.825126
1413.000000	20.653223
1414.000000	20.465324
1415.000000	20.316806
1416.000000	20.184015
1417.000000	20.057766
1418.000000	19.893775
1419.000000	19.761633
1420.000000	19.639928
1421.000000	19.535145
1422.000000	19.423556
1423.000000	19.289003
1424.000000	19.174230
1425.000000	19.072963
1426.000000	18.989116
1427.000000	18.885410
1428.000000	18.786787
1429.000000	18.696685
1430.000000	18.622000
1431.000000	18.528565
1432.000000	18.450588
1433.000000	18.383416
1434.000000	18.297670
1435.000000	18.242835
1436.000000	18.153817
1437.000000	18.081655
1438.000000	18.027421
1439.000000	17.968469
1440.000000	17.910027
1441.000000	17.850466
1442.000000	17.792129
1443.000000	17.746160
1444.000000	17.670334
1445.000000	17.610330
1446.000000	17.548972
1447.000000	17.516220
1448.000000	17.470642
1449.000000	17.410580
1450.000000	17.350275
1451.000000	17.288524
1452.000000	17.241781
1453.000000	17.201394
1454.000000	17.131816
1455.000000	17.096592
1456.000000	17.047290
1457.000000	16.998369
1458.000000	16.946676
1459.000000	16.896730
1460.000000	16.837505
1461.000000	16.792737
1462.000000	16.741812
1463.000000	16.703875
1464.000000	16.658513
1465.000000	16.605943
1466.000000	16.547819
1467.000000	16.512173
1468.000000	16.471871
1469.000000	16.426020
1470.000000	16.383709
1471.000000	16.349131
1472.000000	16.315716
1473.000000	16.265971
1474.000000	16.235718
1475.000000	16.206790
1476.000000	16.172699
1477.000000	16.139595
1478.000000	16.114294
1479.000000	16.088508
1480.000000	16.066152
1481.000000	16.050054
1482.000000	16.032830
1483.000000	16.015022
1484.000000	15.995590
1485.000000	15.988423
1486.000000	15.975118
1487.000000	15.962780
1488.000000	15.965990
1489.000000	15.972218
1490.000000	15.960059
1491.000000	15.959466
1492.000000	15.968223
1493.000000	15.971758
1494.000000	15.984815
1495.000000	15.996479
1496.000000	16.004324
1497.000000	16.022906
1498.000000	16.039535
1499.000000	16.062692
1500.000000	16.086396
1501.000000	16.122355
1502.000000	16.156375
1503.000000	16.181226
1504.000000	16.220254
1505.000000	16.250412
1506.000000	16.286661
1507.000000	16.325131
1508.000000	16.368567
1509.000000	16.412016
1510.000000	16.453214
1511.000000	16.492264
1512.000000	16.538404
1513.000000	16.577444
1514.000000	16.619490
1515.000000	16.660642
1516.000000	16.703709
1517.000000	16.744516
1518.000000	16.779054
1519.000000	16.822528
1520.000000	16.860318
1521.000000	16.898812
1522.000000	16.947266
1523.000000	16.983323
1524.000000	17.012384
1525.000000	17.041154
1526.000000	17.075030
1527.000000	17.111113
1528.000000	17.147555
1529.000000	17.182774
1530.000000	17.209972
1531.000000	17.243971
1532.000000	17.271676
1533.000000	17.304853
1534.000000	17.331898
1535.000000	17.356173
1536.000000	17.388650
1537.000000	17.408648
1538.000000	17.437792
1539.000000	17.471714
1540.000000	17.496547
1541.000000	17.522090
1542.000000	17.564054
1543.000000	17.594835
1544.000000	17.611473
1545.000000	17.632950
1546.000000	17.664359
1547.000000	17.702777
1548.000000	17.740384
1549.000000	17.767284
1550.000000	17.785198
1551.000000	17.817850
1552.000000	17.849724
1553.000000	17.874305
1554.000000	17.895866
1555.000000	17.921066
1556.000000	17.944110
1557.000000	17.955888
1558.000000	17.960213
1559.000000	17.976998
1560.000000	17.992182
1561.000000	17.992712
1562.000000	17.998396
1563.000000	17.999792
1564.000000	17.995320
1565.000000	17.986917
1566.000000	17.988847
1567.000000	17.999208
1568.000000	17.999454
1569.000000	18.000855
1570.000000	17.991622
1571.000000	17.986998
1572.000000	17.984543
1573.000000	17.977033
1574.000000	17.976743
1575.000000	17.984420
1576.000000	17.998454
1577.000000	18.003186
1578.000000	18.010892
1579.000000	18.034694
1580.000000	18.046217
1581.000000	18.059054
1582.000000	18.071791
1583.000000	18.083043
1584.000000	18.100050
1585.000000	18.129618
1586.000000	18.147569
1587.000000	18.160607
1588.000000	18.186856
1589.000000	18.229606
1590.000000	18.249106
1591.000000	18.280591
1592.000000	18.319316
1593.000000	18.354033
1594.000000	18.380134
1595.000000	18.412066
1596.000000	18.438861
1597.000000	18.473740
1598.000000	18.521686
1599.000000	18.564001
1600.000000	18.599856
1601.000000	18.637110
1602.000000	18.673859
1603.000000	18.708718
1604.000000	18.753442
1605.000000	18.779719
1606.000000	18.812482
1607.000000	18.864234
1608.000000	18.906826
1609.000000	18.938100
1610.000000	18.966441
1611.000000	18.996198
1612.000000	19.021078
1613.000000	19.057953
1614.000000	19.090034
1615.000000	19.116757
1616.000000	19.148261
1617.000000	19.180642
1618.000000	19.193202
1619.000000	19.223825
1620.000000	19.251641
1621.000000	19.275015
1622.000000	19.297811
1623.000000	19.328630
1624.000000	19.343530
1625.000000	19.359810
1626.000000	19.373689
1627.000000	19.393771
1628.000000	19.422186
1629.000000	19.430591
1630.000000	19.456329
1631.000000	19.471286
1632.000000	19.491276
1633.000000	19.498684
1634.000000	19.520413
1635.000000	19.517873
1636.000000	19.535554
1637.000000	19.553002
1638.000000	19.561141
1639.000000	19.552569
1640.000000	19.550460
1641.000000	19.563574
1642.000000	19.573076
1643.000000	19.566411
1644.000000	19.567015
1645.000000	19.556539
1646.000000	19.558518
1647.000000	19.545725
1648.000000	19.557963
1649.000000	19.507753
1650.000000	19.498336
1651.000000	19.481090
1652.000000	19.454541
1653.000000	19.414863
1654.000000	19.379468
1655.000000	19.351955
1656.000000	19.309094
1657.000000	19.260949
1658.000000	19.200005
1659.000000	19.145086
1660.000000	19.089260
1661.000000	19.028706
1662.000000	18.971706
1663.000000	18.892092
1664.000000	18.825315
1665.000000	18.742157
1666.000000	18.662314
1667.000000	18.566368
1668.000000	18.498507
1669.000000	18.420189
1670.000000	18.330608
1671.000000	18.253554
1672.000000	18.143719
1673.000000	18.044707
1674.000000	17.962025
1675.000000	17.856422
1676.000000	17.804001
1677.000000	17.696673
1678.000000	17.621133
1679.000000	17.540290
1680.000000	17.446895
1681.000000	17.392145
1682.000000	17.302184
1683.000000	17.244856
1684.000000	17.209868
1685.000000	17.153530
1686.000000	17.102222
1687.000000	17.077433
1688.000000	17.063596
1689.000000	17.045862
1690.000000	17.043334
1691.000000	17.061207
1692.000000	17.056804
1693.000000	17.059260
1694.000000	17.072249
1695.000000	17.077217
1696.000000	17.074315
1697.000000	17.076709
1698.000000	17.081418
1699.000000	17.082832
1700.000000	17.076542
1701.000000	17.088158
1702.000000	17.061278
1703.000000	17.027019
1704.000000	17.014377
1705.000000	16.975897
1706.000000	16.901316
1707.000000	16.845302
1708.000000	16.790603
1709.000000	16.734816
1710.000000	16.646088
1711.000000	16.580425
1712.000000	16.494490
1713.000000	16.422588
1714.000000	16.332873
1715.000000	16.264974
1716.000000	16.183447
1717.000000	16.070863
1718.000000	15.979358
1719.000000	15.932812
1720.000000	15.874004
1721.000000	15.811245
1722.000000	15.763069
1723.000000	15.708387
1724.000000	15.676379
1725.000000	15.666290
1726.000000	15.653567
1727.000000	15.656980
1728.000000	15.663294
1729.000000	15.650582
1730.000000	15.683454
1731.000000	15.714030
1732.000000	15.737564
1733.000000	15.769050
1734.000000	15.807655
1735.000000	15.850004
1736.000000	15.910943
1737.000000	15.948500
1738.000000	15.985406
1739.000000	16.035052
1740.000000	16.095969
1741.000000	16.133235
1742.000000	16.179332
1743.000000	16.214735
1744.000000	16.248188
1745.000000	16.281732
1746.000000	16.332873
1747.000000	16.367557
1748.000000	16.383992
1749.000000	16.419850
1750.000000	16.459300
1751.000000	16.461588
1752.000000	16.470231
1753.000000	16.510619
1754.000000	16.513612
1755.000000	16.510517
1756.000000	16.526465
1757.000000	16.549113
1758.000000	16.562225
1759.000000	16.560202
1760.000000	16.561897
1761.000000	16.588840
1762.000000	16.596586
1763.000000	16.597377
1764.000000	16.604739
1765.000000	16.617977
1766.000000	16.631230
1767.000000	16.643127
1768.000000	16.671922
1769.000000	16.695375
1770.000000	16.718453
1771.000000	16.732833
1772.000000	16.733841
1773.000000	16.745701
1774.000000	16.777224
1775.000000	16.795598
1776.000000	16.805905
1777.000000	16.815092
1778.000000	16.830651
1779.000000	16.848424
1780.000000	16.854053
1781.000000	16.861880
1782.000000	16.891718
1783.000000	16.907373
1784.000000	16.903098
1785.000000	16.913332
1786.000000	16.917821
1787.000000	16.916250
1788.000000	16.933136
1789.000000	16.950599
1790.000000	16.969439
1791.000000	16.991307
1792.000000	16.990028
1793.000000	16.995179
1794.000000	17.003707
1795.000000	17.008137
1796.000000	17.032159
1797.000000	17.046561
1798.000000	17.059955
1799.000000	17.075195
1800.000000	17.078857
1801.000000	17.082129
1802.000000	17.099895
1803.000000	17.129906
1804.000000	17.144521
1805.000000	17.153814
1806.000000	17.165458
1807.000000	17.181997
1808.000000	17.221531
1809.000000	17.252455
1810.000000	17.250973
1811.000000	17.235672
1812.000000	17.253463
1813.000000	17.281297
1814.000000	17.290351
1815.000000	17.301410
1816.000000	17.316727
1817.000000	17.358331
1818.000000	17.389480
1819.000000	17.374059
1820.000000	17.328883
1821.000000	17.292921
1822.000000	17.316446
1823.000000	17.387175
1824.000000	17.437567
1825.000000	17.445846
1826.000000	17.438261
1827.000000	17.430952
1828.000000	17.429412
1829.000000	17.442904
1830.000000	17.455439
1831.000000	17.468342
1832.000000	17.523651
1833.000000	17.580830
1834.000000	17.611395
1835.000000	17.609228
1836.000000	17.577044
1837.000000	17.601184
1838.000000	17.626262
1839.000000	17.631839
1840.000000	17.631505
1841.000000	17.597659
1842.000000	17.582580
1843.000000	17.648316
1844.000000	17.741885
1845.000000	17.777794
1846.000000	17.736752
1847.000000	17.657743
1848.000000	17.597278
1849.000000	17.620385
1850.000000	17.667696
1851.000000	17.691234
1852.000000	17.674210
1853.000000	17.660567
1854.000000	17.649240
1855.000000	17.630577
1856.000000	17.661621
1857.000000	17.652041
1858.000000	17.612411
1859.000000	17.554457
1860.000000	17.517674
1861.000000	17.470562
1862.000000	17.452334
1863.000000	17.473420
1864.000000	17.471922
1865.000000	17.430218
1866.000000	17.386758
1867.000000	17.318964
1868.000000	17.237595
1869.000000	17.128500
1870.000000	16.976210
1871.000000	16.819563
1872.000000	16.665412
1873.000000	16.496628
1874.000000	16.346620
1875.000000	16.206064
1876.000000	16.039625
1877.000000	15.895394
1878.000000	15.761238
1879.000000	15.626782
1880.000000	15.447257
1881.000000	15.287224
1882.000000	15.087309
1883.000000	14.922115
1884.000000	14.735728
1885.000000	14.507555
1886.000000	14.336980
1887.000000	14.140886
1888.000000	13.923622
1889.000000	13.702140
1890.000000	13.469192
1891.000000	13.202440
1892.000000	12.950150
1893.000000	12.699466
1894.000000	12.516242
1895.000000	12.277352
1896.000000	12.073792
1897.000000	11.833605
1898.000000	11.529845
1899.000000	11.202963
1900.000000	10.948831
1901.000000	10.705082
1902.000000	10.506232
1903.000000	10.286462
1904.000000	10.025194
1905.000000	9.750440
1906.000000	9.484641
1907.000000	9.358224
1908.000000	9.173276
1909.000000	9.037537
1910.000000	8.879244
1911.000000	8.708660
1912.000000	8.538783
1913.000000	8.377358
1914.000000	8.210746
1915.000000	8.124966
1916.000000	8.043452
1917.000000	7.958388
1918.000000	7.839949
1919.000000	7.753230
1920.000000	7.680524
1921.000000	7.588651
1922.000000	7.522797
1923.000000	7.457937
1924.000000	7.422775
1925.000000	7.380112
1926.000000	7.302036
1927.000000	7.278249
1928.000000	7.237795
1929.000000	7.190542
1930.000000	7.185133
1931.000000	7.145044
1932.000000	7.124023
1933.000000	7.151013
1934.000000	7.130984
1935.000000	7.132876
1936.000000	7.120740
1937.000000	7.120157
1938.000000	7.115070
1939.000000	7.137425
1940.000000	7.141086
1941.000000	7.177805
1942.000000	7.225555
1943.000000	7.216465
1944.000000	7.263270
1945.000000	7.290003
1946.000000	7.284839
1947.000000	7.317829
1948.000000	7.340148
1949.000000	7.369733
1950.000000	7.411711
1951.000000	7.440137
1952.000000	7.502468
1953.000000	7.537986
1954.000000	7.591150
1955.000000	7.595212
1956.000000	7.649869
1957.000000	7.702268
1958.000000	7.738048
1959.000000	7.798419
1960.000000	7.876764
1961.000000	7.864444
1962.000000	7.901794
1963.000000	7.943868
1964.000000	8.005482
1965.000000	8.066767
1966.000000	8.060066
1967.000000	8.101743
1968.000000	8.169224
1969.000000	8.248210
1970.000000	8.263733
1971.000000	8.314251
1972.000000	8.352424
1973.000000	8.386561
1974.000000	8.434513
1975.000000	8.500022
1976.000000	8.594739
1977.000000	8.607711
1978.000000	8.652405
1979.000000	8.679429
1980.000000	8.735295
1981.000000	8.792503
1982.000000	8.850323
1983.000000	8.865752
1984.000000	8.914721
1985.000000	8.975408
1986.000000	9.014028
1987.000000	9.069058
1988.000000	9.102474
1989.000000	9.154461
1990.000000	9.183589
1991.000000	9.254532
1992.000000	9.282595
1993.000000	9.313445
1994.000000	9.341182
1995.000000	9.405371
1996.000000	9.443459
1997.000000	9.458170
1998.000000	9.504407
1999.000000	9.524564
2000.000000	9.569222
2001.000000	9.611122
2002.000000	9.609878
2003.000000	9.607359
2004.000000	9.649311
2005.000000	9.669327
2006.000000	9.648690
2007.000000	9.656767
2008.000000	9.659572
2009.000000	9.667706
2010.000000	9.682745
2011.000000	9.676014
2012.000000	9.689247
2013.000000	9.656705
2014.000000	9.627940
2015.000000	9.606287
2016.000000	9.621258
2017.000000	9.633014
2018.000000	9.593601
2019.000000	9.556234
2020.000000	9.505807
2021.000000	9.466123
2022.000000	9.384105
2023.000000	9.351119
2024.000000	9.360008
2025.000000	9.301582
2026.000000	9.261106
2027.000000	9.221961
2028.000000	9.164591
2029.000000	9.095433
2030.000000	9.074666
2031.000000	8.996909
2032.000000	8.909351
2033.000000	8.841888
2034.000000	8.813451
2035.000000	8.774740
2036.000000	8.637762
2037.000000	8.608777
2038.000000	8.554671
2039.000000	8.476158
2040.000000	8.396611
2041.000000	8.369315
2042.000000	8.336679
2043.000000	8.215974
2044.000000	8.074947
2045.000000	8.062771
2046.000000	8.077016
2047.000000	8.020703
2048.000000	7.988661
2049.000000	7.918004
2050.000000	7.854304
2051.000000	7.835703
2052.000000	7.822731
2053.000000	7.893953
2054.000000	7.894446
2055.000000	7.854555
2056.000000	7.872285
2057.000000	7.869237
2058.000000	7.907480
2059.000000	7.942711
2060.000000	7.980260
2061.000000	8.023008
2062.000000	8.083603
2063.000000	8.155735
2064.000000	8.170313
2065.000000	8.196146
2066.000000	8.327167
2067.000000	8.416035
2068.000000	8.411521
2069.000000	8.498895
2070.000000	8.527966
2071.000000	8.524128
2072.000000	8.585345
2073.000000	8.640646
2074.000000	8.701106
2075.000000	8.730076
2076.000000	8.744171
2077.000000	8.811243
2078.000000	8.860566
2079.000000	8.888542
2080.000000	8.915687
2081.000000	8.965966
2082.000000	8.991682
2083.000000	8.955059
2084.000000	8.949324
2085.000000	8.963538
2086.000000	8.973634
2087.000000	8.970143
2088.000000	8.997698
2089.000000	8.994202
2090.000000	8.987846
2091.000000	9.009661
2092.000000	8.979966
2093.000000	8.976231
2094.000000	9.059528
2095.000000	9.120736
2096.000000	9.133442
2097.000000	9.062884
2098.000000	9.042463
2099.000000	9.013487
2100.000000	8.969086
2101.000000	9.021034
2102.000000	9.055440
2103.000000	9.079167
2104.000000	9.087658
2105.000000	9.126577
2106.000000	9.021101
2107.000000	9.014663
2108.000000	8.988537
2109.000000	9.016291
2110.000000	9.014677
2111.000000	9.003269
2112.000000	9.092070
2113.000000	9.124079
2114.000000	9.111886
2115.000000	9.129229
2116.000000	9.088744
2117.000000	9.005367
2118.000000	9.037343
2119.000000	9.037873
2120.000000	9.006425
2121.000000	9.088884
2122.000000	9.141255
2123.000000	9.125267
2124.000000	8.960904
2125.000000	9.017857
2126.000000	9.200119
2127.000000	9.054601
2128.000000	8.968976
2129.000000	8.857793
2130.000000	8.913759
2131.000000	9.025113
2132.000000	8.959379
2133.000000	8.810101
2134.000000	8.789149
2135.000000	8.991750
2136.000000	8.911350
2137.000000	8.673694
2138.000000	8.678989
2139.000000	8.632148
2140.000000	8.646455
2141.000000	8.715266
2142.000000	8.519807
2143.000000	8.599566
2144.000000	8.549986
2145.000000	8.361973
2146.000000	8.253666
2147.000000	8.232027
2148.000000	8.220293
2149.000000	8.192656
2150.000000	8.316945
2151.000000	8.218321
2152.000000	7.966495
2153.000000	7.843434
2154.000000	7.870416
2155.000000	7.976469
2156.000000	7.941704
2157.000000	7.883536
2158.000000	7.839264
2159.000000	7.701952
2160.000000	7.635766
2161.000000	7.735866
2162.000000	7.714708
2163.000000	7.510436
2164.000000	7.500539
2165.000000	7.486032
2166.000000	7.412892
2167.000000	7.463337
2168.000000	7.442562
2169.000000	7.395504
2170.000000	7.309790
2171.000000	7.307096
2172.000000	7.429055
2173.000000	7.422054
2174.000000	7.530847
2175.000000	7.359949
2176.000000	7.296590
2177.000000	7.348997
2178.000000	7.387392
2179.000000	7.461906
2180.000000	7.520872
2181.000000	7.252912
2182.000000	7.364449
2183.000000	7.322058
2184.000000	7.441125
2185.000000	7.416638
2186.000000	7.414258
2187.000000	7.368834
2188.000000	7.493157
2189.000000	7.430844
2190.000000	7.494830
2191.000000	7.424312
2192.000000	7.402561
2193.000000	7.439344
2194.000000	7.406202
2195.000000	7.536635
2196.000000	7.578018
2197.000000	7.611421
2198.000000	7.588230
2199.000000	7.823659
2200.000000	7.757868
2201.000000	7.539688
2202.000000	7.693246
2203.000000	7.626824
2204.000000	7.694759
2205.000000	7.638493
2206.000000	7.795168
2207.000000	7.826409
2208.000000	7.763735
2209.000000	7.824689
2210.000000	7.780141
2211.000000	7.889257
2212.000000	7.855792
2213.000000	8.061827
2214.000000	7.932873
2215.000000	8.111207
2216.000000	7.989185
2217.000000	8.042798
2218.000000	8.158223
2219.000000	8.096783
2220.000000	8.292718
2221.000000	8.083911
2222.000000	8.134068
2223.000000	8.322507
2224.000000	8.132102
2225.000000	8.291200
2226.000000	8.326330
2227.000000	8.243741
2228.000000	8.096592
2229.000000	8.363378
2230.000000	8.294908
2231.000000	8.299858
2232.000000	8.259891
2233.000000	8.305068
2234.000000	8.489306
2235.000000	8.416579
2236.000000	8.371708
2237.000000	8.393247
2238.000000	8.396506
2239.000000	8.462693
2240.000000	8.324131
2241.000000	8.386748
2242.000000	8.350623
2243.000000	8.232837
2244.000000	8.245330
2245.000000	8.172153
2246.000000	8.117632
2247.000000	8.059923
2248.000000	8.066489
2249.000000	7.981133
2250.000000	8.016361
2251.000000	7.961245
2252.000000	7.811152
2253.000000	7.740197
2254.000000	7.585380
2255.000000	7.599807
2256.000000	7.552132
2257.000000	7.529194
2258.000000	7.595736
2259.000000	7.467384
2260.000000	7.246802
2261.000000	7.318295
2262.000000	7.425912
2263.000000	7.170875
2264.000000	7.160818
2265.000000	7.154939
2266.000000	7.269190
2267.000000	7.219126
2268.000000	7.134406
2269.000000	7.240691
2270.000000	7.075506
2271.000000	7.123312
2272.000000	7.044717
2273.000000	7.121763
2274.000000	7.183530
2275.000000	7.141510
2276.000000	7.161958
2277.000000	7.134660
2278.000000	7.004204
2279.000000	7.060126
2280.000000	6.987031
2281.000000	7.013743
2282.000000	7.056020
2283.000000	6.910362
2284.000000	7.113345
2285.000000	7.291510
2286.000000	7.013076
2287.000000	7.036354
2288.000000	7.092765
2289.000000	7.215714
2290.000000	7.217381
2291.000000	7.121538
2292.000000	7.245477
2293.000000	7.083188
2294.000000	7.037361
2295.000000	7.244525
2296.000000	7.173422
2297.000000	7.111401
2298.000000	7.068639
2299.000000	7.107376
2300.000000	6.985633
2301.000000	7.073885
2302.000000	7.009066
2303.000000	6.960109
2304.000000	7.003196
2305.000000	7.126448
2306.000000	7.273627
2307.000000	7.395614
2308.000000	7.460151
2309.000000	7.435713
2310.000000	7.364947
2311.000000	7.258476
2312.000000	7.325236
2313.000000	7.316175
2314.000000	7.226414
2315.000000	7.136474
2316.000000	7.248189
2317.000000	7.426077
2318.000000	7.506719
2319.000000	7.539828
2320.000000	7.548005
2321.000000	7.540241
2322.000000	7.429244
2323.000000	7.375441
2324.000000	7.273952
2325.000000	7.299357
2326.000000	7.438586
2327.000000	7.487706
2328.000000	7.512037
2329.000000	7.494507
2330.000000	7.639167
2331.000000	7.702591
2332.000000	7.708524
2333.000000	7.676725
2334.000000	7.700864
2335.000000	7.785603
2336.000000	7.583653
2337.000000	7.668653
2338.000000	7.815670
2339.000000	7.639295
2340.000000	7.720239
2341.000000	7.712579
2342.000000	7.746220
2343.000000	7.783784
2344.000000	7.824383
2345.000000	8.009508
2346.000000	7.961385
2347.000000	7.808065
2348.000000	8.105848
2349.000000	8.356147
2350.000000	8.184590
2351.000000	7.970869
2352.000000	8.000832
2353.000000	8.090832
2354.000000	8.014709
2355.000000	8.062040
2356.000000	8.143865
2357.000000	8.159447
2358.000000	8.224813
2359.000000	8.141604
2360.000000	8.389416
2361.000000	8.578864
2362.000000	8.352145
2363.000000	8.376669
2364.000000	8.289592
2365.000000	8.181928
2366.000000	8.159440
2367.000000	8.416444
2368.000000	8.375039
2369.000000	8.282998
2370.000000	8.275664
2371.000000	8.254774
2372.000000	8.568027
2373.000000	8.589423
2374.000000	8.694896
2375.000000	8.721541
2376.000000	8.767723
2377.000000	8.749770
2378.000000	8.658696
2379.000000	8.569332
2380.000000	8.503321
2381.000000	8.472895
2382.000000	8.724098
2383.000000	9.068960
2384.000000	8.757928
2385.000000	8.825772
2386.000000	8.914513
2387.000000	8.552009
2388.000000	8.647777
2389.000000	8.658087
2390.000000	8.865470
2391.000000	8.957680
2392.000000	8.811138
2393.000000	8.598704
2394.000000	8.707481
2395.000000	8.826363
2396.000000	8.639060
2397.000000	8.671891
2398.000000	8.866791
2399.000000	8.611468
2400.000000	8.682774
2401.000000	8.928244
2402.000000	9.190666
2403.000000	9.375654
2404.000000	9.289646
2405.000000	9.382306
2406.000000	9.238874
2407.000000	8.836989
2408.000000	8.815454
2409.000000	9.053858
2410.000000	9.012414
2411.000000	9.003118
2412.000000	9.054494
2413.000000	9.120643
2414.000000	9.024656
2415.000000	9.295983
2416.000000	9.302442
2417.000000	9.150763
2418.000000	9.126045
2419.000000	9.388086
2420.000000	9.497297
2421.000000	9.314337
2422.000000	9.168668
2423.000000	8.881072
2424.000000	9.110557
2425.000000	9.228488
2426.000000	9.106574
2427.000000	9.118543
2428.000000	9.241884
2429.000000	8.953590
2430.000000	9.087850
2431.000000	9.102636
2432.000000	9.280983
2433.000000	9.020890
2434.000000	9.117704
2435.000000	9.090818
2436.000000	9.498198
2437.000000	9.325665
2438.000000	9.355342
2439.000000	9.691611
2440.000000	9.689638
2441.000000	8.857809
2442.000000	9.448992
2443.000000	8.978250
2444.000000	9.544375
2445.000000	9.445452
2446.000000	8.988734
2447.000000	9.757292
2448.000000	9.706024
2449.000000	9.684343
2450.000000	10.012826
2451.000000	10.037374
2452.000000	9.997099
2453.000000	9.621861
2454.000000	9.851283
2455.000000	10.467480
2456.000000	10.079008
2457.000000	9.746230
2458.000000	10.027928
2459.000000	11.270230
2460.000000	11.342489
2461.000000	11.115354
2462.000000	10.316554
2463.000000	11.640288
2464.000000	11.230730
2465.000000	10.532648
2466.000000	12.189473
2467.000000	11.076036
2468.000000	12.005826
2469.000000	12.865832
2470.000000	11.835975
2471.000000	12.396183
2472.000000	13.582636
2473.000000	12.231115
2474.000000	12.902435
2475.000000	13.996616
2476.000000	14.067960
2477.000000	13.997277
2478.000000	14.040847
2479.000000	14.880017
2480.000000	14.901324
2481.000000	16.368834
2482.000000	16.565569
2483.000000	14.875534
2484.000000	16.965146
2485.000000	16.466240
2486.000000	16.001884
2487.000000	17.166904
2488.000000	17.612396
2489.000000	16.870172
2490.000000	18.255926
2491.000000	20.070614
2492.000000	18.909067
2493.000000	19.236339
2494.000000	18.897616
2495.000000	19.920351
2496.000000	21.940499
2497.000000	21.865921
2498.000000	20.272319
2499.000000	21.031960
2500.000000	20.703627
2501.000000	nan
2502.000000	nan
2503.000000	nan
2504.000000	nan
2505.000000	nan
2506.000000	nan
2507.000000	nan
2508.000000	nan
2509.000000	nan
2510.000000	nan
2511.000000	nan
2512.000000	nan
2513.000000	nan
2514.000000	nan
2515.000000	nan
2516.000000	nan
2517.000000	nan
2518.000000	nan
2519.000000	nan
2520.000000	nan
2521.000000	nan
2522.000000	nan
2523.000000	nan
2524.000000	nan
2525.000000	nan
2526.000000	nan
2527.000000	nan
2528.000000	nan
2529.000000	nan
2530.000000	nan
2531.000000	nan
2532.000000	nan
2533.000000	nan
2534.000000	nan
2535.000000	nan
2536.000000	nan
2537.000000	nan
2538.000000	nan
2539.000000	nan
2540.000000	nan
2541.000000	nan
2542.000000	nan
2543.000000	nan
2544.000000	nan
2545.000000	nan
2546.000000	nan
2547.000000	nan
2548.000000	nan
2549.000000	nan
2550.000000	nan
2551.000000	nan
2552.000000	nan
2553.000000	nan
2554.000000	nan
2555.000000	nan
2556.000000	nan
2557.000000	nan
2558.000000	nan
2559.000000	nan
2560.000000	nan
2561.000000	nan
2562.000000	nan
2563.000000	nan
2564.000000	nan
2565.000000	nan
2566.000000	nan
2567.000000	nan
2568.000000	nan
2569.000000	nan
2570.000000	nan
2571.000000	nan
2572.000000	nan
2573.000000	nan
2574.000000	nan
2575.000000	nan
2576.000000	nan
2577.000000	nan
2578.000000	nan
2579.000000	nan
2580.000000	nan
2581.000000	nan
2582.000000	nan
2583.000000	nan
2584.000000	nan
2585.000000	nan
2586.000000	nan
2587.000000	nan
2588.000000	nan
2589.000000	nan
2590.000000	nan
2591.000000	nan
2592.000000	nan
2593.000000	nan
2594.000000	nan
2595.000000	nan
2596.000000	nan
2597.000000	nan
2598.000000	nan
2599.000000	nan
2600.000000	nan
2601.000000	nan
2602.000000	nan
2603.000000	nan
2604.000000	nan
2605.000000	nan
2606.000000	nan
2607.000000	nan
2608.000000	nan
2609.000000	nan
2610.000000	nan
2611.000000	nan
2612.000000	nan
2613.000000	nan
2614.000000	nan
2615.000000	nan
2616.000000	nan
2617.000000	nan
2618.000000	nan
2619.000000	nan
2620.000000	nan
2621.000000	nan
2622.000000	nan
2623.000000	nan
2624.000000	nan
2625.000000	nan
2626.000000	nan
2627.000000	nan
2628.000000	nan
2629.000000	nan
2630.000000	nan
2631.000000	nan
2632.000000	nan
2633.000000	nan
2634.000000	nan
2635.000000	nan
2636.000000	nan
2637.000000	nan
2638.000000	nan
2639.000000	nan
2640.000000	nan
2641.000000	nan
2642.000000	nan
2643.000000	nan
2644.000000	nan
2645.000000	nan
2646.000000	nan
2647.000000	nan
2648.000000	nan
2649.000000	nan
2650.000000	nan
2651.000000	nan
2652.000000	nan
2653.000000	nan
2654.000000	nan
2655.000000	nan
2656.000000	nan
2657.000000	nan
2658.000000	nan
2659.000000	nan
2660.000000	nan
2661.000000	nan
2662.000000	nan
2663.000000	nan
2664.000000	nan
2665.000000	nan
2666.000000	nan
2667.000000	nan
2668.000000	nan
2669.000000	nan
2670.000000	nan
2671.000000	nan
2672.000000	nan
2673.000000	nan
2674.000000	nan
2675.000000	nan
2676.000000	nan
2677.000000	nan
2678.000000	nan
2679.000000	nan
2680.000000	nan
2681.000000	nan
2682.000000	nan
2683.000000	nan
2684.000000	nan
2685.000000	nan
2686.000000	nan
2687.000000	nan
2688.000000	nan
2689.000000	nan
2690.000000	nan
2691.000000	nan
2692.000000	nan
2693.000000	nan
2694.000000	nan
2695.000000	nan
2696.000000	nan
2697.000000	nan
2698.000000	nan
2699.000000	nan
2700.000000	nan
2701.000000	nan
2702.000000	nan
2703.000000	nan
2704.000000	nan
2705.000000	nan
2706.000000	nan
2707.000000	nan
2708.000000	nan
2709.000000	nan
2710.000000	nan
2711.000000	nan
2712.000000	nan
2713.000000	nan
2714.000000	nan
2715.000000	nan
2716.000000	nan
2717.000000	nan
2718.000000	nan
2719.000000	nan
2720.000000	nan
2721.000000	nan
2722.000000	nan
2723.000000	nan
2724.000000	nan
2725.000000	nan
2726.000000	nan
2727.000000	nan
2728.000000	nan
2729.000000	nan
2730.000000	nan
2731.000000	nan
2732.000000	nan
2733.000000	nan
2734.000000	nan
2735.000000	nan
2736.000000	nan
2737.000000	nan
2738.000000	nan
2739.000000	nan
2740.000000	nan
2741.000000	nan
2742.000000	nan
2743.000000	nan
2744.000000	nan
2745.000000	nan
2746.000000	nan
2747.000000	nan
2748.000000	nan
2749.000000	nan
2750.000000	nan
2751.000000	nan
2752.000000	nan
2753.000000	nan
2754.000000	nan
2755.000000	nan
2756.000000	nan
2757.000000	nan
2758.000000	nan
2759.000000	nan
2760.000000	nan
2761.000000	nan
2762.000000	nan
2763.000000	nan
2764.000000	nan
2765.000000	nan
2766.000000	nan
2767.000000	nan
2768.000000	nan
2769.000000	nan
2770.000000	nan
2771.000000	nan
2772.000000	nan
2773.000000	nan
2774.000000	nan
2775.000000	nan
2776.000000	nan
2777.000000	nan
2778.000000	nan
2779.000000	nan
2780.000000	nan
2781.000000	nan
2782.000000	nan
2783.000000	nan
2784.000000	nan
2785.000000	nan
2786.000000	nan
2787.000000	nan
2788.000000	nan
2789.000000	nan
2790.000000	nan
2791.000000	nan
2792.000000	nan
2793.000000	nan
2794.000000	nan
2795.000000	nan
2796.000000	nan
2797.000000	nan
2798.000000	nan
2799.000000	nan
2800.000000	nan
2801.000000	nan
2802.000000	nan
2803.000000	nan
2804.000000	nan
2805.000000	nan
2806.000000	nan
2807.000000	nan
2808.000000	nan
2809.000000	nan
2810.000000	nan
2811.000000	nan
2812.000000	nan
2813.000000	nan
2814.000000	nan
2815.000000	nan
2816.000000	nan
2817.000000	nan
2818.000000	nan
2819.000000	nan
2820.000000	nan
2821.000000	nan
2822.000000	nan
2823.000000	nan
2824.000000	nan
2825.000000	nan
2826.000000	nan
2827.000000	nan
2828.000000	nan
2829.000000	nan
2830.000000	nan
2831.000000	nan
2832.000000	nan
2833.000000	nan
2834.000000	nan
2835.000000	nan
2836.000000	nan
2837.000000	nan
2838.000000	nan
2839.000000	nan
2840.000000	nan
2841.000000	nan
2842.000000	nan
2843.000000	nan
2844.000000	nan
2845.000000	nan
2846.000000	nan
2847.000000	nan
2848.000000	nan
2849.000000	nan
2850.000000	nan
2851.000000	nan
2852.000000	nan
2853.000000	nan
2854.000000	nan
2855.000000	nan
2856.000000	nan
2857.000000	nan
2858.000000	nan
2859.000000	nan
2860.000000	nan
2861.000000	nan
2862.000000	nan
2863.000000	nan
2864.000000	nan
2865.000000	nan
2866.000000	nan
2867.000000	nan
2868.000000	nan
2869.000000	nan
2870.000000	nan
2871.000000	nan
2872.000000	nan
2873.000000	nan
2874.000000	nan
2875.000000	nan
2876.000000	nan
2877.000000	nan
2878.000000	nan
2879.000000	nan
2880.000000	nan
2881.000000	nan
2882.000000	nan
2883.000000	nan
2884.000000	nan
2885.000000	nan
2886.000000	nan
2887.000000	nan
2888.000000	nan
2889.000000	nan
2890.000000	nan
2891.000000	nan
2892.000000	nan
2893.000000	nan
2894.000000	nan
2895.000000	nan
2896.000000	nan
2897.000000	nan
2898.000000	nan
2899.000000	nan
2900.000000	nan
2901.000000	nan
2902.000000	nan
2903.000000	nan
2904.000000	nan
2905.000000	nan
2906.000000	nan
2907.000000	nan
2908.000000	nan
2909.000000	nan
2910.000000	nan
2911.000000	nan
2912.000000	nan
2913.000000	nan
2914.000000	nan
2915.000000	nan
2916.000000	nan
2917.000000	nan
2918.000000	nan
2919.000000	nan
2920.000000	nan
2921.000000	nan
2922.000000	nan
2923.000000	nan
2924.000000	nan
2925.000000	nan
2926.000000	nan
2927.000000	nan
2928.000000	nan
2929.000000	nan
2930.000000	nan
2931.000000	nan
2932.000000	nan
2933.000000	nan
2934.000000	nan
2935.000000	nan
2936.000000	nan
2937.000000	nan
2938.000000	nan
2939.000000	nan
2940.000000	nan
2941.000000	nan
2942.000000	nan
2943.000000	nan
2944.000000	nan
2945.000000	nan
2946.000000	nan
2947.000000	nan
2948.000000	nan
2949.000000	nan
2950.000000	nan
2951.000000	nan
2952.000000	nan
2953.000000	nan
2954.000000	nan
2955.000000	nan
2956.000000	nan
2957.000000	nan
2958.000000	nan
2959.000000	nan
2960.000000	nan
2961.000000	nan
2962.000000	nan
2963.000000	nan
2964.000000	nan
2965.000000	nan
2966.000000	nan
2967.000000	nan
2968.000000	nan
2969.000000	nan
2970.000000	nan
2971.000000	nan
2972.000000	nan
2973.000000	nan
2974.000000	nan
2975.000000	nan
2976.000000	nan
2977.000000	nan
2978.000000	nan
2979.000000	nan
2980.000000	nan
2981.000000	nan
2982.000000	nan
2983.000000	nan
2984.000000	nan
2985.000000	nan
2986.000000	nan
2987.000000	nan
2988.000000	nan
2989.000000	nan
2990.000000	nan
2991.000000	nan
2992.000000	nan
2993.000000	nan
2994.000000	nan
2995.000000	nan
2996.000000	nan
2997.000000	nan
2998.000000	nan
2999.000000	nan
3000.000000	nan
