PE UV       SUBTECH     SPECTRUM    ASCII       PEDS        4.00        
   -1
INBUCR0223-4.Sample.ASC
24/02/08
10:38:59.00
24/02/08
10:38:59.00
Vinicio Soto Monge
Chrysina sp. Rojizo con bordes dorados. 
250,000000
1
Lambda 1050
1050L1511233
PerkinElmer UV WinLab 6.3.2.0749 / 2.02.05 Lambda 900 UV/VIS/NIR, Aug  7 2015 09:38:08

0
0
3350/servo 860,8/2
0
0
UV/VIS
1
1
1
DoubleDePol,CommonBeamDepol,RBeamAtt,SBeamAtt,60mm sphere, WB InGaAs Detector
0
0
0
0
Program
Program
3350/servo 860,8/2
3350/0,2 860,8/0,2
3350/0,2 860,8/0,2
0
15.00
 
 
 
0
 
860,8
319,2
860,8
Front
100
on
S:100 R:100
0
0
0
0
 
0
 
 
 
0
 
 
0
0
0
0
0
 
 
 
 
0
0


0
0
#HDR
-1
-1
#GR
nm
%R
1.0
0.0
2500,000000
-1,000000
2251
8
13,820200
1,162000
#DATA

250.000000	2.741902
251.000000	2.722206
252.000000	2.726814
253.000000	2.704757
254.000000	2.700342
255.000000	2.695989
256.000000	2.689980
257.000000	2.680053
258.000000	2.662468
259.000000	2.673611
260.000000	2.658382
261.000000	2.645319
262.000000	2.597897
263.000000	2.596987
264.000000	2.583602
265.000000	2.554272
266.000000	2.569348
267.000000	2.566023
268.000000	2.564571
269.000000	2.561468
270.000000	2.524391
271.000000	2.512468
272.000000	2.508373
273.000000	2.508739
274.000000	2.501089
275.000000	2.486741
276.000000	2.491326
277.000000	2.494418
278.000000	2.491967
279.000000	2.481070
280.000000	2.468143
281.000000	2.467002
282.000000	2.481218
283.000000	2.485380
284.000000	2.467821
285.000000	2.473992
286.000000	2.477808
287.000000	2.469540
288.000000	2.447227
289.000000	2.465435
290.000000	2.459916
291.000000	2.475569
292.000000	2.482155
293.000000	2.479140
294.000000	2.484078
295.000000	2.463569
296.000000	2.460215
297.000000	2.460690
298.000000	2.478796
299.000000	2.471852
300.000000	2.497009
301.000000	2.458357
302.000000	2.462237
303.000000	2.458415
304.000000	2.457846
305.000000	2.480274
306.000000	2.458859
307.000000	2.443261
308.000000	2.466187
309.000000	2.436264
310.000000	2.433945
311.000000	2.440912
312.000000	2.480060
313.000000	2.450736
314.000000	2.460035
315.000000	2.460853
316.000000	2.457154
317.000000	2.522985
318.000000	2.533787
319.000000	2.540876
320.000000	2.511271
321.000000	2.535601
322.000000	2.499226
323.000000	2.447528
324.000000	2.522828
325.000000	2.537055
326.000000	2.562305
327.000000	2.479828
328.000000	2.512308
329.000000	2.487167
330.000000	2.518373
331.000000	2.510203
332.000000	2.488878
333.000000	2.469932
334.000000	2.503334
335.000000	2.491801
336.000000	2.513488
337.000000	2.563110
338.000000	2.480427
339.000000	2.482624
340.000000	2.535349
341.000000	2.544894
342.000000	2.533291
343.000000	2.489977
344.000000	2.556902
345.000000	2.528757
346.000000	2.525262
347.000000	2.524171
348.000000	2.463696
349.000000	2.516614
350.000000	2.483264
351.000000	2.535352
352.000000	2.528076
353.000000	2.526489
354.000000	2.519597
355.000000	2.541165
356.000000	2.540922
357.000000	2.551390
358.000000	2.563820
359.000000	2.534366
360.000000	2.517995
361.000000	2.550566
362.000000	2.536982
363.000000	2.560402
364.000000	2.577179
365.000000	2.567037
366.000000	2.554907
367.000000	2.578263
368.000000	2.600000
369.000000	2.593863
370.000000	2.598103
371.000000	2.572265
372.000000	2.594061
373.000000	2.576728
374.000000	2.613651
375.000000	2.592807
376.000000	2.554349
377.000000	2.592723
378.000000	2.599301
379.000000	2.593419
380.000000	2.596528
381.000000	2.595319
382.000000	2.594851
383.000000	2.595819
384.000000	2.601725
385.000000	2.599783
386.000000	2.600912
387.000000	2.599171
388.000000	2.603221
389.000000	2.604484
390.000000	2.605200
391.000000	2.607153
392.000000	2.607740
393.000000	2.605752
394.000000	2.611278
395.000000	2.609858
396.000000	2.617115
397.000000	2.620403
398.000000	2.621092
399.000000	2.617906
400.000000	2.620230
401.000000	2.622873
402.000000	2.621285
403.000000	2.620925
404.000000	2.631322
405.000000	2.636821
406.000000	2.637136
407.000000	2.637541
408.000000	2.639450
409.000000	2.642128
410.000000	2.644672
411.000000	2.642690
412.000000	2.644752
413.000000	2.652357
414.000000	2.655257
415.000000	2.658337
416.000000	2.661857
417.000000	2.668183
418.000000	2.671075
419.000000	2.675286
420.000000	2.675157
421.000000	2.678283
422.000000	2.685387
423.000000	2.688154
424.000000	2.691947
425.000000	2.701567
426.000000	2.706604
427.000000	2.706629
428.000000	2.709166
429.000000	2.710014
430.000000	2.716411
431.000000	2.724643
432.000000	2.735295
433.000000	2.739797
434.000000	2.745324
435.000000	2.752513
436.000000	2.756544
437.000000	2.761768
438.000000	2.770311
439.000000	2.777716
440.000000	2.783258
441.000000	2.786127
442.000000	2.793715
443.000000	2.803447
444.000000	2.809310
445.000000	2.812933
446.000000	2.818232
447.000000	2.827288
448.000000	2.830229
449.000000	2.837647
450.000000	2.845494
451.000000	2.853084
452.000000	2.862949
453.000000	2.869069
454.000000	2.876756
455.000000	2.885228
456.000000	2.890972
457.000000	2.896892
458.000000	2.904360
459.000000	2.913488
460.000000	2.923218
461.000000	2.928730
462.000000	2.936416
463.000000	2.944400
464.000000	2.953950
465.000000	2.963022
466.000000	2.971336
467.000000	2.978726
468.000000	2.986294
469.000000	2.997868
470.000000	3.006013
471.000000	3.013142
472.000000	3.025555
473.000000	3.037037
474.000000	3.045890
475.000000	3.052901
476.000000	3.062325
477.000000	3.072626
478.000000	3.081116
479.000000	3.090597
480.000000	3.103468
481.000000	3.116114
482.000000	3.130224
483.000000	3.142216
484.000000	3.149310
485.000000	3.155749
486.000000	3.165901
487.000000	3.175870
488.000000	3.185206
489.000000	3.191102
490.000000	3.201300
491.000000	3.211430
492.000000	3.222877
493.000000	3.231357
494.000000	3.237158
495.000000	3.249579
496.000000	3.261242
497.000000	3.272204
498.000000	3.281071
499.000000	3.296667
500.000000	3.309199
501.000000	3.322756
502.000000	3.338837
503.000000	3.355527
504.000000	3.366397
505.000000	3.383620
506.000000	3.401378
507.000000	3.417785
508.000000	3.435579
509.000000	3.457704
510.000000	3.482053
511.000000	3.504708
512.000000	3.531908
513.000000	3.557194
514.000000	3.583912
515.000000	3.614119
516.000000	3.645524
517.000000	3.682424
518.000000	3.719738
519.000000	3.761037
520.000000	3.808043
521.000000	3.860113
522.000000	3.908742
523.000000	3.968265
524.000000	4.029212
525.000000	4.094009
526.000000	4.160059
527.000000	4.234072
528.000000	4.309117
529.000000	4.390173
530.000000	4.474135
531.000000	4.558912
532.000000	4.641065
533.000000	4.716502
534.000000	4.793132
535.000000	4.858960
536.000000	4.922325
537.000000	4.979574
538.000000	5.032771
539.000000	5.075304
540.000000	5.118725
541.000000	5.158105
542.000000	5.197252
543.000000	5.230962
544.000000	5.259687
545.000000	5.288070
546.000000	5.323621
547.000000	5.352640
548.000000	5.383298
549.000000	5.409944
550.000000	5.445371
551.000000	5.480302
552.000000	5.505951
553.000000	5.537271
554.000000	5.571914
555.000000	5.605319
556.000000	5.639796
557.000000	5.672027
558.000000	5.702089
559.000000	5.737369
560.000000	5.771280
561.000000	5.805969
562.000000	5.845394
563.000000	5.888005
564.000000	5.925128
565.000000	5.959490
566.000000	6.007101
567.000000	6.042597
568.000000	6.089744
569.000000	6.129425
570.000000	6.171785
571.000000	6.223415
572.000000	6.276301
573.000000	6.329883
574.000000	6.382825
575.000000	6.443983
576.000000	6.502145
577.000000	6.570968
578.000000	6.629327
579.000000	6.689261
580.000000	6.750469
581.000000	6.824885
582.000000	6.892428
583.000000	6.967423
584.000000	7.045888
585.000000	7.135951
586.000000	7.223412
587.000000	7.306564
588.000000	7.406663
589.000000	7.515783
590.000000	7.625788
591.000000	7.754717
592.000000	7.884517
593.000000	8.031207
594.000000	8.186879
595.000000	8.356369
596.000000	8.537792
597.000000	8.732978
598.000000	8.965939
599.000000	9.200243
600.000000	9.460447
601.000000	9.747220
602.000000	10.061619
603.000000	10.413675
604.000000	10.769232
605.000000	11.163968
606.000000	11.556332
607.000000	11.990150
608.000000	12.415166
609.000000	12.853215
610.000000	13.290775
611.000000	13.742938
612.000000	14.169526
613.000000	14.592336
614.000000	15.004396
615.000000	15.399221
616.000000	15.786264
617.000000	16.139785
618.000000	16.490486
619.000000	16.837960
620.000000	17.184354
621.000000	17.502557
622.000000	17.808808
623.000000	18.105691
624.000000	18.389590
625.000000	18.640528
626.000000	18.901242
627.000000	19.110806
628.000000	19.328592
629.000000	19.547498
630.000000	19.713308
631.000000	19.906899
632.000000	20.064844
633.000000	20.231227
634.000000	20.373252
635.000000	20.493649
636.000000	20.607844
637.000000	20.718433
638.000000	20.815095
639.000000	20.879753
640.000000	20.965644
641.000000	21.047118
642.000000	21.124524
643.000000	21.196624
644.000000	21.255323
645.000000	21.309861
646.000000	21.375818
647.000000	21.437548
648.000000	21.485771
649.000000	21.538478
650.000000	21.602577
651.000000	21.642184
652.000000	21.683926
653.000000	21.730790
654.000000	21.758509
655.000000	21.784791
656.000000	21.819539
657.000000	21.852638
658.000000	21.897282
659.000000	21.924726
660.000000	21.946582
661.000000	21.972488
662.000000	22.007712
663.000000	22.043650
664.000000	22.050328
665.000000	22.082580
666.000000	22.120648
667.000000	22.145459
668.000000	22.169619
669.000000	22.215014
670.000000	22.244390
671.000000	22.300975
672.000000	22.342230
673.000000	22.371775
674.000000	22.406649
675.000000	22.445939
676.000000	22.476256
677.000000	22.502912
678.000000	22.515528
679.000000	22.523951
680.000000	22.559403
681.000000	22.584708
682.000000	22.603864
683.000000	22.643861
684.000000	22.664623
685.000000	22.664492
686.000000	22.677687
687.000000	22.678267
688.000000	22.689289
689.000000	22.699780
690.000000	22.727598
691.000000	22.757465
692.000000	22.757562
693.000000	22.788201
694.000000	22.800885
695.000000	22.809498
696.000000	22.823850
697.000000	22.822616
698.000000	22.849758
699.000000	22.841758
700.000000	22.860111
701.000000	22.885008
702.000000	22.895943
703.000000	22.905351
704.000000	22.912051
705.000000	22.923741
706.000000	22.954608
707.000000	22.983877
708.000000	23.018584
709.000000	23.041021
710.000000	23.066469
711.000000	23.105379
712.000000	23.141567
713.000000	23.178654
714.000000	23.212221
715.000000	23.219581
716.000000	23.244085
717.000000	23.251979
718.000000	23.261184
719.000000	23.278590
720.000000	23.291763
721.000000	23.313794
722.000000	23.347885
723.000000	23.396491
724.000000	23.431412
725.000000	23.469556
726.000000	23.531687
727.000000	23.608472
728.000000	23.660017
729.000000	23.688437
730.000000	23.724259
731.000000	23.774445
732.000000	23.809884
733.000000	23.845155
734.000000	23.887759
735.000000	23.917934
736.000000	23.923532
737.000000	23.939412
738.000000	23.972000
739.000000	23.998989
740.000000	24.027876
741.000000	24.071714
742.000000	24.128215
743.000000	24.176744
744.000000	24.221058
745.000000	24.261889
746.000000	24.317743
747.000000	24.358299
748.000000	24.413674
749.000000	24.489044
750.000000	24.553737
751.000000	24.592286
752.000000	24.607727
753.000000	24.655114
754.000000	24.686578
755.000000	24.714407
756.000000	24.772576
757.000000	24.823989
758.000000	24.879516
759.000000	24.908836
760.000000	24.948385
761.000000	24.967696
762.000000	25.018655
763.000000	25.130819
764.000000	25.178570
765.000000	25.222335
766.000000	25.307330
767.000000	25.378914
768.000000	25.424954
769.000000	25.493984
770.000000	25.570979
771.000000	25.621255
772.000000	25.610082
773.000000	25.656069
774.000000	25.740934
775.000000	25.785035
776.000000	25.851953
777.000000	25.893053
778.000000	25.947996
779.000000	26.018501
780.000000	26.083234
781.000000	26.168089
782.000000	26.234024
783.000000	26.282832
784.000000	26.371461
785.000000	26.451686
786.000000	26.554776
787.000000	26.570376
788.000000	26.623216
789.000000	26.669795
790.000000	26.727681
791.000000	26.809693
792.000000	26.850092
793.000000	26.907664
794.000000	26.978783
795.000000	27.027374
796.000000	27.096452
797.000000	27.144937
798.000000	27.220115
799.000000	27.305111
800.000000	27.384335
801.000000	27.455946
802.000000	27.510890
803.000000	27.570052
804.000000	27.591954
805.000000	27.747903
806.000000	27.790260
807.000000	27.836990
808.000000	27.915082
809.000000	27.903705
810.000000	27.984528
811.000000	28.094177
812.000000	28.105081
813.000000	28.102933
814.000000	28.192373
815.000000	28.297528
816.000000	28.329498
817.000000	28.446827
818.000000	28.510122
819.000000	28.572451
820.000000	28.625340
821.000000	28.736985
822.000000	28.775572
823.000000	28.766741
824.000000	28.868391
825.000000	28.983684
826.000000	29.069116
827.000000	29.089927
828.000000	29.102631
829.000000	29.168421
830.000000	29.249620
831.000000	29.216118
832.000000	29.301657
833.000000	29.428047
834.000000	29.467821
835.000000	29.439137
836.000000	29.557137
837.000000	29.648173
838.000000	29.610572
839.000000	29.653096
840.000000	29.695080
841.000000	29.747825
842.000000	29.777636
843.000000	29.838766
844.000000	29.945166
845.000000	30.050886
846.000000	29.935838
847.000000	30.142626
848.000000	30.074252
849.000000	30.237678
850.000000	30.083180
851.000000	30.137876
852.000000	30.256220
853.000000	30.172044
854.000000	30.228813
855.000000	30.164816
856.000000	30.275246
857.000000	30.419466
858.000000	31.313828
859.000000	31.270201
860.000000	30.888733
861.000000	31.246048
862.000000	31.142859
863.000000	31.221284
864.000000	30.915358
865.000000	30.642160
866.000000	30.832509
867.000000	30.850974
868.000000	30.860123
869.000000	30.633483
870.000000	30.795709
871.000000	30.812979
872.000000	30.754966
873.000000	30.855281
874.000000	30.610769
875.000000	30.732765
876.000000	30.763639
877.000000	30.727890
878.000000	30.602156
879.000000	30.559605
880.000000	30.663548
881.000000	30.564430
882.000000	30.703199
883.000000	30.575279
884.000000	30.558801
885.000000	30.565695
886.000000	30.504148
887.000000	30.529550
888.000000	30.380099
889.000000	30.378361
890.000000	30.422203
891.000000	30.316024
892.000000	30.324567
893.000000	30.231575
894.000000	30.287740
895.000000	30.259024
896.000000	30.284691
897.000000	30.164414
898.000000	30.201431
899.000000	30.102330
900.000000	30.199607
901.000000	30.108947
902.000000	30.090712
903.000000	29.994961
904.000000	29.940365
905.000000	30.003476
906.000000	29.945261
907.000000	29.886425
908.000000	29.834901
909.000000	29.839940
910.000000	29.789711
911.000000	29.693838
912.000000	29.639115
913.000000	29.617688
914.000000	29.620301
915.000000	29.603035
916.000000	29.516507
917.000000	29.472971
918.000000	29.450562
919.000000	29.537810
920.000000	29.493349
921.000000	29.415430
922.000000	29.381628
923.000000	29.342843
924.000000	29.316644
925.000000	29.269381
926.000000	29.211344
927.000000	29.180171
928.000000	29.145725
929.000000	29.097588
930.000000	29.051618
931.000000	29.062487
932.000000	29.026849
933.000000	28.983143
934.000000	28.934682
935.000000	28.836116
936.000000	28.822309
937.000000	28.797324
938.000000	28.786646
939.000000	28.746763
940.000000	28.696011
941.000000	28.687931
942.000000	28.666532
943.000000	28.653292
944.000000	28.613186
945.000000	28.563910
946.000000	28.516623
947.000000	28.483761
948.000000	28.424251
949.000000	28.366198
950.000000	28.337338
951.000000	28.330228
952.000000	28.316737
953.000000	28.276708
954.000000	28.230210
955.000000	28.217274
956.000000	28.200567
957.000000	28.178759
958.000000	28.139786
959.000000	28.097075
960.000000	28.081444
961.000000	28.057213
962.000000	28.015583
963.000000	27.971014
964.000000	27.932543
965.000000	27.918559
966.000000	27.885741
967.000000	27.829120
968.000000	27.797104
969.000000	27.776810
970.000000	27.768607
971.000000	27.743877
972.000000	27.726735
973.000000	27.714567
974.000000	27.675631
975.000000	27.640996
976.000000	27.622540
977.000000	27.602889
978.000000	27.592874
979.000000	27.553792
980.000000	27.517326
981.000000	27.480173
982.000000	27.443444
983.000000	27.432157
984.000000	27.404322
985.000000	27.383190
986.000000	27.365586
987.000000	27.343132
988.000000	27.317545
989.000000	27.302738
990.000000	27.286234
991.000000	27.273660
992.000000	27.259093
993.000000	27.237882
994.000000	27.217940
995.000000	27.201289
996.000000	27.180424
997.000000	27.169061
998.000000	27.172132
999.000000	27.157846
1000.000000	27.136104
1001.000000	27.108757
1002.000000	27.084859
1003.000000	27.083317
1004.000000	27.068946
1005.000000	27.046690
1006.000000	27.039434
1007.000000	27.030870
1008.000000	27.017272
1009.000000	26.999467
1010.000000	26.996274
1011.000000	26.997245
1012.000000	26.985081
1013.000000	26.970081
1014.000000	26.956220
1015.000000	26.958348
1016.000000	26.970316
1017.000000	26.965158
1018.000000	26.950950
1019.000000	26.949637
1020.000000	26.948107
1021.000000	26.945078
1022.000000	26.934278
1023.000000	26.937633
1024.000000	26.935767
1025.000000	26.941632
1026.000000	26.943854
1027.000000	26.928969
1028.000000	26.927168
1029.000000	26.942296
1030.000000	26.950190
1031.000000	26.946363
1032.000000	26.947066
1033.000000	26.951136
1034.000000	26.959252
1035.000000	26.965668
1036.000000	26.964492
1037.000000	26.968619
1038.000000	26.979622
1039.000000	26.979108
1040.000000	26.978548
1041.000000	26.979305
1042.000000	26.987427
1043.000000	26.995143
1044.000000	27.003087
1045.000000	27.005301
1046.000000	27.002750
1047.000000	27.007862
1048.000000	27.005599
1049.000000	27.016001
1050.000000	27.036047
1051.000000	27.048886
1052.000000	27.049209
1053.000000	27.061397
1054.000000	27.064650
1055.000000	27.065393
1056.000000	27.079587
1057.000000	27.095119
1058.000000	27.098289
1059.000000	27.104094
1060.000000	27.117422
1061.000000	27.130152
1062.000000	27.141220
1063.000000	27.140825
1064.000000	27.142456
1065.000000	27.163316
1066.000000	27.171162
1067.000000	27.167362
1068.000000	27.181360
1069.000000	27.186522
1070.000000	27.195545
1071.000000	27.207383
1072.000000	27.211382
1073.000000	27.218035
1074.000000	27.233894
1075.000000	27.240799
1076.000000	27.248742
1077.000000	27.253265
1078.000000	27.278678
1079.000000	27.282085
1080.000000	27.289964
1081.000000	27.304773
1082.000000	27.303136
1083.000000	27.321062
1084.000000	27.332397
1085.000000	27.325969
1086.000000	27.342187
1087.000000	27.351000
1088.000000	27.364961
1089.000000	27.361563
1090.000000	27.371679
1091.000000	27.377022
1092.000000	27.390383
1093.000000	27.394450
1094.000000	27.400534
1095.000000	27.400721
1096.000000	27.407899
1097.000000	27.424965
1098.000000	27.426355
1099.000000	27.432183
1100.000000	27.431810
1101.000000	27.450126
1102.000000	27.458112
1103.000000	27.463253
1104.000000	27.472958
1105.000000	27.483813
1106.000000	27.488698
1107.000000	27.482723
1108.000000	27.482686
1109.000000	27.498452
1110.000000	27.498885
1111.000000	27.500107
1112.000000	27.499068
1113.000000	27.499426
1114.000000	27.508923
1115.000000	27.512968
1116.000000	27.525380
1117.000000	27.523636
1118.000000	27.521165
1119.000000	27.517855
1120.000000	27.521168
1121.000000	27.514796
1122.000000	27.493485
1123.000000	27.498594
1124.000000	27.487121
1125.000000	27.483982
1126.000000	27.451901
1127.000000	27.417474
1128.000000	27.409026
1129.000000	27.374594
1130.000000	27.350293
1131.000000	27.340964
1132.000000	27.331609
1133.000000	27.305634
1134.000000	27.263718
1135.000000	27.220120
1136.000000	27.182894
1137.000000	27.151719
1138.000000	27.134735
1139.000000	27.114028
1140.000000	27.085471
1141.000000	27.064033
1142.000000	27.051773
1143.000000	27.014961
1144.000000	26.990177
1145.000000	26.980229
1146.000000	26.951842
1147.000000	26.933862
1148.000000	26.907095
1149.000000	26.874267
1150.000000	26.855850
1151.000000	26.836932
1152.000000	26.800673
1153.000000	26.760065
1154.000000	26.732725
1155.000000	26.697042
1156.000000	26.662942
1157.000000	26.595326
1158.000000	26.543941
1159.000000	26.519135
1160.000000	26.473975
1161.000000	26.436738
1162.000000	26.398445
1163.000000	26.352778
1164.000000	26.303484
1165.000000	26.276565
1166.000000	26.212100
1167.000000	26.189405
1168.000000	26.159270
1169.000000	26.107624
1170.000000	26.082233
1171.000000	26.050168
1172.000000	26.017741
1173.000000	25.996056
1174.000000	25.964981
1175.000000	25.947472
1176.000000	25.915797
1177.000000	25.902046
1178.000000	25.888038
1179.000000	25.867624
1180.000000	25.847042
1181.000000	25.850923
1182.000000	25.852683
1183.000000	25.838603
1184.000000	25.829576
1185.000000	25.843217
1186.000000	25.856248
1187.000000	25.869251
1188.000000	25.878125
1189.000000	25.904733
1190.000000	25.924831
1191.000000	25.947896
1192.000000	25.983977
1193.000000	26.018153
1194.000000	26.040233
1195.000000	26.056143
1196.000000	26.086365
1197.000000	26.107560
1198.000000	26.147467
1199.000000	26.177419
1200.000000	26.192631
1201.000000	26.226254
1202.000000	26.249589
1203.000000	26.277067
1204.000000	26.289418
1205.000000	26.313259
1206.000000	26.345454
1207.000000	26.366238
1208.000000	26.384557
1209.000000	26.401943
1210.000000	26.407953
1211.000000	26.418072
1212.000000	26.439258
1213.000000	26.445696
1214.000000	26.466817
1215.000000	26.482439
1216.000000	26.485872
1217.000000	26.498381
1218.000000	26.507277
1219.000000	26.517116
1220.000000	26.533417
1221.000000	26.541419
1222.000000	26.562608
1223.000000	26.575888
1224.000000	26.593987
1225.000000	26.608106
1226.000000	26.625483
1227.000000	26.635938
1228.000000	26.651721
1229.000000	26.674027
1230.000000	26.692263
1231.000000	26.706279
1232.000000	26.725273
1233.000000	26.753705
1234.000000	26.771727
1235.000000	26.785176
1236.000000	26.799666
1237.000000	26.816773
1238.000000	26.838699
1239.000000	26.851111
1240.000000	26.861279
1241.000000	26.886353
1242.000000	26.908603
1243.000000	26.920954
1244.000000	26.934211
1245.000000	26.963982
1246.000000	26.978935
1247.000000	26.990578
1248.000000	27.017444
1249.000000	27.033865
1250.000000	27.033101
1251.000000	27.047112
1252.000000	27.055606
1253.000000	27.056148
1254.000000	27.066982
1255.000000	27.065015
1256.000000	27.066324
1257.000000	27.072301
1258.000000	27.079892
1259.000000	27.086844
1260.000000	27.085650
1261.000000	27.094305
1262.000000	27.101653
1263.000000	27.106464
1264.000000	27.112709
1265.000000	27.111634
1266.000000	27.114846
1267.000000	27.123104
1268.000000	27.138750
1269.000000	27.137602
1270.000000	27.144061
1271.000000	27.154498
1272.000000	27.150353
1273.000000	27.150018
1274.000000	27.158671
1275.000000	27.172153
1276.000000	27.187613
1277.000000	27.194874
1278.000000	27.203985
1279.000000	27.215784
1280.000000	27.229437
1281.000000	27.242225
1282.000000	27.251756
1283.000000	27.262559
1284.000000	27.278191
1285.000000	27.292090
1286.000000	27.308586
1287.000000	27.327615
1288.000000	27.332223
1289.000000	27.339175
1290.000000	27.352142
1291.000000	27.357077
1292.000000	27.364459
1293.000000	27.374335
1294.000000	27.376694
1295.000000	27.376881
1296.000000	27.388004
1297.000000	27.385774
1298.000000	27.375598
1299.000000	27.377799
1300.000000	27.379707
1301.000000	27.376291
1302.000000	27.382265
1303.000000	27.388996
1304.000000	27.379945
1305.000000	27.364788
1306.000000	27.352854
1307.000000	27.353929
1308.000000	27.354295
1309.000000	27.342436
1310.000000	27.331637
1311.000000	27.318510
1312.000000	27.307832
1313.000000	27.293265
1314.000000	27.282192
1315.000000	27.272377
1316.000000	27.255422
1317.000000	27.244979
1318.000000	27.228713
1319.000000	27.210360
1320.000000	27.193598
1321.000000	27.179813
1322.000000	27.161112
1323.000000	27.130213
1324.000000	27.115557
1325.000000	27.106146
1326.000000	27.071891
1327.000000	27.030118
1328.000000	26.989227
1329.000000	26.961261
1330.000000	26.926715
1331.000000	26.888616
1332.000000	26.847264
1333.000000	26.805048
1334.000000	26.759706
1335.000000	26.701754
1336.000000	26.647737
1337.000000	26.603760
1338.000000	26.553196
1339.000000	26.491210
1340.000000	26.430681
1341.000000	26.366375
1342.000000	26.306788
1343.000000	26.242238
1344.000000	26.164353
1345.000000	26.093680
1346.000000	26.028850
1347.000000	25.965842
1348.000000	25.883088
1349.000000	25.811389
1350.000000	25.743144
1351.000000	25.678330
1352.000000	25.623768
1353.000000	25.582965
1354.000000	25.505413
1355.000000	25.440655
1356.000000	25.399485
1357.000000	25.372692
1358.000000	25.353145
1359.000000	25.340347
1360.000000	25.298629
1361.000000	25.195945
1362.000000	25.146587
1363.000000	25.123113
1364.000000	25.056363
1365.000000	25.016894
1366.000000	24.984963
1367.000000	24.915214
1368.000000	24.847892
1369.000000	24.804495
1370.000000	24.722109
1371.000000	24.613369
1372.000000	24.522032
1373.000000	24.440110
1374.000000	24.334730
1375.000000	24.218603
1376.000000	24.121917
1377.000000	24.013251
1378.000000	23.962657
1379.000000	23.856274
1380.000000	23.784922
1381.000000	23.651332
1382.000000	23.535562
1383.000000	23.436410
1384.000000	23.341164
1385.000000	23.265863
1386.000000	23.169419
1387.000000	23.061964
1388.000000	22.939401
1389.000000	22.845544
1390.000000	22.789071
1391.000000	22.676025
1392.000000	22.561088
1393.000000	22.462840
1394.000000	22.373367
1395.000000	22.208313
1396.000000	22.045010
1397.000000	21.969479
1398.000000	21.883441
1399.000000	21.752823
1400.000000	21.558408
1401.000000	21.373466
1402.000000	21.276297
1403.000000	21.154947
1404.000000	20.993087
1405.000000	20.834151
1406.000000	20.688532
1407.000000	20.538355
1408.000000	20.373256
1409.000000	20.209652
1410.000000	20.037132
1411.000000	19.919054
1412.000000	19.804687
1413.000000	19.639244
1414.000000	19.472012
1415.000000	19.349044
1416.000000	19.224690
1417.000000	19.113502
1418.000000	18.983628
1419.000000	18.855610
1420.000000	18.753862
1421.000000	18.651062
1422.000000	18.548883
1423.000000	18.453108
1424.000000	18.341179
1425.000000	18.266534
1426.000000	18.169979
1427.000000	18.077226
1428.000000	17.998149
1429.000000	17.922914
1430.000000	17.856372
1431.000000	17.768282
1432.000000	17.704649
1433.000000	17.634332
1434.000000	17.575985
1435.000000	17.504781
1436.000000	17.452096
1437.000000	17.397939
1438.000000	17.328461
1439.000000	17.282680
1440.000000	17.223537
1441.000000	17.165110
1442.000000	17.113335
1443.000000	17.091892
1444.000000	17.037152
1445.000000	16.977914
1446.000000	16.904097
1447.000000	16.876347
1448.000000	16.839708
1449.000000	16.779968
1450.000000	16.732215
1451.000000	16.673512
1452.000000	16.628689
1453.000000	16.585426
1454.000000	16.535052
1455.000000	16.486727
1456.000000	16.439389
1457.000000	16.403817
1458.000000	16.356867
1459.000000	16.309594
1460.000000	16.251335
1461.000000	16.214675
1462.000000	16.173788
1463.000000	16.130758
1464.000000	16.091032
1465.000000	16.041922
1466.000000	16.006421
1467.000000	15.965520
1468.000000	15.929273
1469.000000	15.875432
1470.000000	15.849538
1471.000000	15.804456
1472.000000	15.784962
1473.000000	15.736943
1474.000000	15.706289
1475.000000	15.674798
1476.000000	15.641402
1477.000000	15.619134
1478.000000	15.580962
1479.000000	15.558571
1480.000000	15.547799
1481.000000	15.523137
1482.000000	15.518816
1483.000000	15.506453
1484.000000	15.490358
1485.000000	15.476601
1486.000000	15.471435
1487.000000	15.456575
1488.000000	15.461007
1489.000000	15.464512
1490.000000	15.447947
1491.000000	15.442618
1492.000000	15.444252
1493.000000	15.455414
1494.000000	15.470330
1495.000000	15.470752
1496.000000	15.485873
1497.000000	15.500237
1498.000000	15.507954
1499.000000	15.532494
1500.000000	15.564129
1501.000000	15.577168
1502.000000	15.600896
1503.000000	15.621056
1504.000000	15.651648
1505.000000	15.684418
1506.000000	15.726369
1507.000000	15.761116
1508.000000	15.800758
1509.000000	15.841325
1510.000000	15.867388
1511.000000	15.904191
1512.000000	15.936118
1513.000000	15.975212
1514.000000	16.016187
1515.000000	16.050533
1516.000000	16.091567
1517.000000	16.119379
1518.000000	16.158284
1519.000000	16.192847
1520.000000	16.239595
1521.000000	16.268415
1522.000000	16.295710
1523.000000	16.328750
1524.000000	16.356393
1525.000000	16.399880
1526.000000	16.426338
1527.000000	16.449754
1528.000000	16.488130
1529.000000	16.516696
1530.000000	16.539291
1531.000000	16.572216
1532.000000	16.600866
1533.000000	16.626652
1534.000000	16.656868
1535.000000	16.684937
1536.000000	16.708167
1537.000000	16.727470
1538.000000	16.751840
1539.000000	16.774743
1540.000000	16.802035
1541.000000	16.833167
1542.000000	16.852029
1543.000000	16.877056
1544.000000	16.909491
1545.000000	16.942342
1546.000000	16.967658
1547.000000	16.990755
1548.000000	17.025274
1549.000000	17.045089
1550.000000	17.073979
1551.000000	17.114131
1552.000000	17.141050
1553.000000	17.166417
1554.000000	17.185157
1555.000000	17.203991
1556.000000	17.229913
1557.000000	17.247059
1558.000000	17.255309
1559.000000	17.256462
1560.000000	17.267898
1561.000000	17.287826
1562.000000	17.289403
1563.000000	17.286887
1564.000000	17.288984
1565.000000	17.291481
1566.000000	17.290281
1567.000000	17.278795
1568.000000	17.276304
1569.000000	17.269726
1570.000000	17.262041
1571.000000	17.258524
1572.000000	17.260984
1573.000000	17.260121
1574.000000	17.269289
1575.000000	17.281552
1576.000000	17.284057
1577.000000	17.290650
1578.000000	17.286696
1579.000000	17.288810
1580.000000	17.307828
1581.000000	17.324908
1582.000000	17.341816
1583.000000	17.356908
1584.000000	17.374145
1585.000000	17.396246
1586.000000	17.422890
1587.000000	17.438779
1588.000000	17.467554
1589.000000	17.494189
1590.000000	17.515879
1591.000000	17.539267
1592.000000	17.572317
1593.000000	17.585738
1594.000000	17.619393
1595.000000	17.651561
1596.000000	17.671243
1597.000000	17.698323
1598.000000	17.749042
1599.000000	17.795677
1600.000000	17.828503
1601.000000	17.855870
1602.000000	17.897955
1603.000000	17.939575
1604.000000	17.960594
1605.000000	17.992454
1606.000000	18.020965
1607.000000	18.064991
1608.000000	18.095882
1609.000000	18.118901
1610.000000	18.168374
1611.000000	18.191119
1612.000000	18.214914
1613.000000	18.245788
1614.000000	18.257637
1615.000000	18.292782
1616.000000	18.312899
1617.000000	18.320668
1618.000000	18.347258
1619.000000	18.367627
1620.000000	18.391089
1621.000000	18.421666
1622.000000	18.444092
1623.000000	18.458987
1624.000000	18.488396
1625.000000	18.499113
1626.000000	18.508501
1627.000000	18.527260
1628.000000	18.542016
1629.000000	18.566124
1630.000000	18.579296
1631.000000	18.590507
1632.000000	18.605617
1633.000000	18.615283
1634.000000	18.620915
1635.000000	18.627480
1636.000000	18.643684
1637.000000	18.642670
1638.000000	18.664038
1639.000000	18.657790
1640.000000	18.661376
1641.000000	18.674196
1642.000000	18.671549
1643.000000	18.671140
1644.000000	18.668501
1645.000000	18.672806
1646.000000	18.668405
1647.000000	18.661191
1648.000000	18.652713
1649.000000	18.634864
1650.000000	18.622032
1651.000000	18.571277
1652.000000	18.568762
1653.000000	18.556647
1654.000000	18.515384
1655.000000	18.477872
1656.000000	18.440157
1657.000000	18.397824
1658.000000	18.347516
1659.000000	18.289416
1660.000000	18.221383
1661.000000	18.171508
1662.000000	18.108833
1663.000000	18.042457
1664.000000	17.971160
1665.000000	17.884174
1666.000000	17.807701
1667.000000	17.734120
1668.000000	17.663562
1669.000000	17.578878
1670.000000	17.519376
1671.000000	17.419360
1672.000000	17.344312
1673.000000	17.267025
1674.000000	17.197385
1675.000000	17.119396
1676.000000	17.039481
1677.000000	16.946338
1678.000000	16.876902
1679.000000	16.786922
1680.000000	16.708325
1681.000000	16.624300
1682.000000	16.548422
1683.000000	16.506736
1684.000000	16.438724
1685.000000	16.392487
1686.000000	16.355299
1687.000000	16.328689
1688.000000	16.301161
1689.000000	16.303933
1690.000000	16.308385
1691.000000	16.337222
1692.000000	16.366216
1693.000000	16.387770
1694.000000	16.393368
1695.000000	16.411371
1696.000000	16.406348
1697.000000	16.423891
1698.000000	16.425952
1699.000000	16.425073
1700.000000	16.418843
1701.000000	16.414005
1702.000000	16.407463
1703.000000	16.393115
1704.000000	16.354356
1705.000000	16.306928
1706.000000	16.286086
1707.000000	16.243083
1708.000000	16.167083
1709.000000	16.093379
1710.000000	16.040946
1711.000000	15.974572
1712.000000	15.906697
1713.000000	15.815866
1714.000000	15.732247
1715.000000	15.642683
1716.000000	15.562321
1717.000000	15.476437
1718.000000	15.401416
1719.000000	15.339060
1720.000000	15.277881
1721.000000	15.208638
1722.000000	15.165734
1723.000000	15.154232
1724.000000	15.138399
1725.000000	15.127933
1726.000000	15.116623
1727.000000	15.115587
1728.000000	15.140277
1729.000000	15.156656
1730.000000	15.158881
1731.000000	15.199127
1732.000000	15.232621
1733.000000	15.249419
1734.000000	15.279694
1735.000000	15.318576
1736.000000	15.362468
1737.000000	15.403728
1738.000000	15.439255
1739.000000	15.482898
1740.000000	15.514381
1741.000000	15.548322
1742.000000	15.594227
1743.000000	15.641425
1744.000000	15.681148
1745.000000	15.707257
1746.000000	15.739809
1747.000000	15.782632
1748.000000	15.799478
1749.000000	15.815958
1750.000000	15.817277
1751.000000	15.842737
1752.000000	15.865260
1753.000000	15.867838
1754.000000	15.874785
1755.000000	15.893721
1756.000000	15.897987
1757.000000	15.906426
1758.000000	15.911180
1759.000000	15.916725
1760.000000	15.933364
1761.000000	15.940381
1762.000000	15.937060
1763.000000	15.964380
1764.000000	15.968875
1765.000000	15.985939
1766.000000	15.993677
1767.000000	16.012324
1768.000000	16.021754
1769.000000	16.040476
1770.000000	16.048754
1771.000000	16.067162
1772.000000	16.088549
1773.000000	16.113121
1774.000000	16.129466
1775.000000	16.138352
1776.000000	16.166546
1777.000000	16.189586
1778.000000	16.195634
1779.000000	16.199472
1780.000000	16.203184
1781.000000	16.210146
1782.000000	16.221851
1783.000000	16.229692
1784.000000	16.241217
1785.000000	16.243140
1786.000000	16.243847
1787.000000	16.255847
1788.000000	16.259644
1789.000000	16.265700
1790.000000	16.276512
1791.000000	16.283701
1792.000000	16.292984
1793.000000	16.312580
1794.000000	16.330571
1795.000000	16.328400
1796.000000	16.317117
1797.000000	16.335510
1798.000000	16.365330
1799.000000	16.380254
1800.000000	16.388407
1801.000000	16.383699
1802.000000	16.388320
1803.000000	16.418199
1804.000000	16.434468
1805.000000	16.443035
1806.000000	16.464255
1807.000000	16.478915
1808.000000	16.497045
1809.000000	16.515463
1810.000000	16.518562
1811.000000	16.519225
1812.000000	16.529972
1813.000000	16.545803
1814.000000	16.557520
1815.000000	16.565933
1816.000000	16.575879
1817.000000	16.625709
1818.000000	16.664651
1819.000000	16.644924
1820.000000	16.592272
1821.000000	16.555295
1822.000000	16.584989
1823.000000	16.637339
1824.000000	16.663967
1825.000000	16.690624
1826.000000	16.681792
1827.000000	16.688350
1828.000000	16.701816
1829.000000	16.688792
1830.000000	16.701039
1831.000000	16.712099
1832.000000	16.756734
1833.000000	16.813699
1834.000000	16.838181
1835.000000	16.847613
1836.000000	16.863489
1837.000000	16.882571
1838.000000	16.905249
1839.000000	16.934050
1840.000000	16.915096
1841.000000	16.867673
1842.000000	16.850504
1843.000000	16.898001
1844.000000	16.977302
1845.000000	17.058995
1846.000000	17.057010
1847.000000	16.956209
1848.000000	16.891587
1849.000000	16.884911
1850.000000	16.930831
1851.000000	16.964124
1852.000000	16.948949
1853.000000	16.938720
1854.000000	16.935382
1855.000000	16.907724
1856.000000	16.896784
1857.000000	16.928037
1858.000000	16.875763
1859.000000	16.809850
1860.000000	16.775517
1861.000000	16.716048
1862.000000	16.689648
1863.000000	16.688024
1864.000000	16.678972
1865.000000	16.663223
1866.000000	16.662942
1867.000000	16.623748
1868.000000	16.536751
1869.000000	16.420480
1870.000000	16.293167
1871.000000	16.164463
1872.000000	16.032846
1873.000000	15.898618
1874.000000	15.754274
1875.000000	15.595470
1876.000000	15.439222
1877.000000	15.329779
1878.000000	15.170507
1879.000000	15.048909
1880.000000	14.902543
1881.000000	14.717339
1882.000000	14.584439
1883.000000	14.394330
1884.000000	14.200249
1885.000000	13.988622
1886.000000	13.812824
1887.000000	13.629419
1888.000000	13.460934
1889.000000	13.249252
1890.000000	13.011910
1891.000000	12.747107
1892.000000	12.526011
1893.000000	12.318075
1894.000000	12.077180
1895.000000	11.920771
1896.000000	11.703562
1897.000000	11.476050
1898.000000	11.239522
1899.000000	10.946948
1900.000000	10.718765
1901.000000	10.510101
1902.000000	10.348886
1903.000000	10.126559
1904.000000	9.927821
1905.000000	9.685925
1906.000000	9.482429
1907.000000	9.266586
1908.000000	9.175086
1909.000000	9.007883
1910.000000	8.869154
1911.000000	8.712016
1912.000000	8.544543
1913.000000	8.413328
1914.000000	8.248642
1915.000000	8.199316
1916.000000	8.093449
1917.000000	8.005924
1918.000000	7.945977
1919.000000	7.870522
1920.000000	7.728807
1921.000000	7.649929
1922.000000	7.589075
1923.000000	7.557964
1924.000000	7.487989
1925.000000	7.446729
1926.000000	7.436807
1927.000000	7.361461
1928.000000	7.347013
1929.000000	7.278715
1930.000000	7.239079
1931.000000	7.259967
1932.000000	7.183703
1933.000000	7.229110
1934.000000	7.177854
1935.000000	7.180630
1936.000000	7.172383
1937.000000	7.168887
1938.000000	7.137540
1939.000000	7.190869
1940.000000	7.178167
1941.000000	7.205241
1942.000000	7.178798
1943.000000	7.246749
1944.000000	7.285710
1945.000000	7.304143
1946.000000	7.298835
1947.000000	7.324293
1948.000000	7.354990
1949.000000	7.403378
1950.000000	7.439436
1951.000000	7.423224
1952.000000	7.522700
1953.000000	7.535430
1954.000000	7.563057
1955.000000	7.614927
1956.000000	7.691506
1957.000000	7.707595
1958.000000	7.736585
1959.000000	7.786401
1960.000000	7.778161
1961.000000	7.819728
1962.000000	7.853052
1963.000000	7.916766
1964.000000	7.952327
1965.000000	7.977082
1966.000000	8.024448
1967.000000	8.070857
1968.000000	8.115662
1969.000000	8.120937
1970.000000	8.180374
1971.000000	8.256885
1972.000000	8.304296
1973.000000	8.334105
1974.000000	8.372857
1975.000000	8.395302
1976.000000	8.437981
1977.000000	8.482323
1978.000000	8.538581
1979.000000	8.593500
1980.000000	8.596358
1981.000000	8.619113
1982.000000	8.699849
1983.000000	8.729432
1984.000000	8.780185
1985.000000	8.855642
1986.000000	8.895715
1987.000000	8.939331
1988.000000	8.974233
1989.000000	9.008123
1990.000000	9.053510
1991.000000	9.093272
1992.000000	9.133196
1993.000000	9.176211
1994.000000	9.236107
1995.000000	9.277224
1996.000000	9.318898
1997.000000	9.325656
1998.000000	9.382877
1999.000000	9.394346
2000.000000	9.394205
2001.000000	9.422371
2002.000000	9.430818
2003.000000	9.463880
2004.000000	9.448978
2005.000000	9.488541
2006.000000	9.511878
2007.000000	9.558915
2008.000000	9.572167
2009.000000	9.538581
2010.000000	9.545248
2011.000000	9.521796
2012.000000	9.490469
2013.000000	9.467748
2014.000000	9.495167
2015.000000	9.500083
2016.000000	9.527549
2017.000000	9.477298
2018.000000	9.443645
2019.000000	9.454432
2020.000000	9.470370
2021.000000	9.426437
2022.000000	9.391434
2023.000000	9.379217
2024.000000	9.339994
2025.000000	9.310727
2026.000000	9.282074
2027.000000	9.249172
2028.000000	9.158449
2029.000000	9.127348
2030.000000	9.111063
2031.000000	9.034875
2032.000000	8.982203
2033.000000	8.938147
2034.000000	8.893795
2035.000000	8.873626
2036.000000	8.827273
2037.000000	8.694538
2038.000000	8.623688
2039.000000	8.592500
2040.000000	8.543479
2041.000000	8.506137
2042.000000	8.436353
2043.000000	8.414205
2044.000000	8.376196
2045.000000	8.287673
2046.000000	8.253799
2047.000000	8.233338
2048.000000	8.182364
2049.000000	8.153369
2050.000000	8.168358
2051.000000	8.173870
2052.000000	8.164314
2053.000000	8.144992
2054.000000	8.177654
2055.000000	8.172772
2056.000000	8.080434
2057.000000	8.066502
2058.000000	8.079504
2059.000000	8.141083
2060.000000	8.157616
2061.000000	8.215806
2062.000000	8.300381
2063.000000	8.308103
2064.000000	8.406123
2065.000000	8.495497
2066.000000	8.497172
2067.000000	8.550067
2068.000000	8.571175
2069.000000	8.605017
2070.000000	8.655642
2071.000000	8.755098
2072.000000	8.797987
2073.000000	8.806919
2074.000000	8.860149
2075.000000	8.883573
2076.000000	8.911091
2077.000000	8.952507
2078.000000	9.036546
2079.000000	9.067666
2080.000000	9.081385
2081.000000	9.136053
2082.000000	9.149726
2083.000000	9.132098
2084.000000	9.137484
2085.000000	9.137080
2086.000000	9.152091
2087.000000	9.212196
2088.000000	9.234985
2089.000000	9.193279
2090.000000	9.195713
2091.000000	9.189648
2092.000000	9.215144
2093.000000	9.234263
2094.000000	9.177947
2095.000000	9.160660
2096.000000	9.140592
2097.000000	9.207839
2098.000000	9.169096
2099.000000	9.261939
2100.000000	9.357794
2101.000000	9.327176
2102.000000	9.282841
2103.000000	9.227668
2104.000000	9.191908
2105.000000	9.219190
2106.000000	9.410376
2107.000000	9.495489
2108.000000	9.446603
2109.000000	9.358066
2110.000000	9.368500
2111.000000	9.374555
2112.000000	9.410810
2113.000000	9.391526
2114.000000	9.329489
2115.000000	9.382076
2116.000000	9.398832
2117.000000	9.370447
2118.000000	9.377848
2119.000000	9.337627
2120.000000	9.349047
2121.000000	9.296270
2122.000000	9.240619
2123.000000	9.365056
2124.000000	9.503446
2125.000000	9.345190
2126.000000	9.325182
2127.000000	9.369930
2128.000000	9.304908
2129.000000	9.367107
2130.000000	9.311813
2131.000000	9.229660
2132.000000	9.222487
2133.000000	9.097970
2134.000000	9.114396
2135.000000	9.153036
2136.000000	9.098361
2137.000000	8.981145
2138.000000	9.018913
2139.000000	9.081257
2140.000000	9.114312
2141.000000	8.757688
2142.000000	8.686865
2143.000000	8.743839
2144.000000	8.665302
2145.000000	8.505788
2146.000000	8.700152
2147.000000	8.578695
2148.000000	8.614001
2149.000000	8.529247
2150.000000	8.594152
2151.000000	8.437733
2152.000000	8.305477
2153.000000	8.263455
2154.000000	8.156212
2155.000000	8.184769
2156.000000	8.200549
2157.000000	8.245251
2158.000000	8.316463
2159.000000	8.231546
2160.000000	8.154189
2161.000000	8.147402
2162.000000	7.995966
2163.000000	8.028657
2164.000000	7.884662
2165.000000	7.932373
2166.000000	7.836201
2167.000000	7.882185
2168.000000	7.833664
2169.000000	7.827853
2170.000000	7.821518
2171.000000	7.833654
2172.000000	7.681446
2173.000000	7.803884
2174.000000	7.873533
2175.000000	7.761052
2176.000000	7.699471
2177.000000	7.770997
2178.000000	7.797688
2179.000000	7.724897
2180.000000	7.783989
2181.000000	7.897056
2182.000000	7.717970
2183.000000	7.748795
2184.000000	7.902915
2185.000000	7.908421
2186.000000	7.741228
2187.000000	7.965489
2188.000000	7.867400
2189.000000	7.850850
2190.000000	7.796131
2191.000000	7.834362
2192.000000	7.850059
2193.000000	7.904485
2194.000000	7.798797
2195.000000	8.045553
2196.000000	8.104191
2197.000000	8.101326
2198.000000	7.870226
2199.000000	7.936564
2200.000000	8.017264
2201.000000	8.190014
2202.000000	8.037893
2203.000000	8.273649
2204.000000	8.223536
2205.000000	8.009897
2206.000000	8.134227
2207.000000	8.196995
2208.000000	8.261612
2209.000000	8.326566
2210.000000	8.360768
2211.000000	8.262326
2212.000000	8.376760
2213.000000	8.241343
2214.000000	8.260996
2215.000000	8.254376
2216.000000	8.541922
2217.000000	8.537638
2218.000000	8.631670
2219.000000	8.653133
2220.000000	8.714571
2221.000000	8.712767
2222.000000	8.681488
2223.000000	8.305862
2224.000000	8.553272
2225.000000	8.674934
2226.000000	8.714371
2227.000000	8.692028
2228.000000	8.764421
2229.000000	8.758568
2230.000000	8.712194
2231.000000	8.832887
2232.000000	8.861193
2233.000000	8.887189
2234.000000	8.746030
2235.000000	8.673697
2236.000000	8.731781
2237.000000	8.857930
2238.000000	8.757703
2239.000000	8.598629
2240.000000	8.632562
2241.000000	8.824057
2242.000000	8.732515
2243.000000	8.767995
2244.000000	8.549642
2245.000000	8.501347
2246.000000	8.392164
2247.000000	8.408882
2248.000000	8.494191
2249.000000	8.411898
2250.000000	8.285471
2251.000000	8.246893
2252.000000	8.105887
2253.000000	8.035082
2254.000000	7.955212
2255.000000	8.017692
2256.000000	8.012644
2257.000000	8.084447
2258.000000	8.012236
2259.000000	7.951464
2260.000000	7.844177
2261.000000	7.821954
2262.000000	7.728173
2263.000000	7.704338
2264.000000	7.674623
2265.000000	7.729689
2266.000000	7.610451
2267.000000	7.546828
2268.000000	7.489675
2269.000000	7.563173
2270.000000	7.701191
2271.000000	7.568657
2272.000000	7.466432
2273.000000	7.446930
2274.000000	7.501293
2275.000000	7.595872
2276.000000	7.432325
2277.000000	7.590581
2278.000000	7.551523
2279.000000	7.407838
2280.000000	7.397158
2281.000000	7.517476
2282.000000	7.552972
2283.000000	7.463367
2284.000000	7.585534
2285.000000	7.577604
2286.000000	7.476843
2287.000000	7.497746
2288.000000	7.658950
2289.000000	7.643460
2290.000000	7.626116
2291.000000	7.626795
2292.000000	7.488066
2293.000000	7.543297
2294.000000	7.813961
2295.000000	7.724392
2296.000000	7.558770
2297.000000	7.522736
2298.000000	7.537390
2299.000000	7.480175
2300.000000	7.622150
2301.000000	7.671185
2302.000000	7.666368
2303.000000	7.783673
2304.000000	7.815088
2305.000000	7.763316
2306.000000	7.655124
2307.000000	7.622270
2308.000000	7.727018
2309.000000	7.814635
2310.000000	7.865865
2311.000000	7.901694
2312.000000	7.877663
2313.000000	7.798317
2314.000000	7.822992
2315.000000	7.856954
2316.000000	7.849056
2317.000000	8.081115
2318.000000	8.115561
2319.000000	8.018140
2320.000000	7.945977
2321.000000	7.927076
2322.000000	8.106535
2323.000000	8.227112
2324.000000	8.346544
2325.000000	8.434981
2326.000000	8.479214
2327.000000	8.247272
2328.000000	8.030120
2329.000000	8.121579
2330.000000	8.237048
2331.000000	8.161547
2332.000000	8.031071
2333.000000	8.183976
2334.000000	8.231035
2335.000000	8.242400
2336.000000	8.214237
2337.000000	8.163092
2338.000000	8.324802
2339.000000	8.277958
2340.000000	8.310217
2341.000000	8.469243
2342.000000	8.625373
2343.000000	8.531002
2344.000000	8.374768
2345.000000	8.524849
2346.000000	8.653401
2347.000000	8.747950
2348.000000	8.781146
2349.000000	8.549743
2350.000000	8.643760
2351.000000	8.560530
2352.000000	8.199748
2353.000000	8.277855
2354.000000	8.656505
2355.000000	8.661195
2356.000000	8.497967
2357.000000	8.612043
2358.000000	8.688562
2359.000000	8.778996
2360.000000	8.898022
2361.000000	9.201554
2362.000000	9.365194
2363.000000	9.228039
2364.000000	9.138852
2365.000000	8.923857
2366.000000	8.871650
2367.000000	8.809529
2368.000000	8.714093
2369.000000	8.951689
2370.000000	9.087824
2371.000000	9.182420
2372.000000	9.034394
2373.000000	8.946888
2374.000000	8.854759
2375.000000	9.063966
2376.000000	9.083578
2377.000000	9.159111
2378.000000	9.087240
2379.000000	8.812199
2380.000000	8.941334
2381.000000	9.235995
2382.000000	9.656126
2383.000000	9.557647
2384.000000	9.374804
2385.000000	9.376125
2386.000000	9.479051
2387.000000	9.621258
2388.000000	9.359356
2389.000000	9.337396
2390.000000	9.344233
2391.000000	9.211455
2392.000000	9.261825
2393.000000	9.357485
2394.000000	9.476114
2395.000000	9.501239
2396.000000	9.599255
2397.000000	9.636039
2398.000000	9.634382
2399.000000	9.474534
2400.000000	9.561334
2401.000000	9.643517
2402.000000	9.389456
2403.000000	9.892644
2404.000000	9.554741
2405.000000	9.650302
2406.000000	9.930083
2407.000000	9.752082
2408.000000	9.795713
2409.000000	9.474285
2410.000000	9.055756
2411.000000	9.595125
2412.000000	9.630038
2413.000000	9.949099
2414.000000	9.580882
2415.000000	9.709447
2416.000000	9.988654
2417.000000	10.271337
2418.000000	9.980839
2419.000000	9.883020
2420.000000	9.889271
2421.000000	9.543526
2422.000000	9.307193
2423.000000	9.712583
2424.000000	10.000502
2425.000000	9.481755
2426.000000	10.082876
2427.000000	9.627097
2428.000000	9.542612
2429.000000	9.759319
2430.000000	9.570547
2431.000000	9.607163
2432.000000	9.465814
2433.000000	10.147520
2434.000000	9.804350
2435.000000	9.910259
2436.000000	9.784395
2437.000000	10.003805
2438.000000	9.872027
2439.000000	10.176821
2440.000000	9.797196
2441.000000	9.936278
2442.000000	9.984233
2443.000000	10.253766
2444.000000	10.396910
2445.000000	9.910994
2446.000000	9.719457
2447.000000	10.316033
2448.000000	10.902374
2449.000000	10.842277
2450.000000	10.045134
2451.000000	10.231828
2452.000000	10.648505
2453.000000	10.446202
2454.000000	10.815348
2455.000000	10.071670
2456.000000	10.586001
2457.000000	10.427512
2458.000000	10.812740
2459.000000	10.650896
2460.000000	11.245225
2461.000000	10.652485
2462.000000	11.428520
2463.000000	11.858764
2464.000000	11.999194
2465.000000	11.951586
2466.000000	12.821869
2467.000000	12.712874
2468.000000	11.921265
2469.000000	12.947771
2470.000000	13.536041
2471.000000	13.534237
2472.000000	13.214583
2473.000000	13.936578
2474.000000	13.700486
2475.000000	14.555796
2476.000000	13.495828
2477.000000	13.919772
2478.000000	15.299052
2479.000000	14.876282
2480.000000	16.130590
2481.000000	16.346817
2482.000000	16.128740
2483.000000	17.400755
2484.000000	16.150902
2485.000000	16.666093
2486.000000	18.006569
2487.000000	18.669681
2488.000000	19.279895
2489.000000	18.238896
2490.000000	16.857574
2491.000000	17.346856
2492.000000	18.077584
2493.000000	18.102108
2494.000000	18.497199
2495.000000	19.739534
2496.000000	21.623358
2497.000000	23.007441
2498.000000	21.321179
2499.000000	22.430177
2500.000000	22.220435
2501.000000	nan
2502.000000	nan
2503.000000	nan
2504.000000	nan
2505.000000	nan
2506.000000	nan
2507.000000	nan
2508.000000	nan
2509.000000	nan
2510.000000	nan
2511.000000	nan
2512.000000	nan
2513.000000	nan
2514.000000	nan
2515.000000	nan
2516.000000	nan
2517.000000	nan
2518.000000	nan
2519.000000	nan
2520.000000	nan
2521.000000	nan
2522.000000	nan
2523.000000	nan
2524.000000	nan
2525.000000	nan
2526.000000	nan
2527.000000	nan
2528.000000	nan
2529.000000	nan
2530.000000	nan
2531.000000	nan
2532.000000	nan
2533.000000	nan
2534.000000	nan
2535.000000	nan
2536.000000	nan
2537.000000	nan
2538.000000	nan
2539.000000	nan
2540.000000	nan
2541.000000	nan
2542.000000	nan
2543.000000	nan
2544.000000	nan
2545.000000	nan
2546.000000	nan
2547.000000	nan
2548.000000	nan
2549.000000	nan
2550.000000	nan
2551.000000	nan
2552.000000	nan
2553.000000	nan
2554.000000	nan
2555.000000	nan
2556.000000	nan
2557.000000	nan
2558.000000	nan
2559.000000	nan
2560.000000	nan
2561.000000	nan
2562.000000	nan
2563.000000	nan
2564.000000	nan
2565.000000	nan
2566.000000	nan
2567.000000	nan
2568.000000	nan
2569.000000	nan
2570.000000	nan
2571.000000	nan
2572.000000	nan
2573.000000	nan
2574.000000	nan
2575.000000	nan
2576.000000	nan
2577.000000	nan
2578.000000	nan
2579.000000	nan
2580.000000	nan
2581.000000	nan
2582.000000	nan
2583.000000	nan
2584.000000	nan
2585.000000	nan
2586.000000	nan
2587.000000	nan
2588.000000	nan
2589.000000	nan
2590.000000	nan
2591.000000	nan
2592.000000	nan
2593.000000	nan
2594.000000	nan
2595.000000	nan
2596.000000	nan
2597.000000	nan
2598.000000	nan
2599.000000	nan
2600.000000	nan
2601.000000	nan
2602.000000	nan
2603.000000	nan
2604.000000	nan
2605.000000	nan
2606.000000	nan
2607.000000	nan
2608.000000	nan
2609.000000	nan
2610.000000	nan
2611.000000	nan
2612.000000	nan
2613.000000	nan
2614.000000	nan
2615.000000	nan
2616.000000	nan
2617.000000	nan
2618.000000	nan
2619.000000	nan
2620.000000	nan
2621.000000	nan
2622.000000	nan
2623.000000	nan
2624.000000	nan
2625.000000	nan
2626.000000	nan
2627.000000	nan
2628.000000	nan
2629.000000	nan
2630.000000	nan
2631.000000	nan
2632.000000	nan
2633.000000	nan
2634.000000	nan
2635.000000	nan
2636.000000	nan
2637.000000	nan
2638.000000	nan
2639.000000	nan
2640.000000	nan
2641.000000	nan
2642.000000	nan
2643.000000	nan
2644.000000	nan
2645.000000	nan
2646.000000	nan
2647.000000	nan
2648.000000	nan
2649.000000	nan
2650.000000	nan
2651.000000	nan
2652.000000	nan
2653.000000	nan
2654.000000	nan
2655.000000	nan
2656.000000	nan
2657.000000	nan
2658.000000	nan
2659.000000	nan
2660.000000	nan
2661.000000	nan
2662.000000	nan
2663.000000	nan
2664.000000	nan
2665.000000	nan
2666.000000	nan
2667.000000	nan
2668.000000	nan
2669.000000	nan
2670.000000	nan
2671.000000	nan
2672.000000	nan
2673.000000	nan
2674.000000	nan
2675.000000	nan
2676.000000	nan
2677.000000	nan
2678.000000	nan
2679.000000	nan
2680.000000	nan
2681.000000	nan
2682.000000	nan
2683.000000	nan
2684.000000	nan
2685.000000	nan
2686.000000	nan
2687.000000	nan
2688.000000	nan
2689.000000	nan
2690.000000	nan
2691.000000	nan
2692.000000	nan
2693.000000	nan
2694.000000	nan
2695.000000	nan
2696.000000	nan
2697.000000	nan
2698.000000	nan
2699.000000	nan
2700.000000	nan
2701.000000	nan
2702.000000	nan
2703.000000	nan
2704.000000	nan
2705.000000	nan
2706.000000	nan
2707.000000	nan
2708.000000	nan
2709.000000	nan
2710.000000	nan
2711.000000	nan
2712.000000	nan
2713.000000	nan
2714.000000	nan
2715.000000	nan
2716.000000	nan
2717.000000	nan
2718.000000	nan
2719.000000	nan
2720.000000	nan
2721.000000	nan
2722.000000	nan
2723.000000	nan
2724.000000	nan
2725.000000	nan
2726.000000	nan
2727.000000	nan
2728.000000	nan
2729.000000	nan
2730.000000	nan
2731.000000	nan
2732.000000	nan
2733.000000	nan
2734.000000	nan
2735.000000	nan
2736.000000	nan
2737.000000	nan
2738.000000	nan
2739.000000	nan
2740.000000	nan
2741.000000	nan
2742.000000	nan
2743.000000	nan
2744.000000	nan
2745.000000	nan
2746.000000	nan
2747.000000	nan
2748.000000	nan
2749.000000	nan
2750.000000	nan
2751.000000	nan
2752.000000	nan
2753.000000	nan
2754.000000	nan
2755.000000	nan
2756.000000	nan
2757.000000	nan
2758.000000	nan
2759.000000	nan
2760.000000	nan
2761.000000	nan
2762.000000	nan
2763.000000	nan
2764.000000	nan
2765.000000	nan
2766.000000	nan
2767.000000	nan
2768.000000	nan
2769.000000	nan
2770.000000	nan
2771.000000	nan
2772.000000	nan
2773.000000	nan
2774.000000	nan
2775.000000	nan
2776.000000	nan
2777.000000	nan
2778.000000	nan
2779.000000	nan
2780.000000	nan
2781.000000	nan
2782.000000	nan
2783.000000	nan
2784.000000	nan
2785.000000	nan
2786.000000	nan
2787.000000	nan
2788.000000	nan
2789.000000	nan
2790.000000	nan
2791.000000	nan
2792.000000	nan
2793.000000	nan
2794.000000	nan
2795.000000	nan
2796.000000	nan
2797.000000	nan
2798.000000	nan
2799.000000	nan
2800.000000	nan
2801.000000	nan
2802.000000	nan
2803.000000	nan
2804.000000	nan
2805.000000	nan
2806.000000	nan
2807.000000	nan
2808.000000	nan
2809.000000	nan
2810.000000	nan
2811.000000	nan
2812.000000	nan
2813.000000	nan
2814.000000	nan
2815.000000	nan
2816.000000	nan
2817.000000	nan
2818.000000	nan
2819.000000	nan
2820.000000	nan
2821.000000	nan
2822.000000	nan
2823.000000	nan
2824.000000	nan
2825.000000	nan
2826.000000	nan
2827.000000	nan
2828.000000	nan
2829.000000	nan
2830.000000	nan
2831.000000	nan
2832.000000	nan
2833.000000	nan
2834.000000	nan
2835.000000	nan
2836.000000	nan
2837.000000	nan
2838.000000	nan
2839.000000	nan
2840.000000	nan
2841.000000	nan
2842.000000	nan
2843.000000	nan
2844.000000	nan
2845.000000	nan
2846.000000	nan
2847.000000	nan
2848.000000	nan
2849.000000	nan
2850.000000	nan
2851.000000	nan
2852.000000	nan
2853.000000	nan
2854.000000	nan
2855.000000	nan
2856.000000	nan
2857.000000	nan
2858.000000	nan
2859.000000	nan
2860.000000	nan
2861.000000	nan
2862.000000	nan
2863.000000	nan
2864.000000	nan
2865.000000	nan
2866.000000	nan
2867.000000	nan
2868.000000	nan
2869.000000	nan
2870.000000	nan
2871.000000	nan
2872.000000	nan
2873.000000	nan
2874.000000	nan
2875.000000	nan
2876.000000	nan
2877.000000	nan
2878.000000	nan
2879.000000	nan
2880.000000	nan
2881.000000	nan
2882.000000	nan
2883.000000	nan
2884.000000	nan
2885.000000	nan
2886.000000	nan
2887.000000	nan
2888.000000	nan
2889.000000	nan
2890.000000	nan
2891.000000	nan
2892.000000	nan
2893.000000	nan
2894.000000	nan
2895.000000	nan
2896.000000	nan
2897.000000	nan
2898.000000	nan
2899.000000	nan
2900.000000	nan
2901.000000	nan
2902.000000	nan
2903.000000	nan
2904.000000	nan
2905.000000	nan
2906.000000	nan
2907.000000	nan
2908.000000	nan
2909.000000	nan
2910.000000	nan
2911.000000	nan
2912.000000	nan
2913.000000	nan
2914.000000	nan
2915.000000	nan
2916.000000	nan
2917.000000	nan
2918.000000	nan
2919.000000	nan
2920.000000	nan
2921.000000	nan
2922.000000	nan
2923.000000	nan
2924.000000	nan
2925.000000	nan
2926.000000	nan
2927.000000	nan
2928.000000	nan
2929.000000	nan
2930.000000	nan
2931.000000	nan
2932.000000	nan
2933.000000	nan
2934.000000	nan
2935.000000	nan
2936.000000	nan
2937.000000	nan
2938.000000	nan
2939.000000	nan
2940.000000	nan
2941.000000	nan
2942.000000	nan
2943.000000	nan
2944.000000	nan
2945.000000	nan
2946.000000	nan
2947.000000	nan
2948.000000	nan
2949.000000	nan
2950.000000	nan
2951.000000	nan
2952.000000	nan
2953.000000	nan
2954.000000	nan
2955.000000	nan
2956.000000	nan
2957.000000	nan
2958.000000	nan
2959.000000	nan
2960.000000	nan
2961.000000	nan
2962.000000	nan
2963.000000	nan
2964.000000	nan
2965.000000	nan
2966.000000	nan
2967.000000	nan
2968.000000	nan
2969.000000	nan
2970.000000	nan
2971.000000	nan
2972.000000	nan
2973.000000	nan
2974.000000	nan
2975.000000	nan
2976.000000	nan
2977.000000	nan
2978.000000	nan
2979.000000	nan
2980.000000	nan
2981.000000	nan
2982.000000	nan
2983.000000	nan
2984.000000	nan
2985.000000	nan
2986.000000	nan
2987.000000	nan
2988.000000	nan
2989.000000	nan
2990.000000	nan
2991.000000	nan
2992.000000	nan
2993.000000	nan
2994.000000	nan
2995.000000	nan
2996.000000	nan
2997.000000	nan
2998.000000	nan
2999.000000	nan
3000.000000	nan
