PE UV       SUBTECH     SPECTRUM    ASCII       PEDS        4.00        
   -1
INBUCR0211-4.Sample.ASC
24/02/07
16:05:32.00
24/02/07
16:05:32.00
Vinicio Soto Monge
C211 M. E. Tricolor Esc Verde Grande
250,000000
1
Lambda 1050
1050L1511233
PerkinElmer UV WinLab 6.3.2.0749 / 2.02.05 Lambda 900 UV/VIS/NIR, Aug  7 2015 09:38:08

0
0
3350/servo 860,8/2
0
0
UV/VIS
1
1
1
DoubleDePol,CommonBeamDepol,RBeamAtt,SBeamAtt,60mm sphere, WB InGaAs Detector
0
0
0
0
Program
Program
3350/servo 860,8/2
3350/0,2 860,8/0,2
3350/0,2 860,8/0,2
0
15.00
 
 
 
0
 
860,8
319,2
860,8
Front
100
on
S:100 R:100
0
0
0
0
 
0
 
 
 
0
 
 
0
0
0
0
0
 
 
 
 
0
0


0
0
#HDR
-1
-1
#GR
nm
%R
1.0
0.0
2500,000000
-1,000000
2251
8
12,188600
1,285000
#DATA

250.000000	3.109619
251.000000	3.088511
252.000000	3.086001
253.000000	3.086169
254.000000	3.079857
255.000000	3.058318
256.000000	3.034782
257.000000	3.021284
258.000000	3.025213
259.000000	3.009386
260.000000	3.000651
261.000000	2.980885
262.000000	2.955446
263.000000	2.940161
264.000000	2.911461
265.000000	2.897285
266.000000	2.885002
267.000000	2.887876
268.000000	2.865308
269.000000	2.869529
270.000000	2.857956
271.000000	2.869135
272.000000	2.834192
273.000000	2.831090
274.000000	2.834232
275.000000	2.800284
276.000000	2.820331
277.000000	2.786545
278.000000	2.803978
279.000000	2.795827
280.000000	2.792139
281.000000	2.782617
282.000000	2.780976
283.000000	2.762084
284.000000	2.744835
285.000000	2.745941
286.000000	2.754984
287.000000	2.743646
288.000000	2.751091
289.000000	2.751071
290.000000	2.726582
291.000000	2.733240
292.000000	2.725074
293.000000	2.731037
294.000000	2.722339
295.000000	2.689034
296.000000	2.706859
297.000000	2.678106
298.000000	2.676514
299.000000	2.693100
300.000000	2.695207
301.000000	2.681720
302.000000	2.676157
303.000000	2.688989
304.000000	2.669744
305.000000	2.683897
306.000000	2.646457
307.000000	2.670970
308.000000	2.654090
309.000000	2.665374
310.000000	2.642150
311.000000	2.660626
312.000000	2.644519
313.000000	2.643684
314.000000	2.650359
315.000000	2.671658
316.000000	2.653553
317.000000	2.701848
318.000000	2.777460
319.000000	2.682953
320.000000	2.670654
321.000000	2.623810
322.000000	2.618694
323.000000	2.698594
324.000000	2.624146
325.000000	2.562196
326.000000	2.582512
327.000000	2.642005
328.000000	2.633158
329.000000	2.619668
330.000000	2.639602
331.000000	2.598886
332.000000	2.542627
333.000000	2.553293
334.000000	2.564242
335.000000	2.574858
336.000000	2.560569
337.000000	2.573786
338.000000	2.558135
339.000000	2.552613
340.000000	2.577286
341.000000	2.542140
342.000000	2.599342
343.000000	2.545948
344.000000	2.552290
345.000000	2.549375
346.000000	2.592607
347.000000	2.579590
348.000000	2.558175
349.000000	2.550710
350.000000	2.544461
351.000000	2.536165
352.000000	2.560625
353.000000	2.554594
354.000000	2.543956
355.000000	2.539378
356.000000	2.516938
357.000000	2.548052
358.000000	2.597741
359.000000	2.579143
360.000000	2.564605
361.000000	2.562081
362.000000	2.550698
363.000000	2.551140
364.000000	2.560228
365.000000	2.573996
366.000000	2.563061
367.000000	2.590544
368.000000	2.587506
369.000000	2.621667
370.000000	2.632844
371.000000	2.634390
372.000000	2.635290
373.000000	2.620137
374.000000	2.651277
375.000000	2.635765
376.000000	2.693010
377.000000	2.755436
378.000000	2.770552
379.000000	2.792336
380.000000	2.814533
381.000000	2.831375
382.000000	2.849969
383.000000	2.874354
384.000000	2.900801
385.000000	2.933217
386.000000	2.951258
387.000000	2.981036
388.000000	3.015626
389.000000	3.044026
390.000000	3.074323
391.000000	3.112663
392.000000	3.153030
393.000000	3.187887
394.000000	3.229024
395.000000	3.270239
396.000000	3.313388
397.000000	3.358815
398.000000	3.404446
399.000000	3.448801
400.000000	3.492470
401.000000	3.536698
402.000000	3.581038
403.000000	3.631510
404.000000	3.684531
405.000000	3.734289
406.000000	3.782203
407.000000	3.833125
408.000000	3.882424
409.000000	3.937687
410.000000	3.989543
411.000000	4.042266
412.000000	4.094112
413.000000	4.143390
414.000000	4.193671
415.000000	4.243762
416.000000	4.292005
417.000000	4.340087
418.000000	4.384266
419.000000	4.430690
420.000000	4.474254
421.000000	4.517483
422.000000	4.565510
423.000000	4.609394
424.000000	4.642385
425.000000	4.673876
426.000000	4.710262
427.000000	4.747622
428.000000	4.782366
429.000000	4.813348
430.000000	4.842787
431.000000	4.867934
432.000000	4.882732
433.000000	4.902578
434.000000	4.928452
435.000000	4.944296
436.000000	4.963491
437.000000	4.984544
438.000000	4.990829
439.000000	4.997593
440.000000	5.006788
441.000000	5.009350
442.000000	5.009483
443.000000	5.014943
444.000000	5.019643
445.000000	5.013303
446.000000	5.006650
447.000000	4.999732
448.000000	4.988993
449.000000	4.980527
450.000000	4.965913
451.000000	4.956319
452.000000	4.943173
453.000000	4.929261
454.000000	4.911445
455.000000	4.896279
456.000000	4.884636
457.000000	4.867020
458.000000	4.847424
459.000000	4.831568
460.000000	4.814326
461.000000	4.801655
462.000000	4.783560
463.000000	4.763115
464.000000	4.745765
465.000000	4.735915
466.000000	4.722046
467.000000	4.708294
468.000000	4.697022
469.000000	4.690443
470.000000	4.688646
471.000000	4.681768
472.000000	4.679383
473.000000	4.678054
474.000000	4.681405
475.000000	4.686968
476.000000	4.694080
477.000000	4.706360
478.000000	4.721363
479.000000	4.743048
480.000000	4.766249
481.000000	4.799151
482.000000	4.834086
483.000000	4.871937
484.000000	4.903892
485.000000	4.930241
486.000000	4.972077
487.000000	5.017438
488.000000	5.067558
489.000000	5.115892
490.000000	5.176199
491.000000	5.241701
492.000000	5.318064
493.000000	5.391355
494.000000	5.480449
495.000000	5.578808
496.000000	5.677290
497.000000	5.780078
498.000000	5.900181
499.000000	6.025344
500.000000	6.160114
501.000000	6.296931
502.000000	6.449994
503.000000	6.609839
504.000000	6.781352
505.000000	6.960886
506.000000	7.156831
507.000000	7.357486
508.000000	7.575809
509.000000	7.803003
510.000000	8.038082
511.000000	8.282414
512.000000	8.545530
513.000000	8.808398
514.000000	9.090115
515.000000	9.384586
516.000000	9.677984
517.000000	9.987295
518.000000	10.309379
519.000000	10.656008
520.000000	11.022834
521.000000	11.394692
522.000000	11.773589
523.000000	12.145565
524.000000	12.498103
525.000000	12.840782
526.000000	13.157040
527.000000	13.450673
528.000000	13.734322
529.000000	14.019891
530.000000	14.306255
531.000000	14.602142
532.000000	14.892962
533.000000	15.189354
534.000000	15.472820
535.000000	15.734939
536.000000	15.972386
537.000000	16.166031
538.000000	16.345025
539.000000	16.494165
540.000000	16.624963
541.000000	16.739162
542.000000	16.838259
543.000000	16.943070
544.000000	17.021519
545.000000	17.104337
546.000000	17.180471
547.000000	17.246860
548.000000	17.299571
549.000000	17.343788
550.000000	17.391903
551.000000	17.424120
552.000000	17.456494
553.000000	17.483233
554.000000	17.511616
555.000000	17.528251
556.000000	17.547913
557.000000	17.562914
558.000000	17.558514
559.000000	17.555749
560.000000	17.632513
561.000000	17.633127
562.000000	17.611223
563.000000	17.597000
564.000000	17.569329
565.000000	17.522433
566.000000	17.469149
567.000000	17.412880
568.000000	17.348378
569.000000	17.254823
570.000000	17.167464
571.000000	17.070391
572.000000	16.957473
573.000000	16.845332
574.000000	16.734020
575.000000	16.603065
576.000000	16.468137
577.000000	16.323326
578.000000	16.176143
579.000000	16.022444
580.000000	15.856475
581.000000	15.701471
582.000000	15.541324
583.000000	15.386238
584.000000	15.211697
585.000000	15.044888
586.000000	14.891153
587.000000	14.719972
588.000000	14.568614
589.000000	14.435508
590.000000	14.338474
591.000000	14.257078
592.000000	14.179237
593.000000	14.128831
594.000000	14.084270
595.000000	14.037640
596.000000	13.964482
597.000000	13.897525
598.000000	13.820467
599.000000	13.724506
600.000000	13.608401
601.000000	13.491613
602.000000	13.393269
603.000000	13.314130
604.000000	13.245363
605.000000	13.188038
606.000000	13.152810
607.000000	13.137008
608.000000	13.121216
609.000000	13.109581
610.000000	13.090265
611.000000	13.067028
612.000000	13.042827
613.000000	13.021141
614.000000	12.987808
615.000000	12.960058
616.000000	12.920936
617.000000	12.901285
618.000000	12.892370
619.000000	12.892964
620.000000	12.904423
621.000000	12.928716
622.000000	12.953398
623.000000	12.971507
624.000000	13.014287
625.000000	13.044933
626.000000	13.079753
627.000000	13.133250
628.000000	13.171142
629.000000	13.209791
630.000000	13.257715
631.000000	13.315517
632.000000	13.375120
633.000000	13.439827
634.000000	13.503964
635.000000	13.576668
636.000000	13.644100
637.000000	13.727564
638.000000	13.808935
639.000000	13.895380
640.000000	13.990552
641.000000	14.085572
642.000000	14.188866
643.000000	14.282556
644.000000	14.396501
645.000000	14.497667
646.000000	14.602665
647.000000	14.710455
648.000000	14.797899
649.000000	14.898455
650.000000	15.000224
651.000000	15.113112
652.000000	15.211916
653.000000	15.314145
654.000000	15.426350
655.000000	15.546234
656.000000	15.657156
657.000000	15.766890
658.000000	15.877765
659.000000	15.983063
660.000000	16.100084
661.000000	16.205920
662.000000	16.323857
663.000000	16.437033
664.000000	16.536156
665.000000	16.627016
666.000000	16.748426
667.000000	16.840488
668.000000	16.930368
669.000000	17.031235
670.000000	17.128505
671.000000	17.223276
672.000000	17.325496
673.000000	17.432213
674.000000	17.520287
675.000000	17.617506
676.000000	17.724395
677.000000	17.811074
678.000000	17.896123
679.000000	17.980245
680.000000	18.061918
681.000000	18.146567
682.000000	18.230822
683.000000	18.302242
684.000000	18.385107
685.000000	18.459455
686.000000	18.533888
687.000000	18.623711
688.000000	18.692896
689.000000	18.771156
690.000000	18.842285
691.000000	18.903574
692.000000	18.968544
693.000000	19.035616
694.000000	19.099399
695.000000	19.169610
696.000000	19.214497
697.000000	19.275834
698.000000	19.354632
699.000000	19.410204
700.000000	19.452410
701.000000	19.516852
702.000000	19.568447
703.000000	19.640988
704.000000	19.696397
705.000000	19.747185
706.000000	19.802895
707.000000	19.858067
708.000000	19.912119
709.000000	19.956155
710.000000	20.010557
711.000000	20.064879
712.000000	20.087350
713.000000	20.131310
714.000000	20.170968
715.000000	20.211532
716.000000	20.266987
717.000000	20.297546
718.000000	20.323080
719.000000	20.378429
720.000000	20.427903
721.000000	20.467401
722.000000	20.512992
723.000000	20.537404
724.000000	20.576759
725.000000	20.645884
726.000000	20.687444
727.000000	20.705693
728.000000	20.722532
729.000000	20.747054
730.000000	20.773903
731.000000	20.805743
732.000000	20.821169
733.000000	20.844374
734.000000	20.889207
735.000000	20.906506
736.000000	20.942603
737.000000	20.980134
738.000000	20.995385
739.000000	21.033192
740.000000	21.067760
741.000000	21.084083
742.000000	21.096692
743.000000	21.119720
744.000000	21.148626
745.000000	21.167511
746.000000	21.187796
747.000000	21.192555
748.000000	21.212205
749.000000	21.216488
750.000000	21.229896
751.000000	21.257606
752.000000	21.279620
753.000000	21.296859
754.000000	21.305303
755.000000	21.320603
756.000000	21.359174
757.000000	21.367816
758.000000	21.390799
759.000000	21.394999
760.000000	21.393952
761.000000	21.406376
762.000000	21.430516
763.000000	21.445552
764.000000	21.451839
765.000000	21.457822
766.000000	21.452549
767.000000	21.469894
768.000000	21.500868
769.000000	21.494164
770.000000	21.509450
771.000000	21.503277
772.000000	21.522853
773.000000	21.527480
774.000000	21.561752
775.000000	21.575146
776.000000	21.604133
777.000000	21.610102
778.000000	21.631968
779.000000	21.610309
780.000000	21.614639
781.000000	21.629068
782.000000	21.642932
783.000000	21.675618
784.000000	21.700218
785.000000	21.695492
786.000000	21.714840
787.000000	21.746096
788.000000	21.717490
789.000000	21.707062
790.000000	21.735852
791.000000	21.750030
792.000000	21.740161
793.000000	21.777917
794.000000	21.818992
795.000000	21.814081
796.000000	21.832456
797.000000	21.846101
798.000000	21.861914
799.000000	21.904064
800.000000	21.876316
801.000000	21.896850
802.000000	21.921568
803.000000	21.914818
804.000000	21.922982
805.000000	21.973425
806.000000	21.953582
807.000000	21.989002
808.000000	21.954729
809.000000	21.995882
810.000000	21.986113
811.000000	22.008181
812.000000	21.983608
813.000000	22.049619
814.000000	22.053719
815.000000	22.025611
816.000000	22.077207
817.000000	22.075448
818.000000	22.078212
819.000000	22.055998
820.000000	22.096069
821.000000	22.132996
822.000000	22.125093
823.000000	22.154856
824.000000	22.159410
825.000000	22.160817
826.000000	22.138462
827.000000	22.126123
828.000000	22.134593
829.000000	22.133135
830.000000	22.131013
831.000000	22.179664
832.000000	22.203344
833.000000	22.185253
834.000000	22.206093
835.000000	22.187855
836.000000	22.178455
837.000000	22.214362
838.000000	22.226432
839.000000	22.201108
840.000000	22.202476
841.000000	22.183434
842.000000	22.246702
843.000000	22.215202
844.000000	22.184508
845.000000	22.225478
846.000000	22.124954
847.000000	22.205600
848.000000	22.181246
849.000000	22.099581
850.000000	22.202539
851.000000	22.322166
852.000000	22.190385
853.000000	22.179316
854.000000	22.259628
855.000000	22.064008
856.000000	22.294829
857.000000	22.098171
858.000000	22.009989
859.000000	22.302178
860.000000	22.626646
861.000000	22.308748
862.000000	22.306310
863.000000	22.116673
864.000000	21.862373
865.000000	22.400702
866.000000	22.163437
867.000000	22.301146
868.000000	22.076451
869.000000	22.175623
870.000000	22.126404
871.000000	22.362070
872.000000	22.200466
873.000000	21.956255
874.000000	22.015600
875.000000	22.252569
876.000000	22.172205
877.000000	21.971210
878.000000	21.960157
879.000000	21.856239
880.000000	21.967352
881.000000	22.039405
882.000000	22.056208
883.000000	21.896606
884.000000	21.788652
885.000000	21.695986
886.000000	21.903096
887.000000	21.919421
888.000000	21.652066
889.000000	21.642951
890.000000	21.717881
891.000000	21.640794
892.000000	21.689611
893.000000	21.703539
894.000000	21.526612
895.000000	21.548234
896.000000	21.568037
897.000000	21.615537
898.000000	21.413905
899.000000	21.373634
900.000000	21.539095
901.000000	21.430051
902.000000	21.507097
903.000000	21.457224
904.000000	21.378598
905.000000	21.294256
906.000000	21.483642
907.000000	21.413336
908.000000	21.337492
909.000000	21.241626
910.000000	21.300804
911.000000	21.327401
912.000000	21.410193
913.000000	21.357413
914.000000	21.284279
915.000000	21.252102
916.000000	21.289587
917.000000	21.259267
918.000000	21.240844
919.000000	21.187508
920.000000	21.248391
921.000000	21.255478
922.000000	21.251346
923.000000	21.247840
924.000000	21.141352
925.000000	21.210265
926.000000	21.234987
927.000000	21.236126
928.000000	21.187602
929.000000	21.180476
930.000000	21.168997
931.000000	21.176321
932.000000	21.176326
933.000000	21.179106
934.000000	21.180252
935.000000	21.148087
936.000000	21.153157
937.000000	21.187440
938.000000	21.210368
939.000000	21.159229
940.000000	21.232126
941.000000	21.236707
942.000000	21.213538
943.000000	21.207044
944.000000	21.212568
945.000000	21.218547
946.000000	21.273846
947.000000	21.321544
948.000000	21.291928
949.000000	21.253070
950.000000	21.290770
951.000000	21.334272
952.000000	21.350426
953.000000	21.362851
954.000000	21.338846
955.000000	21.358211
956.000000	21.426903
957.000000	21.442963
958.000000	21.439368
959.000000	21.440551
960.000000	21.493477
961.000000	21.552598
962.000000	21.579672
963.000000	21.582540
964.000000	21.599733
965.000000	21.622248
966.000000	21.651520
967.000000	21.667525
968.000000	21.702479
969.000000	21.712698
970.000000	21.739078
971.000000	21.784540
972.000000	21.813870
973.000000	21.842754
974.000000	21.876853
975.000000	21.890833
976.000000	21.938323
977.000000	21.987436
978.000000	22.008758
979.000000	22.029467
980.000000	22.076023
981.000000	22.129141
982.000000	22.148694
983.000000	22.155569
984.000000	22.180326
985.000000	22.235487
986.000000	22.277713
987.000000	22.312206
988.000000	22.335224
989.000000	22.362957
990.000000	22.391042
991.000000	22.455301
992.000000	22.506956
993.000000	22.524485
994.000000	22.541088
995.000000	22.598213
996.000000	22.654932
997.000000	22.685935
998.000000	22.697946
999.000000	22.735267
1000.000000	22.793737
1001.000000	22.840482
1002.000000	22.872840
1003.000000	22.898836
1004.000000	22.931836
1005.000000	22.982750
1006.000000	23.041032
1007.000000	23.084497
1008.000000	23.117981
1009.000000	23.148924
1010.000000	23.201830
1011.000000	23.255357
1012.000000	23.290587
1013.000000	23.331503
1014.000000	23.369402
1015.000000	23.414629
1016.000000	23.470917
1017.000000	23.511313
1018.000000	23.549194
1019.000000	23.585875
1020.000000	23.639194
1021.000000	23.698122
1022.000000	23.735838
1023.000000	23.763823
1024.000000	23.809606
1025.000000	23.876521
1026.000000	23.928022
1027.000000	23.973473
1028.000000	24.010846
1029.000000	24.053977
1030.000000	24.113462
1031.000000	24.163508
1032.000000	24.208199
1033.000000	24.244150
1034.000000	24.287273
1035.000000	24.344385
1036.000000	24.399859
1037.000000	24.436779
1038.000000	24.466729
1039.000000	24.509505
1040.000000	24.572944
1041.000000	24.632865
1042.000000	24.666350
1043.000000	24.697454
1044.000000	24.739504
1045.000000	24.817840
1046.000000	24.870047
1047.000000	24.900420
1048.000000	24.945646
1049.000000	24.988627
1050.000000	25.045856
1051.000000	25.094706
1052.000000	25.144441
1053.000000	25.181206
1054.000000	25.220990
1055.000000	25.271132
1056.000000	25.324018
1057.000000	25.362312
1058.000000	25.412391
1059.000000	25.457867
1060.000000	25.521984
1061.000000	25.560586
1062.000000	25.609359
1063.000000	25.643071
1064.000000	25.698950
1065.000000	25.743710
1066.000000	25.789446
1067.000000	25.823917
1068.000000	25.854741
1069.000000	25.920611
1070.000000	25.972420
1071.000000	26.004932
1072.000000	26.061668
1073.000000	26.095629
1074.000000	26.156772
1075.000000	26.215251
1076.000000	26.250827
1077.000000	26.282643
1078.000000	26.322671
1079.000000	26.362676
1080.000000	26.410159
1081.000000	26.459283
1082.000000	26.485836
1083.000000	26.530264
1084.000000	26.593871
1085.000000	26.630430
1086.000000	26.668808
1087.000000	26.694407
1088.000000	26.749979
1089.000000	26.797871
1090.000000	26.839050
1091.000000	26.873606
1092.000000	26.909359
1093.000000	26.949507
1094.000000	26.998641
1095.000000	27.029039
1096.000000	27.076910
1097.000000	27.111384
1098.000000	27.146684
1099.000000	27.189816
1100.000000	27.235005
1101.000000	27.265630
1102.000000	27.297885
1103.000000	27.325112
1104.000000	27.369608
1105.000000	27.414080
1106.000000	27.452655
1107.000000	27.484679
1108.000000	27.514993
1109.000000	27.556221
1110.000000	27.588946
1111.000000	27.619335
1112.000000	27.646957
1113.000000	27.672403
1114.000000	27.721295
1115.000000	27.750851
1116.000000	27.765054
1117.000000	27.793681
1118.000000	27.819083
1119.000000	27.853105
1120.000000	27.869984
1121.000000	27.901627
1122.000000	27.908626
1123.000000	27.919099
1124.000000	27.944055
1125.000000	27.974566
1126.000000	27.963750
1127.000000	27.982465
1128.000000	27.972524
1129.000000	27.975364
1130.000000	27.986957
1131.000000	28.008037
1132.000000	27.999517
1133.000000	28.012627
1134.000000	27.995184
1135.000000	27.966777
1136.000000	27.966762
1137.000000	27.968910
1138.000000	27.965953
1139.000000	27.981557
1140.000000	27.971831
1141.000000	27.953582
1142.000000	27.959074
1143.000000	27.969826
1144.000000	27.980308
1145.000000	27.975409
1146.000000	27.951543
1147.000000	27.949270
1148.000000	27.934742
1149.000000	27.935886
1150.000000	27.924394
1151.000000	27.922283
1152.000000	27.894289
1153.000000	27.884708
1154.000000	27.874767
1155.000000	27.859130
1156.000000	27.829005
1157.000000	27.824706
1158.000000	27.795216
1159.000000	27.765908
1160.000000	27.725187
1161.000000	27.716360
1162.000000	27.677983
1163.000000	27.662695
1164.000000	27.646195
1165.000000	27.606387
1166.000000	27.578155
1167.000000	27.559162
1168.000000	27.537969
1169.000000	27.521542
1170.000000	27.508665
1171.000000	27.494740
1172.000000	27.475963
1173.000000	27.460140
1174.000000	27.460438
1175.000000	27.453997
1176.000000	27.439499
1177.000000	27.438346
1178.000000	27.424414
1179.000000	27.424346
1180.000000	27.430290
1181.000000	27.417934
1182.000000	27.425292
1183.000000	27.443827
1184.000000	27.450415
1185.000000	27.467370
1186.000000	27.476780
1187.000000	27.516356
1188.000000	27.538937
1189.000000	27.571431
1190.000000	27.615625
1191.000000	27.644151
1192.000000	27.683889
1193.000000	27.733022
1194.000000	27.766221
1195.000000	27.818617
1196.000000	27.854239
1197.000000	27.895396
1198.000000	27.934039
1199.000000	27.974190
1200.000000	28.012431
1201.000000	28.057473
1202.000000	28.101917
1203.000000	28.149465
1204.000000	28.172776
1205.000000	28.211432
1206.000000	28.235641
1207.000000	28.274378
1208.000000	28.299181
1209.000000	28.323944
1210.000000	28.360479
1211.000000	28.397374
1212.000000	28.427448
1213.000000	28.450293
1214.000000	28.477963
1215.000000	28.520853
1216.000000	28.559748
1217.000000	28.592734
1218.000000	28.613072
1219.000000	28.624493
1220.000000	28.659504
1221.000000	28.694376
1222.000000	28.724865
1223.000000	28.760575
1224.000000	28.789557
1225.000000	28.822777
1226.000000	28.867931
1227.000000	28.905004
1228.000000	28.929672
1229.000000	28.959880
1230.000000	28.984883
1231.000000	29.016457
1232.000000	29.050268
1233.000000	29.081031
1234.000000	29.108211
1235.000000	29.145236
1236.000000	29.168777
1237.000000	29.197721
1238.000000	29.230346
1239.000000	29.255982
1240.000000	29.286459
1241.000000	29.324113
1242.000000	29.355628
1243.000000	29.374599
1244.000000	29.399085
1245.000000	29.434903
1246.000000	29.470491
1247.000000	29.497249
1248.000000	29.511360
1249.000000	29.530904
1250.000000	29.558250
1251.000000	29.583926
1252.000000	29.598019
1253.000000	29.620876
1254.000000	29.642067
1255.000000	29.657772
1256.000000	29.674260
1257.000000	29.683732
1258.000000	29.702169
1259.000000	29.723760
1260.000000	29.732163
1261.000000	29.747232
1262.000000	29.759753
1263.000000	29.765774
1264.000000	29.783803
1265.000000	29.812095
1266.000000	29.832574
1267.000000	29.838407
1268.000000	29.846599
1269.000000	29.869288
1270.000000	29.887306
1271.000000	29.895396
1272.000000	29.905723
1273.000000	29.916167
1274.000000	29.933453
1275.000000	29.959646
1276.000000	29.983572
1277.000000	29.996081
1278.000000	30.008323
1279.000000	30.029312
1280.000000	30.059103
1281.000000	30.081717
1282.000000	30.101193
1283.000000	30.121040
1284.000000	30.142603
1285.000000	30.161631
1286.000000	30.177155
1287.000000	30.190459
1288.000000	30.203807
1289.000000	30.220283
1290.000000	30.233567
1291.000000	30.250119
1292.000000	30.265000
1293.000000	30.279594
1294.000000	30.299493
1295.000000	30.310505
1296.000000	30.316422
1297.000000	30.322750
1298.000000	30.328834
1299.000000	30.341301
1300.000000	30.354229
1301.000000	30.353379
1302.000000	30.346888
1303.000000	30.350693
1304.000000	30.362765
1305.000000	30.366779
1306.000000	30.372758
1307.000000	30.375249
1308.000000	30.373012
1309.000000	30.377341
1310.000000	30.374497
1311.000000	30.367000
1312.000000	30.357792
1313.000000	30.353932
1314.000000	30.350325
1315.000000	30.345446
1316.000000	30.338110
1317.000000	30.334848
1318.000000	30.331582
1319.000000	30.318643
1320.000000	30.293622
1321.000000	30.263137
1322.000000	30.249481
1323.000000	30.241029
1324.000000	30.218981
1325.000000	30.189771
1326.000000	30.162098
1327.000000	30.136314
1328.000000	30.106960
1329.000000	30.075063
1330.000000	30.040207
1331.000000	29.993930
1332.000000	29.961853
1333.000000	29.918914
1334.000000	29.868689
1335.000000	29.822011
1336.000000	29.774023
1337.000000	29.727110
1338.000000	29.676586
1339.000000	29.615669
1340.000000	29.550340
1341.000000	29.467592
1342.000000	29.417673
1343.000000	29.361532
1344.000000	29.285790
1345.000000	29.226995
1346.000000	29.167915
1347.000000	29.090750
1348.000000	29.014488
1349.000000	28.964296
1350.000000	28.893053
1351.000000	28.826070
1352.000000	28.779624
1353.000000	28.723172
1354.000000	28.636823
1355.000000	28.563952
1356.000000	28.517050
1357.000000	28.483996
1358.000000	28.457638
1359.000000	28.446015
1360.000000	28.362308
1361.000000	28.243668
1362.000000	28.186028
1363.000000	28.171769
1364.000000	28.100897
1365.000000	28.044886
1366.000000	28.005474
1367.000000	27.930045
1368.000000	27.862962
1369.000000	27.821016
1370.000000	27.729189
1371.000000	27.626774
1372.000000	27.546646
1373.000000	27.491644
1374.000000	27.390255
1375.000000	27.278943
1376.000000	27.200483
1377.000000	27.121136
1378.000000	27.079258
1379.000000	26.980826
1380.000000	26.897335
1381.000000	26.742273
1382.000000	26.635898
1383.000000	26.518088
1384.000000	26.413805
1385.000000	26.310036
1386.000000	26.211616
1387.000000	26.107089
1388.000000	25.957671
1389.000000	25.857379
1390.000000	25.764420
1391.000000	25.630005
1392.000000	25.498538
1393.000000	25.383888
1394.000000	25.253557
1395.000000	25.041352
1396.000000	24.878617
1397.000000	24.803037
1398.000000	24.709979
1399.000000	24.515289
1400.000000	24.306764
1401.000000	24.139152
1402.000000	24.034088
1403.000000	23.866582
1404.000000	23.666131
1405.000000	23.494232
1406.000000	23.344522
1407.000000	23.149905
1408.000000	22.974721
1409.000000	22.772883
1410.000000	22.619113
1411.000000	22.478605
1412.000000	22.327734
1413.000000	22.135115
1414.000000	21.955030
1415.000000	21.822142
1416.000000	21.704755
1417.000000	21.571364
1418.000000	21.407944
1419.000000	21.250320
1420.000000	21.138075
1421.000000	21.030320
1422.000000	20.911393
1423.000000	20.788304
1424.000000	20.667901
1425.000000	20.551007
1426.000000	20.484162
1427.000000	20.378287
1428.000000	20.270293
1429.000000	20.197372
1430.000000	20.118663
1431.000000	20.027019
1432.000000	19.943303
1433.000000	19.865972
1434.000000	19.774925
1435.000000	19.721282
1436.000000	19.652291
1437.000000	19.582113
1438.000000	19.510106
1439.000000	19.452737
1440.000000	19.389573
1441.000000	19.325196
1442.000000	19.264538
1443.000000	19.210623
1444.000000	19.161162
1445.000000	19.096382
1446.000000	19.038759
1447.000000	18.968252
1448.000000	18.929175
1449.000000	18.880045
1450.000000	18.830428
1451.000000	18.771906
1452.000000	18.711734
1453.000000	18.663126
1454.000000	18.618742
1455.000000	18.565834
1456.000000	18.516236
1457.000000	18.463717
1458.000000	18.409541
1459.000000	18.352426
1460.000000	18.320914
1461.000000	18.282532
1462.000000	18.217924
1463.000000	18.163839
1464.000000	18.124649
1465.000000	18.086210
1466.000000	18.045683
1467.000000	18.019451
1468.000000	17.961930
1469.000000	17.919733
1470.000000	17.878494
1471.000000	17.836438
1472.000000	17.791184
1473.000000	17.756438
1474.000000	17.720795
1475.000000	17.706669
1476.000000	17.672083
1477.000000	17.621651
1478.000000	17.590416
1479.000000	17.574125
1480.000000	17.552783
1481.000000	17.533461
1482.000000	17.508014
1483.000000	17.501502
1484.000000	17.485350
1485.000000	17.470002
1486.000000	17.453775
1487.000000	17.439773
1488.000000	17.429244
1489.000000	17.423651
1490.000000	17.417421
1491.000000	17.412939
1492.000000	17.406176
1493.000000	17.415138
1494.000000	17.436612
1495.000000	17.442955
1496.000000	17.446527
1497.000000	17.458945
1498.000000	17.488481
1499.000000	17.504579
1500.000000	17.529441
1501.000000	17.549622
1502.000000	17.559327
1503.000000	17.595252
1504.000000	17.625289
1505.000000	17.664495
1506.000000	17.700500
1507.000000	17.732625
1508.000000	17.772359
1509.000000	17.822000
1510.000000	17.864424
1511.000000	17.895928
1512.000000	17.938627
1513.000000	17.983079
1514.000000	18.024930
1515.000000	18.052511
1516.000000	18.086138
1517.000000	18.130733
1518.000000	18.179362
1519.000000	18.219952
1520.000000	18.262252
1521.000000	18.294626
1522.000000	18.321523
1523.000000	18.367257
1524.000000	18.411762
1525.000000	18.447860
1526.000000	18.469458
1527.000000	18.510796
1528.000000	18.545234
1529.000000	18.573368
1530.000000	18.614578
1531.000000	18.643734
1532.000000	18.685583
1533.000000	18.727981
1534.000000	18.751513
1535.000000	18.775592
1536.000000	18.794629
1537.000000	18.826558
1538.000000	18.865732
1539.000000	18.893433
1540.000000	18.919485
1541.000000	18.947034
1542.000000	18.978207
1543.000000	19.001358
1544.000000	19.038959
1545.000000	19.078940
1546.000000	19.097082
1547.000000	19.131120
1548.000000	19.173140
1549.000000	19.207049
1550.000000	19.234700
1551.000000	19.254761
1552.000000	19.285987
1553.000000	19.324664
1554.000000	19.349695
1555.000000	19.366510
1556.000000	19.395700
1557.000000	19.428310
1558.000000	19.445347
1559.000000	19.458398
1560.000000	19.459973
1561.000000	19.465648
1562.000000	19.483394
1563.000000	19.479048
1564.000000	19.480474
1565.000000	19.470602
1566.000000	19.465858
1567.000000	19.477053
1568.000000	19.476187
1569.000000	19.463840
1570.000000	19.470404
1571.000000	19.467405
1572.000000	19.467228
1573.000000	19.478195
1574.000000	19.471058
1575.000000	19.471843
1576.000000	19.483365
1577.000000	19.495698
1578.000000	19.500088
1579.000000	19.506280
1580.000000	19.524174
1581.000000	19.541559
1582.000000	19.561440
1583.000000	19.581008
1584.000000	19.605465
1585.000000	19.629991
1586.000000	19.658146
1587.000000	19.676946
1588.000000	19.698494
1589.000000	19.723869
1590.000000	19.754783
1591.000000	19.797077
1592.000000	19.821288
1593.000000	19.851557
1594.000000	19.887501
1595.000000	19.918809
1596.000000	19.966048
1597.000000	20.002931
1598.000000	20.031759
1599.000000	20.058867
1600.000000	20.104393
1601.000000	20.148375
1602.000000	20.201181
1603.000000	20.238696
1604.000000	20.264908
1605.000000	20.314443
1606.000000	20.358347
1607.000000	20.389776
1608.000000	20.417406
1609.000000	20.448538
1610.000000	20.483535
1611.000000	20.522837
1612.000000	20.555092
1613.000000	20.584177
1614.000000	20.620546
1615.000000	20.641628
1616.000000	20.666793
1617.000000	20.689443
1618.000000	20.724699
1619.000000	20.749664
1620.000000	20.779306
1621.000000	20.810533
1622.000000	20.821459
1623.000000	20.845688
1624.000000	20.868175
1625.000000	20.892178
1626.000000	20.909664
1627.000000	20.925043
1628.000000	20.937099
1629.000000	20.955364
1630.000000	20.999096
1631.000000	21.022083
1632.000000	21.027268
1633.000000	21.042233
1634.000000	21.052646
1635.000000	21.070491
1636.000000	21.081163
1637.000000	21.085620
1638.000000	21.095814
1639.000000	21.101226
1640.000000	21.108764
1641.000000	21.107337
1642.000000	21.121570
1643.000000	21.115588
1644.000000	21.115230
1645.000000	21.114352
1646.000000	21.111430
1647.000000	21.112033
1648.000000	21.097910
1649.000000	21.089495
1650.000000	21.088235
1651.000000	21.062345
1652.000000	21.031742
1653.000000	21.002103
1654.000000	20.971362
1655.000000	20.941681
1656.000000	20.887117
1657.000000	20.844072
1658.000000	20.791370
1659.000000	20.755208
1660.000000	20.696126
1661.000000	20.646150
1662.000000	20.564648
1663.000000	20.511230
1664.000000	20.445871
1665.000000	20.382013
1666.000000	20.292259
1667.000000	20.200933
1668.000000	20.146829
1669.000000	20.065853
1670.000000	19.968005
1671.000000	19.852101
1672.000000	19.766329
1673.000000	19.681574
1674.000000	19.595700
1675.000000	19.521656
1676.000000	19.420440
1677.000000	19.319060
1678.000000	19.228908
1679.000000	19.137831
1680.000000	19.040718
1681.000000	18.958773
1682.000000	18.876051
1683.000000	18.820660
1684.000000	18.756665
1685.000000	18.688793
1686.000000	18.627812
1687.000000	18.595750
1688.000000	18.568835
1689.000000	18.552809
1690.000000	18.521246
1691.000000	18.506800
1692.000000	18.522971
1693.000000	18.537160
1694.000000	18.546138
1695.000000	18.542204
1696.000000	18.554101
1697.000000	18.549127
1698.000000	18.552887
1699.000000	18.548842
1700.000000	18.534770
1701.000000	18.529592
1702.000000	18.518045
1703.000000	18.500173
1704.000000	18.471688
1705.000000	18.419128
1706.000000	18.370802
1707.000000	18.340924
1708.000000	18.274744
1709.000000	18.193367
1710.000000	18.109781
1711.000000	18.061288
1712.000000	17.996133
1713.000000	17.920049
1714.000000	17.829471
1715.000000	17.729760
1716.000000	17.649798
1717.000000	17.572093
1718.000000	17.515773
1719.000000	17.431030
1720.000000	17.348104
1721.000000	17.309969
1722.000000	17.264282
1723.000000	17.227891
1724.000000	17.179028
1725.000000	17.160113
1726.000000	17.149383
1727.000000	17.142573
1728.000000	17.138403
1729.000000	17.145524
1730.000000	17.170024
1731.000000	17.196818
1732.000000	17.229079
1733.000000	17.252997
1734.000000	17.288378
1735.000000	17.328634
1736.000000	17.385113
1737.000000	17.417990
1738.000000	17.443882
1739.000000	17.484681
1740.000000	17.534339
1741.000000	17.600292
1742.000000	17.633088
1743.000000	17.661531
1744.000000	17.710854
1745.000000	17.762548
1746.000000	17.801006
1747.000000	17.815599
1748.000000	17.840943
1749.000000	17.873643
1750.000000	17.899848
1751.000000	17.907826
1752.000000	17.920401
1753.000000	17.942501
1754.000000	17.979595
1755.000000	17.989111
1756.000000	17.997021
1757.000000	18.003764
1758.000000	18.004850
1759.000000	18.037485
1760.000000	18.047657
1761.000000	18.036048
1762.000000	18.041868
1763.000000	18.075335
1764.000000	18.092279
1765.000000	18.108055
1766.000000	18.119503
1767.000000	18.134083
1768.000000	18.167364
1769.000000	18.198619
1770.000000	18.225356
1771.000000	18.233888
1772.000000	18.242508
1773.000000	18.266745
1774.000000	18.296214
1775.000000	18.319627
1776.000000	18.336976
1777.000000	18.344045
1778.000000	18.364579
1779.000000	18.384096
1780.000000	18.399335
1781.000000	18.405040
1782.000000	18.417632
1783.000000	18.437706
1784.000000	18.436048
1785.000000	18.431649
1786.000000	18.450095
1787.000000	18.472950
1788.000000	18.487934
1789.000000	18.490043
1790.000000	18.473917
1791.000000	18.485555
1792.000000	18.504458
1793.000000	18.514510
1794.000000	18.533639
1795.000000	18.557317
1796.000000	18.578596
1797.000000	18.595844
1798.000000	18.614261
1799.000000	18.624723
1800.000000	18.630426
1801.000000	18.644925
1802.000000	18.660895
1803.000000	18.683817
1804.000000	18.709481
1805.000000	18.727285
1806.000000	18.723609
1807.000000	18.746040
1808.000000	18.786606
1809.000000	18.816425
1810.000000	18.821471
1811.000000	18.822087
1812.000000	18.830601
1813.000000	18.839843
1814.000000	18.859520
1815.000000	18.868486
1816.000000	18.897558
1817.000000	18.951466
1818.000000	18.970865
1819.000000	18.961603
1820.000000	18.927611
1821.000000	18.888521
1822.000000	18.906539
1823.000000	18.967659
1824.000000	19.011502
1825.000000	19.034869
1826.000000	19.030228
1827.000000	19.030792
1828.000000	19.045117
1829.000000	19.062733
1830.000000	19.058463
1831.000000	19.078190
1832.000000	19.117155
1833.000000	19.191414
1834.000000	19.247998
1835.000000	19.254582
1836.000000	19.227633
1837.000000	19.227796
1838.000000	19.245204
1839.000000	19.264430
1840.000000	19.265291
1841.000000	19.221019
1842.000000	19.193678
1843.000000	19.260595
1844.000000	19.386583
1845.000000	19.461604
1846.000000	19.425527
1847.000000	19.320697
1848.000000	19.242908
1849.000000	19.253829
1850.000000	19.308527
1851.000000	19.329943
1852.000000	19.332637
1853.000000	19.320654
1854.000000	19.292966
1855.000000	19.293079
1856.000000	19.299878
1857.000000	19.292283
1858.000000	19.259598
1859.000000	19.213591
1860.000000	19.172648
1861.000000	19.122970
1862.000000	19.083576
1863.000000	19.099254
1864.000000	19.107445
1865.000000	19.068998
1866.000000	19.042834
1867.000000	19.022501
1868.000000	18.949632
1869.000000	18.805958
1870.000000	18.602597
1871.000000	18.430545
1872.000000	18.311355
1873.000000	18.151291
1874.000000	17.973038
1875.000000	17.801002
1876.000000	17.670689
1877.000000	17.559597
1878.000000	17.401630
1879.000000	17.218130
1880.000000	17.084234
1881.000000	16.889467
1882.000000	16.685379
1883.000000	16.498921
1884.000000	16.261483
1885.000000	16.020869
1886.000000	15.850988
1887.000000	15.679075
1888.000000	15.475973
1889.000000	15.259749
1890.000000	15.001137
1891.000000	14.756213
1892.000000	14.505752
1893.000000	14.237801
1894.000000	13.985569
1895.000000	13.777939
1896.000000	13.574430
1897.000000	13.312851
1898.000000	12.984307
1899.000000	12.703633
1900.000000	12.453915
1901.000000	12.183946
1902.000000	11.944474
1903.000000	11.708396
1904.000000	11.442246
1905.000000	11.180875
1906.000000	10.968512
1907.000000	10.657469
1908.000000	10.515894
1909.000000	10.387111
1910.000000	10.216432
1911.000000	10.033598
1912.000000	9.848872
1913.000000	9.656155
1914.000000	9.496430
1915.000000	9.396115
1916.000000	9.258004
1917.000000	9.188678
1918.000000	9.119156
1919.000000	9.006320
1920.000000	8.885948
1921.000000	8.750351
1922.000000	8.662713
1923.000000	8.650994
1924.000000	8.553804
1925.000000	8.489716
1926.000000	8.435476
1927.000000	8.351069
1928.000000	8.345606
1929.000000	8.315856
1930.000000	8.233509
1931.000000	8.206649
1932.000000	8.223516
1933.000000	8.217290
1934.000000	8.173522
1935.000000	8.188997
1936.000000	8.176867
1937.000000	8.205780
1938.000000	8.237600
1939.000000	8.196660
1940.000000	8.234307
1941.000000	8.281739
1942.000000	8.282650
1943.000000	8.253019
1944.000000	8.280675
1945.000000	8.341423
1946.000000	8.358024
1947.000000	8.403926
1948.000000	8.414191
1949.000000	8.471365
1950.000000	8.537093
1951.000000	8.550883
1952.000000	8.554085
1953.000000	8.627263
1954.000000	8.670175
1955.000000	8.766966
1956.000000	8.768366
1957.000000	8.800931
1958.000000	8.856589
1959.000000	8.876699
1960.000000	8.948539
1961.000000	8.997214
1962.000000	9.016277
1963.000000	9.063594
1964.000000	9.145520
1965.000000	9.159185
1966.000000	9.201322
1967.000000	9.275349
1968.000000	9.318727
1969.000000	9.347194
1970.000000	9.381783
1971.000000	9.440425
1972.000000	9.513139
1973.000000	9.554779
1974.000000	9.573209
1975.000000	9.637540
1976.000000	9.693437
1977.000000	9.736017
1978.000000	9.799779
1979.000000	9.833238
1980.000000	9.915620
1981.000000	9.953926
1982.000000	9.982568
1983.000000	10.045932
1984.000000	10.120150
1985.000000	10.202571
1986.000000	10.217969
1987.000000	10.248879
1988.000000	10.323714
1989.000000	10.385057
1990.000000	10.425031
1991.000000	10.472339
1992.000000	10.490506
1993.000000	10.496979
1994.000000	10.575241
1995.000000	10.620411
1996.000000	10.686111
1997.000000	10.747716
1998.000000	10.804879
1999.000000	10.836739
2000.000000	10.817785
2001.000000	10.835563
2002.000000	10.887493
2003.000000	10.890196
2004.000000	10.897202
2005.000000	10.932064
2006.000000	10.931657
2007.000000	10.916791
2008.000000	10.995556
2009.000000	10.981414
2010.000000	10.931372
2011.000000	10.968277
2012.000000	11.000072
2013.000000	10.979251
2014.000000	10.942338
2015.000000	10.945800
2016.000000	10.941968
2017.000000	10.904355
2018.000000	10.852516
2019.000000	10.878298
2020.000000	10.901743
2021.000000	10.853410
2022.000000	10.732918
2023.000000	10.724993
2024.000000	10.725385
2025.000000	10.672634
2026.000000	10.603043
2027.000000	10.552541
2028.000000	10.514144
2029.000000	10.460560
2030.000000	10.418669
2031.000000	10.353828
2032.000000	10.321448
2033.000000	10.246410
2034.000000	10.141476
2035.000000	10.085302
2036.000000	10.040691
2037.000000	10.000420
2038.000000	9.909626
2039.000000	9.814808
2040.000000	9.813421
2041.000000	9.838527
2042.000000	9.728114
2043.000000	9.609999
2044.000000	9.584009
2045.000000	9.506277
2046.000000	9.406595
2047.000000	9.305554
2048.000000	9.231653
2049.000000	9.226771
2050.000000	9.251838
2051.000000	9.187662
2052.000000	9.099796
2053.000000	9.094370
2054.000000	9.156867
2055.000000	9.205973
2056.000000	9.116647
2057.000000	9.095202
2058.000000	9.159726
2059.000000	9.205732
2060.000000	9.219384
2061.000000	9.330763
2062.000000	9.457792
2063.000000	9.495295
2064.000000	9.490011
2065.000000	9.476271
2066.000000	9.510128
2067.000000	9.591299
2068.000000	9.639335
2069.000000	9.715355
2070.000000	9.809366
2071.000000	9.806515
2072.000000	9.819042
2073.000000	9.906449
2074.000000	9.961003
2075.000000	10.017673
2076.000000	10.065804
2077.000000	10.053248
2078.000000	10.130720
2079.000000	10.229485
2080.000000	10.241068
2081.000000	10.199174
2082.000000	10.201102
2083.000000	10.261120
2084.000000	10.315392
2085.000000	10.333949
2086.000000	10.352477
2087.000000	10.376323
2088.000000	10.306188
2089.000000	10.235117
2090.000000	10.296382
2091.000000	10.329330
2092.000000	10.375711
2093.000000	10.344142
2094.000000	10.291480
2095.000000	10.347858
2096.000000	10.356900
2097.000000	10.327859
2098.000000	10.320809
2099.000000	10.433043
2100.000000	10.444412
2101.000000	10.377612
2102.000000	10.254612
2103.000000	10.298059
2104.000000	10.382914
2105.000000	10.432115
2106.000000	10.369329
2107.000000	10.363980
2108.000000	10.482521
2109.000000	10.479585
2110.000000	10.372911
2111.000000	10.409645
2112.000000	10.376481
2113.000000	10.428216
2114.000000	10.562792
2115.000000	10.495836
2116.000000	10.487825
2117.000000	10.511516
2118.000000	10.438722
2119.000000	10.411386
2120.000000	10.520135
2121.000000	10.434806
2122.000000	10.484676
2123.000000	10.464538
2124.000000	10.494611
2125.000000	10.411429
2126.000000	10.350653
2127.000000	10.309126
2128.000000	10.348545
2129.000000	10.334263
2130.000000	10.310912
2131.000000	10.184740
2132.000000	10.134375
2133.000000	10.175294
2134.000000	10.169903
2135.000000	9.980709
2136.000000	10.039669
2137.000000	10.019667
2138.000000	10.140729
2139.000000	9.958955
2140.000000	9.951780
2141.000000	9.867655
2142.000000	9.986217
2143.000000	9.963372
2144.000000	9.739924
2145.000000	9.791578
2146.000000	9.879223
2147.000000	9.693425
2148.000000	9.523369
2149.000000	9.487501
2150.000000	9.319066
2151.000000	9.268455
2152.000000	9.235575
2153.000000	9.400281
2154.000000	9.395751
2155.000000	9.373248
2156.000000	9.115906
2157.000000	9.048676
2158.000000	9.117981
2159.000000	8.999876
2160.000000	8.916620
2161.000000	9.071496
2162.000000	8.898745
2163.000000	8.858200
2164.000000	8.741584
2165.000000	8.719801
2166.000000	8.772685
2167.000000	8.890374
2168.000000	8.735838
2169.000000	8.833349
2170.000000	8.704603
2171.000000	8.851385
2172.000000	8.794397
2173.000000	8.595134
2174.000000	8.790470
2175.000000	8.739405
2176.000000	8.642869
2177.000000	8.662405
2178.000000	8.675660
2179.000000	8.827695
2180.000000	8.603751
2181.000000	8.559013
2182.000000	8.712284
2183.000000	8.781595
2184.000000	8.633706
2185.000000	8.602420
2186.000000	8.691361
2187.000000	8.834889
2188.000000	8.714142
2189.000000	8.734719
2190.000000	8.727863
2191.000000	8.780353
2192.000000	8.678774
2193.000000	8.671639
2194.000000	8.924936
2195.000000	8.967411
2196.000000	8.845233
2197.000000	8.718299
2198.000000	8.832640
2199.000000	8.824394
2200.000000	8.860060
2201.000000	8.922264
2202.000000	8.974099
2203.000000	9.050060
2204.000000	9.032219
2205.000000	8.954222
2206.000000	9.226113
2207.000000	9.145302
2208.000000	9.324283
2209.000000	9.127889
2210.000000	9.241898
2211.000000	9.388100
2212.000000	9.293257
2213.000000	9.279392
2214.000000	9.398296
2215.000000	9.351717
2216.000000	9.622442
2217.000000	9.451368
2218.000000	9.409321
2219.000000	9.408544
2220.000000	9.532920
2221.000000	9.514444
2222.000000	9.527157
2223.000000	9.612781
2224.000000	9.786001
2225.000000	9.606534
2226.000000	9.648452
2227.000000	9.795109
2228.000000	9.693351
2229.000000	9.675981
2230.000000	9.671144
2231.000000	9.632378
2232.000000	9.774559
2233.000000	9.675671
2234.000000	9.776830
2235.000000	9.890504
2236.000000	9.709510
2237.000000	9.610132
2238.000000	9.740279
2239.000000	9.801623
2240.000000	9.830127
2241.000000	9.625704
2242.000000	9.583590
2243.000000	9.518238
2244.000000	9.507315
2245.000000	9.437309
2246.000000	9.396054
2247.000000	9.479754
2248.000000	9.388861
2249.000000	9.382827
2250.000000	9.224245
2251.000000	9.316589
2252.000000	9.192332
2253.000000	9.217037
2254.000000	9.003190
2255.000000	8.888572
2256.000000	8.991104
2257.000000	8.933270
2258.000000	8.708296
2259.000000	8.748717
2260.000000	8.824905
2261.000000	8.672795
2262.000000	8.435568
2263.000000	8.508399
2264.000000	8.499752
2265.000000	8.409521
2266.000000	8.358936
2267.000000	8.348616
2268.000000	8.443791
2269.000000	8.359478
2270.000000	8.318113
2271.000000	8.263455
2272.000000	8.219479
2273.000000	8.287704
2274.000000	8.189577
2275.000000	8.288415
2276.000000	8.468453
2277.000000	8.287641
2278.000000	8.180096
2279.000000	8.365314
2280.000000	8.453787
2281.000000	8.148732
2282.000000	8.069868
2283.000000	8.264328
2284.000000	8.253921
2285.000000	8.216791
2286.000000	8.105344
2287.000000	8.196165
2288.000000	8.316098
2289.000000	8.187348
2290.000000	8.118496
2291.000000	8.158425
2292.000000	8.338531
2293.000000	8.325941
2294.000000	8.302596
2295.000000	8.376459
2296.000000	8.317256
2297.000000	8.289637
2298.000000	8.235965
2299.000000	8.305061
2300.000000	8.423812
2301.000000	8.370632
2302.000000	8.322519
2303.000000	8.332666
2304.000000	8.458833
2305.000000	8.362589
2306.000000	8.313075
2307.000000	8.339158
2308.000000	8.527505
2309.000000	8.386862
2310.000000	8.367662
2311.000000	8.623595
2312.000000	8.623112
2313.000000	8.456333
2314.000000	8.450511
2315.000000	8.588644
2316.000000	8.719235
2317.000000	8.712488
2318.000000	8.679774
2319.000000	8.723958
2320.000000	8.739453
2321.000000	8.768470
2322.000000	8.677288
2323.000000	8.765760
2324.000000	8.913603
2325.000000	8.657481
2326.000000	8.566789
2327.000000	8.765033
2328.000000	8.717544
2329.000000	8.578650
2330.000000	8.666476
2331.000000	8.887389
2332.000000	8.907854
2333.000000	8.784770
2334.000000	8.808435
2335.000000	8.883075
2336.000000	8.948434
2337.000000	8.858350
2338.000000	8.687418
2339.000000	8.895881
2340.000000	9.172879
2341.000000	9.227553
2342.000000	9.235384
2343.000000	9.117845
2344.000000	9.121027
2345.000000	9.241202
2346.000000	9.324598
2347.000000	9.404749
2348.000000	9.307648
2349.000000	9.203431
2350.000000	9.429535
2351.000000	9.550101
2352.000000	9.441575
2353.000000	9.436319
2354.000000	9.476730
2355.000000	9.500715
2356.000000	9.522697
2357.000000	9.342411
2358.000000	9.474796
2359.000000	9.620431
2360.000000	9.367623
2361.000000	9.384627
2362.000000	9.629101
2363.000000	9.621065
2364.000000	9.291929
2365.000000	9.436664
2366.000000	9.781883
2367.000000	9.721806
2368.000000	9.487617
2369.000000	9.648879
2370.000000	10.018191
2371.000000	9.803384
2372.000000	9.661043
2373.000000	9.682352
2374.000000	9.802074
2375.000000	9.658917
2376.000000	9.499719
2377.000000	9.650517
2378.000000	10.010789
2379.000000	9.981690
2380.000000	9.892674
2381.000000	10.098993
2382.000000	9.815236
2383.000000	9.692719
2384.000000	9.729239
2385.000000	10.200537
2386.000000	10.170736
2387.000000	9.943000
2388.000000	9.823753
2389.000000	9.832023
2390.000000	9.768664
2391.000000	9.962020
2392.000000	10.114709
2393.000000	10.551662
2394.000000	10.546988
2395.000000	10.366396
2396.000000	10.465036
2397.000000	10.406936
2398.000000	10.190679
2399.000000	10.377749
2400.000000	10.575359
2401.000000	10.371413
2402.000000	10.063758
2403.000000	9.838677
2404.000000	10.067287
2405.000000	10.127438
2406.000000	10.032302
2407.000000	10.089675
2408.000000	10.315815
2409.000000	10.487973
2410.000000	10.438887
2411.000000	10.355396
2412.000000	10.349975
2413.000000	10.073204
2414.000000	10.589285
2415.000000	10.666599
2416.000000	10.515552
2417.000000	10.370727
2418.000000	10.495229
2419.000000	10.442762
2420.000000	10.282941
2421.000000	10.289919
2422.000000	10.637638
2423.000000	10.748347
2424.000000	10.638420
2425.000000	10.626203
2426.000000	10.506832
2427.000000	10.992130
2428.000000	10.476684
2429.000000	9.701162
2430.000000	10.279733
2431.000000	10.761291
2432.000000	10.466169
2433.000000	10.105188
2434.000000	10.312881
2435.000000	10.582841
2436.000000	10.321576
2437.000000	10.505983
2438.000000	10.538673
2439.000000	10.020045
2440.000000	10.153677
2441.000000	11.063993
2442.000000	10.833999
2443.000000	10.520028
2444.000000	9.632777
2445.000000	10.789448
2446.000000	11.356721
2447.000000	10.375353
2448.000000	11.443343
2449.000000	11.356097
2450.000000	10.822566
2451.000000	10.457929
2452.000000	10.423384
2453.000000	11.095267
2454.000000	10.914093
2455.000000	11.039442
2456.000000	11.921971
2457.000000	11.346338
2458.000000	11.238275
2459.000000	12.302372
2460.000000	11.972377
2461.000000	11.930457
2462.000000	11.200405
2463.000000	12.198671
2464.000000	13.192742
2465.000000	13.161433
2466.000000	12.135134
2467.000000	13.547594
2468.000000	12.766196
2469.000000	12.392587
2470.000000	13.371757
2471.000000	13.708719
2472.000000	13.643346
2473.000000	13.022601
2474.000000	14.104982
2475.000000	13.761035
2476.000000	14.746327
2477.000000	14.680550
2478.000000	16.157566
2479.000000	17.213800
2480.000000	16.093155
2481.000000	15.893265
2482.000000	16.363621
2483.000000	15.647977
2484.000000	15.442813
2485.000000	17.265019
2486.000000	18.256005
2487.000000	18.502396
2488.000000	17.643964
2489.000000	18.891576
2490.000000	18.258265
2491.000000	18.873212
2492.000000	18.538168
2493.000000	18.781039
2494.000000	19.944587
2495.000000	19.117961
2496.000000	20.627975
2497.000000	20.969900
2498.000000	21.393099
2499.000000	19.890089
2500.000000	21.499608
2501.000000	nan
2502.000000	nan
2503.000000	nan
2504.000000	nan
2505.000000	nan
2506.000000	nan
2507.000000	nan
2508.000000	nan
2509.000000	nan
2510.000000	nan
2511.000000	nan
2512.000000	nan
2513.000000	nan
2514.000000	nan
2515.000000	nan
2516.000000	nan
2517.000000	nan
2518.000000	nan
2519.000000	nan
2520.000000	nan
2521.000000	nan
2522.000000	nan
2523.000000	nan
2524.000000	nan
2525.000000	nan
2526.000000	nan
2527.000000	nan
2528.000000	nan
2529.000000	nan
2530.000000	nan
2531.000000	nan
2532.000000	nan
2533.000000	nan
2534.000000	nan
2535.000000	nan
2536.000000	nan
2537.000000	nan
2538.000000	nan
2539.000000	nan
2540.000000	nan
2541.000000	nan
2542.000000	nan
2543.000000	nan
2544.000000	nan
2545.000000	nan
2546.000000	nan
2547.000000	nan
2548.000000	nan
2549.000000	nan
2550.000000	nan
2551.000000	nan
2552.000000	nan
2553.000000	nan
2554.000000	nan
2555.000000	nan
2556.000000	nan
2557.000000	nan
2558.000000	nan
2559.000000	nan
2560.000000	nan
2561.000000	nan
2562.000000	nan
2563.000000	nan
2564.000000	nan
2565.000000	nan
2566.000000	nan
2567.000000	nan
2568.000000	nan
2569.000000	nan
2570.000000	nan
2571.000000	nan
2572.000000	nan
2573.000000	nan
2574.000000	nan
2575.000000	nan
2576.000000	nan
2577.000000	nan
2578.000000	nan
2579.000000	nan
2580.000000	nan
2581.000000	nan
2582.000000	nan
2583.000000	nan
2584.000000	nan
2585.000000	nan
2586.000000	nan
2587.000000	nan
2588.000000	nan
2589.000000	nan
2590.000000	nan
2591.000000	nan
2592.000000	nan
2593.000000	nan
2594.000000	nan
2595.000000	nan
2596.000000	nan
2597.000000	nan
2598.000000	nan
2599.000000	nan
2600.000000	nan
2601.000000	nan
2602.000000	nan
2603.000000	nan
2604.000000	nan
2605.000000	nan
2606.000000	nan
2607.000000	nan
2608.000000	nan
2609.000000	nan
2610.000000	nan
2611.000000	nan
2612.000000	nan
2613.000000	nan
2614.000000	nan
2615.000000	nan
2616.000000	nan
2617.000000	nan
2618.000000	nan
2619.000000	nan
2620.000000	nan
2621.000000	nan
2622.000000	nan
2623.000000	nan
2624.000000	nan
2625.000000	nan
2626.000000	nan
2627.000000	nan
2628.000000	nan
2629.000000	nan
2630.000000	nan
2631.000000	nan
2632.000000	nan
2633.000000	nan
2634.000000	nan
2635.000000	nan
2636.000000	nan
2637.000000	nan
2638.000000	nan
2639.000000	nan
2640.000000	nan
2641.000000	nan
2642.000000	nan
2643.000000	nan
2644.000000	nan
2645.000000	nan
2646.000000	nan
2647.000000	nan
2648.000000	nan
2649.000000	nan
2650.000000	nan
2651.000000	nan
2652.000000	nan
2653.000000	nan
2654.000000	nan
2655.000000	nan
2656.000000	nan
2657.000000	nan
2658.000000	nan
2659.000000	nan
2660.000000	nan
2661.000000	nan
2662.000000	nan
2663.000000	nan
2664.000000	nan
2665.000000	nan
2666.000000	nan
2667.000000	nan
2668.000000	nan
2669.000000	nan
2670.000000	nan
2671.000000	nan
2672.000000	nan
2673.000000	nan
2674.000000	nan
2675.000000	nan
2676.000000	nan
2677.000000	nan
2678.000000	nan
2679.000000	nan
2680.000000	nan
2681.000000	nan
2682.000000	nan
2683.000000	nan
2684.000000	nan
2685.000000	nan
2686.000000	nan
2687.000000	nan
2688.000000	nan
2689.000000	nan
2690.000000	nan
2691.000000	nan
2692.000000	nan
2693.000000	nan
2694.000000	nan
2695.000000	nan
2696.000000	nan
2697.000000	nan
2698.000000	nan
2699.000000	nan
2700.000000	nan
2701.000000	nan
2702.000000	nan
2703.000000	nan
2704.000000	nan
2705.000000	nan
2706.000000	nan
2707.000000	nan
2708.000000	nan
2709.000000	nan
2710.000000	nan
2711.000000	nan
2712.000000	nan
2713.000000	nan
2714.000000	nan
2715.000000	nan
2716.000000	nan
2717.000000	nan
2718.000000	nan
2719.000000	nan
2720.000000	nan
2721.000000	nan
2722.000000	nan
2723.000000	nan
2724.000000	nan
2725.000000	nan
2726.000000	nan
2727.000000	nan
2728.000000	nan
2729.000000	nan
2730.000000	nan
2731.000000	nan
2732.000000	nan
2733.000000	nan
2734.000000	nan
2735.000000	nan
2736.000000	nan
2737.000000	nan
2738.000000	nan
2739.000000	nan
2740.000000	nan
2741.000000	nan
2742.000000	nan
2743.000000	nan
2744.000000	nan
2745.000000	nan
2746.000000	nan
2747.000000	nan
2748.000000	nan
2749.000000	nan
2750.000000	nan
2751.000000	nan
2752.000000	nan
2753.000000	nan
2754.000000	nan
2755.000000	nan
2756.000000	nan
2757.000000	nan
2758.000000	nan
2759.000000	nan
2760.000000	nan
2761.000000	nan
2762.000000	nan
2763.000000	nan
2764.000000	nan
2765.000000	nan
2766.000000	nan
2767.000000	nan
2768.000000	nan
2769.000000	nan
2770.000000	nan
2771.000000	nan
2772.000000	nan
2773.000000	nan
2774.000000	nan
2775.000000	nan
2776.000000	nan
2777.000000	nan
2778.000000	nan
2779.000000	nan
2780.000000	nan
2781.000000	nan
2782.000000	nan
2783.000000	nan
2784.000000	nan
2785.000000	nan
2786.000000	nan
2787.000000	nan
2788.000000	nan
2789.000000	nan
2790.000000	nan
2791.000000	nan
2792.000000	nan
2793.000000	nan
2794.000000	nan
2795.000000	nan
2796.000000	nan
2797.000000	nan
2798.000000	nan
2799.000000	nan
2800.000000	nan
2801.000000	nan
2802.000000	nan
2803.000000	nan
2804.000000	nan
2805.000000	nan
2806.000000	nan
2807.000000	nan
2808.000000	nan
2809.000000	nan
2810.000000	nan
2811.000000	nan
2812.000000	nan
2813.000000	nan
2814.000000	nan
2815.000000	nan
2816.000000	nan
2817.000000	nan
2818.000000	nan
2819.000000	nan
2820.000000	nan
2821.000000	nan
2822.000000	nan
2823.000000	nan
2824.000000	nan
2825.000000	nan
2826.000000	nan
2827.000000	nan
2828.000000	nan
2829.000000	nan
2830.000000	nan
2831.000000	nan
2832.000000	nan
2833.000000	nan
2834.000000	nan
2835.000000	nan
2836.000000	nan
2837.000000	nan
2838.000000	nan
2839.000000	nan
2840.000000	nan
2841.000000	nan
2842.000000	nan
2843.000000	nan
2844.000000	nan
2845.000000	nan
2846.000000	nan
2847.000000	nan
2848.000000	nan
2849.000000	nan
2850.000000	nan
2851.000000	nan
2852.000000	nan
2853.000000	nan
2854.000000	nan
2855.000000	nan
2856.000000	nan
2857.000000	nan
2858.000000	nan
2859.000000	nan
2860.000000	nan
2861.000000	nan
2862.000000	nan
2863.000000	nan
2864.000000	nan
2865.000000	nan
2866.000000	nan
2867.000000	nan
2868.000000	nan
2869.000000	nan
2870.000000	nan
2871.000000	nan
2872.000000	nan
2873.000000	nan
2874.000000	nan
2875.000000	nan
2876.000000	nan
2877.000000	nan
2878.000000	nan
2879.000000	nan
2880.000000	nan
2881.000000	nan
2882.000000	nan
2883.000000	nan
2884.000000	nan
2885.000000	nan
2886.000000	nan
2887.000000	nan
2888.000000	nan
2889.000000	nan
2890.000000	nan
2891.000000	nan
2892.000000	nan
2893.000000	nan
2894.000000	nan
2895.000000	nan
2896.000000	nan
2897.000000	nan
2898.000000	nan
2899.000000	nan
2900.000000	nan
2901.000000	nan
2902.000000	nan
2903.000000	nan
2904.000000	nan
2905.000000	nan
2906.000000	nan
2907.000000	nan
2908.000000	nan
2909.000000	nan
2910.000000	nan
2911.000000	nan
2912.000000	nan
2913.000000	nan
2914.000000	nan
2915.000000	nan
2916.000000	nan
2917.000000	nan
2918.000000	nan
2919.000000	nan
2920.000000	nan
2921.000000	nan
2922.000000	nan
2923.000000	nan
2924.000000	nan
2925.000000	nan
2926.000000	nan
2927.000000	nan
2928.000000	nan
2929.000000	nan
2930.000000	nan
2931.000000	nan
2932.000000	nan
2933.000000	nan
2934.000000	nan
2935.000000	nan
2936.000000	nan
2937.000000	nan
2938.000000	nan
2939.000000	nan
2940.000000	nan
2941.000000	nan
2942.000000	nan
2943.000000	nan
2944.000000	nan
2945.000000	nan
2946.000000	nan
2947.000000	nan
2948.000000	nan
2949.000000	nan
2950.000000	nan
2951.000000	nan
2952.000000	nan
2953.000000	nan
2954.000000	nan
2955.000000	nan
2956.000000	nan
2957.000000	nan
2958.000000	nan
2959.000000	nan
2960.000000	nan
2961.000000	nan
2962.000000	nan
2963.000000	nan
2964.000000	nan
2965.000000	nan
2966.000000	nan
2967.000000	nan
2968.000000	nan
2969.000000	nan
2970.000000	nan
2971.000000	nan
2972.000000	nan
2973.000000	nan
2974.000000	nan
2975.000000	nan
2976.000000	nan
2977.000000	nan
2978.000000	nan
2979.000000	nan
2980.000000	nan
2981.000000	nan
2982.000000	nan
2983.000000	nan
2984.000000	nan
2985.000000	nan
2986.000000	nan
2987.000000	nan
2988.000000	nan
2989.000000	nan
2990.000000	nan
2991.000000	nan
2992.000000	nan
2993.000000	nan
2994.000000	nan
2995.000000	nan
2996.000000	nan
2997.000000	nan
2998.000000	nan
2999.000000	nan
3000.000000	nan
