PE UV       SUBTECH     SPECTRUM    ASCII       PEDS        4.00        
   -1
INBUCR0231-4.Sample.ASC
24/02/08
11:45:06.00
24/02/08
11:45:06.00
Vinicio Soto Monge
Parece ser C. aurigans. Falta pata trasera izq
250,000000
1
Lambda 1050
1050L1511233
PerkinElmer UV WinLab 6.3.2.0749 / 2.02.05 Lambda 900 UV/VIS/NIR, Aug  7 2015 09:38:08

0
0
3350/servo 860,8/2
0
0
UV/VIS
1
1
1
DoubleDePol,CommonBeamDepol,RBeamAtt,SBeamAtt,60mm sphere, WB InGaAs Detector
0
0
0
0
Program
Program
3350/servo 860,8/2
3350/0,2 860,8/0,2
3350/0,2 860,8/0,2
0
15.00
 
 
 
0
 
860,8
319,2
860,8
Front
100
on
S:100 R:100
0
0
0
0
 
0
 
 
 
0
 
 
0
0
0
0
0
 
 
 
 
0
0


0
0
#HDR
-1
-1
#GR
nm
%R
1.0
0.0
2500,000000
-1,000000
2251
8
15,119200
1,446800
#DATA

250.000000	2.742789
251.000000	2.731235
252.000000	2.725230
253.000000	2.719271
254.000000	2.702893
255.000000	2.718941
256.000000	2.706696
257.000000	2.684411
258.000000	2.682402
259.000000	2.640714
260.000000	2.651153
261.000000	2.634019
262.000000	2.640903
263.000000	2.661639
264.000000	2.607694
265.000000	2.587196
266.000000	2.584856
267.000000	2.581441
268.000000	2.560888
269.000000	2.543058
270.000000	2.549557
271.000000	2.530684
272.000000	2.521545
273.000000	2.531668
274.000000	2.499103
275.000000	2.534195
276.000000	2.498868
277.000000	2.512350
278.000000	2.462635
279.000000	2.500497
280.000000	2.508852
281.000000	2.477915
282.000000	2.461609
283.000000	2.476883
284.000000	2.472161
285.000000	2.486915
286.000000	2.472992
287.000000	2.489171
288.000000	2.490357
289.000000	2.485078
290.000000	2.482904
291.000000	2.476261
292.000000	2.478785
293.000000	2.515081
294.000000	2.507464
295.000000	2.487548
296.000000	2.504843
297.000000	2.489565
298.000000	2.498070
299.000000	2.508259
300.000000	2.503780
301.000000	2.490592
302.000000	2.456363
303.000000	2.460521
304.000000	2.473453
305.000000	2.451824
306.000000	2.507355
307.000000	2.498292
308.000000	2.486840
309.000000	2.491351
310.000000	2.501833
311.000000	2.475904
312.000000	2.471796
313.000000	2.457688
314.000000	2.479217
315.000000	2.488385
316.000000	2.478809
317.000000	2.791367
318.000000	2.694612
319.000000	2.617260
320.000000	2.674426
321.000000	2.724546
322.000000	2.669252
323.000000	2.604459
324.000000	2.673333
325.000000	2.714030
326.000000	2.613870
327.000000	2.714685
328.000000	2.591646
329.000000	2.651781
330.000000	2.578673
331.000000	2.630248
332.000000	2.664123
333.000000	2.653768
334.000000	2.661460
335.000000	2.656556
336.000000	2.665568
337.000000	2.612068
338.000000	2.633705
339.000000	2.604179
340.000000	2.599466
341.000000	2.606931
342.000000	2.608710
343.000000	2.631112
344.000000	2.644702
345.000000	2.655792
346.000000	2.653328
347.000000	2.659015
348.000000	2.642164
349.000000	2.663687
350.000000	2.676612
351.000000	2.697417
352.000000	2.628753
353.000000	2.634474
354.000000	2.652154
355.000000	2.611041
356.000000	2.635727
357.000000	2.644085
358.000000	2.642624
359.000000	2.680600
360.000000	2.694097
361.000000	2.681773
362.000000	2.647740
363.000000	2.666877
364.000000	2.652416
365.000000	2.632713
366.000000	2.637039
367.000000	2.640461
368.000000	2.634697
369.000000	2.650445
370.000000	2.656423
371.000000	2.631003
372.000000	2.608283
373.000000	2.605902
374.000000	2.585284
375.000000	2.598605
376.000000	2.719246
377.000000	2.784646
378.000000	2.786870
379.000000	2.788348
380.000000	2.787127
381.000000	2.787695
382.000000	2.791744
383.000000	2.789651
384.000000	2.790806
385.000000	2.797226
386.000000	2.796914
387.000000	2.792776
388.000000	2.788493
389.000000	2.790240
390.000000	2.800516
391.000000	2.799109
392.000000	2.794498
393.000000	2.796380
394.000000	2.802774
395.000000	2.803647
396.000000	2.799527
397.000000	2.804064
398.000000	2.807701
399.000000	2.806900
400.000000	2.804415
401.000000	2.806655
402.000000	2.814028
403.000000	2.813020
404.000000	2.812853
405.000000	2.817435
406.000000	2.818918
407.000000	2.820911
408.000000	2.823493
409.000000	2.820381
410.000000	2.822238
411.000000	2.825973
412.000000	2.834041
413.000000	2.834710
414.000000	2.837992
415.000000	2.848015
416.000000	2.850363
417.000000	2.850867
418.000000	2.858096
419.000000	2.863402
420.000000	2.868844
421.000000	2.871001
422.000000	2.870001
423.000000	2.876438
424.000000	2.884231
425.000000	2.889856
426.000000	2.894269
427.000000	2.897838
428.000000	2.902235
429.000000	2.907449
430.000000	2.911171
431.000000	2.916822
432.000000	2.929406
433.000000	2.933991
434.000000	2.936868
435.000000	2.941931
436.000000	2.946913
437.000000	2.952443
438.000000	2.959669
439.000000	2.963411
440.000000	2.968350
441.000000	2.978508
442.000000	2.981373
443.000000	2.988125
444.000000	2.994830
445.000000	2.999845
446.000000	3.003368
447.000000	3.006552
448.000000	3.018772
449.000000	3.026880
450.000000	3.033285
451.000000	3.040506
452.000000	3.049361
453.000000	3.062227
454.000000	3.072335
455.000000	3.079514
456.000000	3.088556
457.000000	3.100400
458.000000	3.114588
459.000000	3.127767
460.000000	3.135701
461.000000	3.149591
462.000000	3.166479
463.000000	3.182971
464.000000	3.200006
465.000000	3.216401
466.000000	3.239804
467.000000	3.262882
468.000000	3.282364
469.000000	3.300997
470.000000	3.330903
471.000000	3.363495
472.000000	3.393993
473.000000	3.427705
474.000000	3.462844
475.000000	3.501121
476.000000	3.540921
477.000000	3.583406
478.000000	3.629872
479.000000	3.684761
480.000000	3.748170
481.000000	3.811758
482.000000	3.883022
483.000000	3.957634
484.000000	4.029768
485.000000	4.109031
486.000000	4.192743
487.000000	4.286547
488.000000	4.386614
489.000000	4.491273
490.000000	4.608660
491.000000	4.733567
492.000000	4.871423
493.000000	5.018528
494.000000	5.176783
495.000000	5.348899
496.000000	5.538212
497.000000	5.732979
498.000000	5.945645
499.000000	6.176224
500.000000	6.428901
501.000000	6.698086
502.000000	6.992310
503.000000	7.309584
504.000000	7.641996
505.000000	8.005896
506.000000	8.380964
507.000000	8.788187
508.000000	9.234262
509.000000	9.705383
510.000000	10.195064
511.000000	10.696713
512.000000	11.200323
513.000000	11.704534
514.000000	12.193259
515.000000	12.673145
516.000000	13.147000
517.000000	13.608520
518.000000	14.090712
519.000000	14.587540
520.000000	15.093939
521.000000	15.620896
522.000000	16.147986
523.000000	16.687828
524.000000	17.228529
525.000000	17.770359
526.000000	18.297701
527.000000	18.814013
528.000000	19.296219
529.000000	19.774640
530.000000	20.221141
531.000000	20.639969
532.000000	20.982929
533.000000	21.256282
534.000000	21.455856
535.000000	21.600072
536.000000	21.687016
537.000000	21.750136
538.000000	21.796586
539.000000	21.823753
540.000000	21.845529
541.000000	21.864397
542.000000	21.884364
543.000000	21.906170
544.000000	21.918531
545.000000	21.938767
546.000000	21.952129
547.000000	21.971875
548.000000	21.973411
549.000000	21.970998
550.000000	21.969649
551.000000	21.971801
552.000000	21.973930
553.000000	21.984895
554.000000	21.988323
555.000000	22.002008
556.000000	22.011669
557.000000	22.001830
558.000000	22.014371
559.000000	22.012142
560.000000	22.152093
561.000000	22.167698
562.000000	22.182109
563.000000	22.186803
564.000000	22.177011
565.000000	22.206151
566.000000	22.196242
567.000000	22.184840
568.000000	22.172707
569.000000	22.151115
570.000000	22.146007
571.000000	22.122737
572.000000	22.088412
573.000000	22.078763
574.000000	22.054970
575.000000	22.008905
576.000000	21.975266
577.000000	21.929950
578.000000	21.879509
579.000000	21.816224
580.000000	21.736025
581.000000	21.659536
582.000000	21.573903
583.000000	21.491190
584.000000	21.382272
585.000000	21.256132
586.000000	21.119787
587.000000	20.987459
588.000000	20.833433
589.000000	20.688018
590.000000	20.536278
591.000000	20.371824
592.000000	20.200109
593.000000	20.029104
594.000000	19.842730
595.000000	19.666702
596.000000	19.488272
597.000000	19.348454
598.000000	19.243063
599.000000	19.192336
600.000000	19.183532
601.000000	19.181694
602.000000	19.161140
603.000000	19.109053
604.000000	19.004373
605.000000	18.887610
606.000000	18.732715
607.000000	18.574209
608.000000	18.393067
609.000000	18.229835
610.000000	18.100059
611.000000	17.990355
612.000000	17.935670
613.000000	17.931376
614.000000	17.972381
615.000000	17.982854
616.000000	17.989261
617.000000	17.946242
618.000000	17.879440
619.000000	17.806170
620.000000	17.732482
621.000000	17.693218
622.000000	17.691347
623.000000	17.750326
624.000000	17.884007
625.000000	18.027918
626.000000	18.208608
627.000000	18.363041
628.000000	18.509127
629.000000	18.600419
630.000000	18.621437
631.000000	18.579262
632.000000	18.482696
633.000000	18.335532
634.000000	18.165347
635.000000	17.976499
636.000000	17.796889
637.000000	17.663848
638.000000	17.591099
639.000000	17.597512
640.000000	17.689121
641.000000	17.871424
642.000000	18.101281
643.000000	18.372051
644.000000	18.653399
645.000000	18.888760
646.000000	19.077783
647.000000	19.215698
648.000000	19.272115
649.000000	19.267376
650.000000	19.190151
651.000000	19.081187
652.000000	18.948667
653.000000	18.810732
654.000000	18.676867
655.000000	18.598644
656.000000	18.562507
657.000000	18.605098
658.000000	18.719044
659.000000	18.903907
660.000000	19.146006
661.000000	19.415180
662.000000	19.696817
663.000000	19.972659
664.000000	20.197679
665.000000	20.393943
666.000000	20.514023
667.000000	20.587858
668.000000	20.616398
669.000000	20.617210
670.000000	20.604884
671.000000	20.570386
672.000000	20.524475
673.000000	20.512709
674.000000	20.539452
675.000000	20.599284
676.000000	20.713353
677.000000	20.878348
678.000000	21.071122
679.000000	21.294205
680.000000	21.548647
681.000000	21.797187
682.000000	22.030629
683.000000	22.222727
684.000000	22.394239
685.000000	22.548554
686.000000	22.665108
687.000000	22.739333
688.000000	22.795220
689.000000	22.847456
690.000000	22.890588
691.000000	22.928796
692.000000	22.978771
693.000000	23.048848
694.000000	23.146641
695.000000	23.260642
696.000000	23.378006
697.000000	23.509925
698.000000	23.660608
699.000000	23.804399
700.000000	23.950822
701.000000	24.112354
702.000000	24.241079
703.000000	24.355946
704.000000	24.461788
705.000000	24.520150
706.000000	24.595562
707.000000	24.660019
708.000000	24.712008
709.000000	24.753257
710.000000	24.812003
711.000000	24.872251
712.000000	24.909686
713.000000	24.966086
714.000000	25.030014
715.000000	25.105455
716.000000	25.185396
717.000000	25.272898
718.000000	25.336081
719.000000	25.400476
720.000000	25.492201
721.000000	25.564799
722.000000	25.636713
723.000000	25.716390
724.000000	25.763759
725.000000	25.821271
726.000000	25.845859
727.000000	25.878885
728.000000	25.925711
729.000000	25.991043
730.000000	26.054256
731.000000	26.095091
732.000000	26.140106
733.000000	26.206691
734.000000	26.254742
735.000000	26.290641
736.000000	26.353306
737.000000	26.408894
738.000000	26.478068
739.000000	26.534798
740.000000	26.568739
741.000000	26.643737
742.000000	26.711094
743.000000	26.781353
744.000000	26.829187
745.000000	26.884217
746.000000	26.949116
747.000000	26.982732
748.000000	27.024465
749.000000	27.094041
750.000000	27.149707
751.000000	27.198336
752.000000	27.237541
753.000000	27.291874
754.000000	27.351395
755.000000	27.386554
756.000000	27.421646
757.000000	27.448210
758.000000	27.538380
759.000000	27.601380
760.000000	27.640779
761.000000	27.739086
762.000000	27.797344
763.000000	27.835891
764.000000	27.883472
765.000000	27.953825
766.000000	28.005765
767.000000	28.076310
768.000000	28.150831
769.000000	28.202299
770.000000	28.252448
771.000000	28.305340
772.000000	28.345902
773.000000	28.397027
774.000000	28.455733
775.000000	28.512825
776.000000	28.557642
777.000000	28.622553
778.000000	28.685345
779.000000	28.733430
780.000000	28.835005
781.000000	28.909077
782.000000	28.921334
783.000000	28.988398
784.000000	29.085288
785.000000	29.146390
786.000000	29.163037
787.000000	29.269064
788.000000	29.331207
789.000000	29.390686
790.000000	29.452004
791.000000	29.492469
792.000000	29.545738
793.000000	29.642649
794.000000	29.715452
795.000000	29.765644
796.000000	29.846313
797.000000	29.836070
798.000000	29.892263
799.000000	29.970548
800.000000	30.054743
801.000000	30.113950
802.000000	30.141244
803.000000	30.202024
804.000000	30.318036
805.000000	30.349667
806.000000	30.406502
807.000000	30.455865
808.000000	30.457229
809.000000	30.552098
810.000000	30.669549
811.000000	30.679557
812.000000	30.724977
813.000000	30.768607
814.000000	30.856222
815.000000	30.889309
816.000000	30.938109
817.000000	30.961643
818.000000	30.994158
819.000000	31.130305
820.000000	31.140550
821.000000	31.185259
822.000000	31.248619
823.000000	31.322867
824.000000	31.341683
825.000000	31.388437
826.000000	31.438783
827.000000	31.484171
828.000000	31.545900
829.000000	31.577236
830.000000	31.583880
831.000000	31.611342
832.000000	31.685681
833.000000	31.686505
834.000000	31.665682
835.000000	31.737397
836.000000	31.683637
837.000000	31.740951
838.000000	31.816645
839.000000	31.828617
840.000000	31.915204
841.000000	31.919288
842.000000	31.854268
843.000000	31.895360
844.000000	31.886010
845.000000	31.902073
846.000000	31.872887
847.000000	32.134164
848.000000	31.992191
849.000000	31.976435
850.000000	31.936388
851.000000	31.917687
852.000000	32.012544
853.000000	31.785609
854.000000	31.830694
855.000000	32.065263
856.000000	32.004421
857.000000	31.966611
858.000000	31.667904
859.000000	32.587820
860.000000	32.687396
861.000000	32.477037
862.000000	32.247983
863.000000	32.164726
864.000000	32.208868
865.000000	31.833331
866.000000	31.976715
867.000000	32.005573
868.000000	31.867878
869.000000	31.910930
870.000000	31.821242
871.000000	31.727789
872.000000	31.716310
873.000000	31.641111
874.000000	31.614808
875.000000	31.589665
876.000000	31.624028
877.000000	31.457945
878.000000	31.223620
879.000000	31.333673
880.000000	31.189260
881.000000	31.220281
882.000000	31.136011
883.000000	31.038000
884.000000	31.108712
885.000000	30.924525
886.000000	30.880264
887.000000	30.806657
888.000000	30.683524
889.000000	30.715377
890.000000	30.685340
891.000000	30.618118
892.000000	30.547236
893.000000	30.542924
894.000000	30.438702
895.000000	30.338683
896.000000	30.351110
897.000000	30.229822
898.000000	30.189082
899.000000	30.179611
900.000000	30.095002
901.000000	29.929020
902.000000	30.004305
903.000000	29.857045
904.000000	29.867650
905.000000	29.811555
906.000000	29.734435
907.000000	29.712816
908.000000	29.613669
909.000000	29.557963
910.000000	29.532218
911.000000	29.465632
912.000000	29.401576
913.000000	29.404894
914.000000	29.340576
915.000000	29.299628
916.000000	29.227728
917.000000	29.237563
918.000000	29.208161
919.000000	29.185285
920.000000	29.125212
921.000000	29.131577
922.000000	29.079804
923.000000	29.052630
924.000000	28.977397
925.000000	28.959025
926.000000	28.943654
927.000000	28.908697
928.000000	28.913016
929.000000	28.915894
930.000000	28.867226
931.000000	28.823137
932.000000	28.809397
933.000000	28.794905
934.000000	28.744810
935.000000	28.717396
936.000000	28.750031
937.000000	28.745935
938.000000	28.707964
939.000000	28.674939
940.000000	28.642264
941.000000	28.648183
942.000000	28.640928
943.000000	28.606924
944.000000	28.613488
945.000000	28.591718
946.000000	28.587565
947.000000	28.547960
948.000000	28.546451
949.000000	28.552977
950.000000	28.541379
951.000000	28.536771
952.000000	28.527954
953.000000	28.522149
954.000000	28.539189
955.000000	28.522152
956.000000	28.496568
957.000000	28.474595
958.000000	28.500768
959.000000	28.512078
960.000000	28.500588
961.000000	28.503935
962.000000	28.504513
963.000000	28.503644
964.000000	28.506786
965.000000	28.496316
966.000000	28.514391
967.000000	28.521973
968.000000	28.512474
969.000000	28.500309
970.000000	28.510837
971.000000	28.516996
972.000000	28.513604
973.000000	28.525951
974.000000	28.532794
975.000000	28.527067
976.000000	28.522808
977.000000	28.512823
978.000000	28.503834
979.000000	28.522435
980.000000	28.548325
981.000000	28.550209
982.000000	28.547381
983.000000	28.559901
984.000000	28.573060
985.000000	28.570532
986.000000	28.576375
987.000000	28.591474
988.000000	28.592847
989.000000	28.600783
990.000000	28.599135
991.000000	28.604035
992.000000	28.622034
993.000000	28.646730
994.000000	28.651951
995.000000	28.639156
996.000000	28.637845
997.000000	28.648388
998.000000	28.652161
999.000000	28.655181
1000.000000	28.674745
1001.000000	28.685741
1002.000000	28.691670
1003.000000	28.700114
1004.000000	28.713272
1005.000000	28.737746
1006.000000	28.736587
1007.000000	28.732528
1008.000000	28.741557
1009.000000	28.755660
1010.000000	28.763072
1011.000000	28.769215
1012.000000	28.779773
1013.000000	28.794757
1014.000000	28.797426
1015.000000	28.804485
1016.000000	28.813935
1017.000000	28.812667
1018.000000	28.842770
1019.000000	28.877446
1020.000000	28.882010
1021.000000	28.893843
1022.000000	28.911615
1023.000000	28.937434
1024.000000	28.950205
1025.000000	28.959093
1026.000000	28.968109
1027.000000	28.973202
1028.000000	28.988985
1029.000000	29.014082
1030.000000	29.021300
1031.000000	29.042662
1032.000000	29.050189
1033.000000	29.054993
1034.000000	29.075922
1035.000000	29.081544
1036.000000	29.095640
1037.000000	29.119666
1038.000000	29.128988
1039.000000	29.136274
1040.000000	29.146597
1041.000000	29.153910
1042.000000	29.169458
1043.000000	29.191207
1044.000000	29.214351
1045.000000	29.223169
1046.000000	29.230608
1047.000000	29.237896
1048.000000	29.246975
1049.000000	29.270077
1050.000000	29.278287
1051.000000	29.286093
1052.000000	29.311102
1053.000000	29.325350
1054.000000	29.341419
1055.000000	29.364347
1056.000000	29.375285
1057.000000	29.378617
1058.000000	29.392649
1059.000000	29.408254
1060.000000	29.430864
1061.000000	29.454031
1062.000000	29.456764
1063.000000	29.477469
1064.000000	29.492022
1065.000000	29.505419
1066.000000	29.507978
1067.000000	29.524432
1068.000000	29.531377
1069.000000	29.541436
1070.000000	29.557295
1071.000000	29.569029
1072.000000	29.578288
1073.000000	29.592204
1074.000000	29.607380
1075.000000	29.613896
1076.000000	29.616332
1077.000000	29.636551
1078.000000	29.643545
1079.000000	29.659096
1080.000000	29.664266
1081.000000	29.668101
1082.000000	29.685278
1083.000000	29.693569
1084.000000	29.706825
1085.000000	29.711411
1086.000000	29.716275
1087.000000	29.743028
1088.000000	29.749462
1089.000000	29.772791
1090.000000	29.766886
1091.000000	29.776514
1092.000000	29.789962
1093.000000	29.797183
1094.000000	29.819118
1095.000000	29.809816
1096.000000	29.836862
1097.000000	29.837777
1098.000000	29.839832
1099.000000	29.848536
1100.000000	29.858523
1101.000000	29.861172
1102.000000	29.873876
1103.000000	29.886620
1104.000000	29.893075
1105.000000	29.910767
1106.000000	29.901716
1107.000000	29.910130
1108.000000	29.924528
1109.000000	29.916171
1110.000000	29.915892
1111.000000	29.919090
1112.000000	29.924282
1113.000000	29.932511
1114.000000	29.936320
1115.000000	29.934278
1116.000000	29.945335
1117.000000	29.942202
1118.000000	29.948462
1119.000000	29.943537
1120.000000	29.941099
1121.000000	29.938795
1122.000000	29.926267
1123.000000	29.908431
1124.000000	29.886245
1125.000000	29.881125
1126.000000	29.863793
1127.000000	29.844222
1128.000000	29.824303
1129.000000	29.788918
1130.000000	29.763399
1131.000000	29.762629
1132.000000	29.747309
1133.000000	29.728621
1134.000000	29.680322
1135.000000	29.635240
1136.000000	29.612820
1137.000000	29.607248
1138.000000	29.567116
1139.000000	29.540150
1140.000000	29.495307
1141.000000	29.484548
1142.000000	29.456189
1143.000000	29.426641
1144.000000	29.397876
1145.000000	29.383594
1146.000000	29.349196
1147.000000	29.315964
1148.000000	29.293020
1149.000000	29.261210
1150.000000	29.251306
1151.000000	29.224410
1152.000000	29.179321
1153.000000	29.147231
1154.000000	29.097246
1155.000000	29.069218
1156.000000	29.027077
1157.000000	28.982653
1158.000000	28.943487
1159.000000	28.893800
1160.000000	28.846276
1161.000000	28.805797
1162.000000	28.767710
1163.000000	28.713233
1164.000000	28.685718
1165.000000	28.642011
1166.000000	28.604739
1167.000000	28.574100
1168.000000	28.527842
1169.000000	28.491873
1170.000000	28.454682
1171.000000	28.429785
1172.000000	28.393285
1173.000000	28.355918
1174.000000	28.353627
1175.000000	28.320655
1176.000000	28.296232
1177.000000	28.281099
1178.000000	28.260940
1179.000000	28.265609
1180.000000	28.230157
1181.000000	28.221666
1182.000000	28.216662
1183.000000	28.216693
1184.000000	28.215410
1185.000000	28.213720
1186.000000	28.222365
1187.000000	28.227129
1188.000000	28.243131
1189.000000	28.264950
1190.000000	28.282719
1191.000000	28.296872
1192.000000	28.321056
1193.000000	28.345419
1194.000000	28.371712
1195.000000	28.395328
1196.000000	28.411271
1197.000000	28.426062
1198.000000	28.456390
1199.000000	28.481293
1200.000000	28.497831
1201.000000	28.528409
1202.000000	28.549660
1203.000000	28.568218
1204.000000	28.587942
1205.000000	28.608900
1206.000000	28.617796
1207.000000	28.636915
1208.000000	28.657158
1209.000000	28.682825
1210.000000	28.683273
1211.000000	28.704618
1212.000000	28.718129
1213.000000	28.734005
1214.000000	28.749604
1215.000000	28.760262
1216.000000	28.773906
1217.000000	28.784116
1218.000000	28.792671
1219.000000	28.811107
1220.000000	28.817851
1221.000000	28.836826
1222.000000	28.860249
1223.000000	28.870748
1224.000000	28.877644
1225.000000	28.907399
1226.000000	28.920062
1227.000000	28.935148
1228.000000	28.943096
1229.000000	28.949491
1230.000000	28.960761
1231.000000	28.980481
1232.000000	29.005646
1233.000000	29.020166
1234.000000	29.026194
1235.000000	29.032565
1236.000000	29.051893
1237.000000	29.063173
1238.000000	29.083566
1239.000000	29.090808
1240.000000	29.104364
1241.000000	29.116931
1242.000000	29.129051
1243.000000	29.140187
1244.000000	29.156068
1245.000000	29.165842
1246.000000	29.184102
1247.000000	29.196545
1248.000000	29.197645
1249.000000	29.203742
1250.000000	29.214880
1251.000000	29.219825
1252.000000	29.229961
1253.000000	29.244966
1254.000000	29.256317
1255.000000	29.251437
1256.000000	29.253754
1257.000000	29.254336
1258.000000	29.253034
1259.000000	29.258412
1260.000000	29.259232
1261.000000	29.262532
1262.000000	29.265677
1263.000000	29.266593
1264.000000	29.271085
1265.000000	29.273842
1266.000000	29.281289
1267.000000	29.288093
1268.000000	29.288208
1269.000000	29.288721
1270.000000	29.294397
1271.000000	29.305404
1272.000000	29.305439
1273.000000	29.313354
1274.000000	29.323440
1275.000000	29.337553
1276.000000	29.342936
1277.000000	29.353450
1278.000000	29.361847
1279.000000	29.365075
1280.000000	29.371294
1281.000000	29.377188
1282.000000	29.381567
1283.000000	29.383970
1284.000000	29.394637
1285.000000	29.407424
1286.000000	29.408557
1287.000000	29.416477
1288.000000	29.418831
1289.000000	29.424391
1290.000000	29.438694
1291.000000	29.447245
1292.000000	29.446797
1293.000000	29.445652
1294.000000	29.449749
1295.000000	29.452034
1296.000000	29.447791
1297.000000	29.448098
1298.000000	29.444637
1299.000000	29.442448
1300.000000	29.448014
1301.000000	29.444941
1302.000000	29.442282
1303.000000	29.437239
1304.000000	29.429114
1305.000000	29.424626
1306.000000	29.422566
1307.000000	29.409863
1308.000000	29.399143
1309.000000	29.391626
1310.000000	29.386304
1311.000000	29.388136
1312.000000	29.375660
1313.000000	29.363974
1314.000000	29.364773
1315.000000	29.348244
1316.000000	29.328732
1317.000000	29.314896
1318.000000	29.298436
1319.000000	29.278918
1320.000000	29.256438
1321.000000	29.240807
1322.000000	29.224925
1323.000000	29.207947
1324.000000	29.183805
1325.000000	29.160284
1326.000000	29.125956
1327.000000	29.102418
1328.000000	29.079660
1329.000000	29.053834
1330.000000	29.011373
1331.000000	28.973341
1332.000000	28.933029
1333.000000	28.892820
1334.000000	28.847329
1335.000000	28.791494
1336.000000	28.746978
1337.000000	28.695976
1338.000000	28.658908
1339.000000	28.612989
1340.000000	28.558791
1341.000000	28.504835
1342.000000	28.461469
1343.000000	28.399369
1344.000000	28.329790
1345.000000	28.288626
1346.000000	28.238632
1347.000000	28.167439
1348.000000	28.094621
1349.000000	28.062070
1350.000000	28.006626
1351.000000	27.950438
1352.000000	27.913774
1353.000000	27.862494
1354.000000	27.781740
1355.000000	27.721357
1356.000000	27.682662
1357.000000	27.655898
1358.000000	27.635375
1359.000000	27.611417
1360.000000	27.551988
1361.000000	27.452747
1362.000000	27.385750
1363.000000	27.354526
1364.000000	27.302293
1365.000000	27.255781
1366.000000	27.223245
1367.000000	27.165342
1368.000000	27.106211
1369.000000	27.068982
1370.000000	27.000226
1371.000000	26.892902
1372.000000	26.814960
1373.000000	26.730248
1374.000000	26.657062
1375.000000	26.555319
1376.000000	26.467618
1377.000000	26.392496
1378.000000	26.334129
1379.000000	26.258124
1380.000000	26.186102
1381.000000	26.047019
1382.000000	25.940223
1383.000000	25.823202
1384.000000	25.740080
1385.000000	25.662275
1386.000000	25.585644
1387.000000	25.471737
1388.000000	25.365033
1389.000000	25.287502
1390.000000	25.221417
1391.000000	25.107333
1392.000000	25.000779
1393.000000	24.912548
1394.000000	24.799410
1395.000000	24.597269
1396.000000	24.457049
1397.000000	24.378766
1398.000000	24.308482
1399.000000	24.168754
1400.000000	23.973286
1401.000000	23.816754
1402.000000	23.724029
1403.000000	23.600586
1404.000000	23.432332
1405.000000	23.269749
1406.000000	23.130618
1407.000000	22.979758
1408.000000	22.820480
1409.000000	22.647692
1410.000000	22.493845
1411.000000	22.385774
1412.000000	22.236928
1413.000000	22.086465
1414.000000	21.926068
1415.000000	21.787071
1416.000000	21.672164
1417.000000	21.561888
1418.000000	21.426145
1419.000000	21.294458
1420.000000	21.187312
1421.000000	21.081149
1422.000000	20.971209
1423.000000	20.865813
1424.000000	20.766440
1425.000000	20.666221
1426.000000	20.579119
1427.000000	20.496177
1428.000000	20.386838
1429.000000	20.318769
1430.000000	20.243760
1431.000000	20.160158
1432.000000	20.090238
1433.000000	20.011269
1434.000000	19.936686
1435.000000	19.886069
1436.000000	19.818170
1437.000000	19.746672
1438.000000	19.660859
1439.000000	19.620184
1440.000000	19.560942
1441.000000	19.493954
1442.000000	19.438567
1443.000000	19.382599
1444.000000	19.331790
1445.000000	19.283644
1446.000000	19.203401
1447.000000	19.165354
1448.000000	19.132876
1449.000000	19.081332
1450.000000	19.017215
1451.000000	18.958793
1452.000000	18.916159
1453.000000	18.866471
1454.000000	18.824797
1455.000000	18.774256
1456.000000	18.716338
1457.000000	18.669738
1458.000000	18.628375
1459.000000	18.579999
1460.000000	18.535162
1461.000000	18.498143
1462.000000	18.448930
1463.000000	18.391983
1464.000000	18.350895
1465.000000	18.300428
1466.000000	18.256175
1467.000000	18.211830
1468.000000	18.184042
1469.000000	18.146476
1470.000000	18.102738
1471.000000	18.058899
1472.000000	18.033930
1473.000000	17.985986
1474.000000	17.953037
1475.000000	17.915808
1476.000000	17.887181
1477.000000	17.865129
1478.000000	17.836522
1479.000000	17.814341
1480.000000	17.790191
1481.000000	17.767741
1482.000000	17.757771
1483.000000	17.738406
1484.000000	17.721751
1485.000000	17.714729
1486.000000	17.695093
1487.000000	17.700309
1488.000000	17.694054
1489.000000	17.690833
1490.000000	17.685712
1491.000000	17.680756
1492.000000	17.675162
1493.000000	17.686749
1494.000000	17.692703
1495.000000	17.702625
1496.000000	17.714528
1497.000000	17.740061
1498.000000	17.765562
1499.000000	17.777017
1500.000000	17.800373
1501.000000	17.823861
1502.000000	17.842854
1503.000000	17.879872
1504.000000	17.917249
1505.000000	17.937422
1506.000000	17.968269
1507.000000	18.008898
1508.000000	18.040234
1509.000000	18.074754
1510.000000	18.111476
1511.000000	18.146310
1512.000000	18.181695
1513.000000	18.212294
1514.000000	18.242085
1515.000000	18.290732
1516.000000	18.334555
1517.000000	18.360224
1518.000000	18.403253
1519.000000	18.438163
1520.000000	18.463066
1521.000000	18.501098
1522.000000	18.545284
1523.000000	18.583280
1524.000000	18.623456
1525.000000	18.644231
1526.000000	18.665949
1527.000000	18.703417
1528.000000	18.731160
1529.000000	18.759302
1530.000000	18.791310
1531.000000	18.831488
1532.000000	18.859578
1533.000000	18.889285
1534.000000	18.902358
1535.000000	18.928439
1536.000000	18.954600
1537.000000	18.984291
1538.000000	19.010684
1539.000000	19.028332
1540.000000	19.054756
1541.000000	19.083831
1542.000000	19.106547
1543.000000	19.128893
1544.000000	19.157717
1545.000000	19.182452
1546.000000	19.208800
1547.000000	19.235798
1548.000000	19.268141
1549.000000	19.304873
1550.000000	19.337403
1551.000000	19.361527
1552.000000	19.385635
1553.000000	19.415865
1554.000000	19.436405
1555.000000	19.450006
1556.000000	19.466878
1557.000000	19.484159
1558.000000	19.489707
1559.000000	19.507372
1560.000000	19.520175
1561.000000	19.519614
1562.000000	19.512950
1563.000000	19.513278
1564.000000	19.515703
1565.000000	19.512268
1566.000000	19.508862
1567.000000	19.505798
1568.000000	19.495989
1569.000000	19.499527
1570.000000	19.499249
1571.000000	19.497795
1572.000000	19.502581
1573.000000	19.506436
1574.000000	19.506456
1575.000000	19.501553
1576.000000	19.507989
1577.000000	19.506153
1578.000000	19.521538
1579.000000	19.529652
1580.000000	19.545225
1581.000000	19.559952
1582.000000	19.566679
1583.000000	19.576347
1584.000000	19.598276
1585.000000	19.626440
1586.000000	19.649017
1587.000000	19.655988
1588.000000	19.688196
1589.000000	19.718726
1590.000000	19.740798
1591.000000	19.763538
1592.000000	19.789717
1593.000000	19.825271
1594.000000	19.859427
1595.000000	19.892874
1596.000000	19.912774
1597.000000	19.947179
1598.000000	19.982353
1599.000000	20.014109
1600.000000	20.046134
1601.000000	20.075545
1602.000000	20.108894
1603.000000	20.147031
1604.000000	20.186907
1605.000000	20.215252
1606.000000	20.255244
1607.000000	20.291977
1608.000000	20.304649
1609.000000	20.341109
1610.000000	20.381174
1611.000000	20.398588
1612.000000	20.419164
1613.000000	20.462294
1614.000000	20.483389
1615.000000	20.497267
1616.000000	20.529307
1617.000000	20.558098
1618.000000	20.579024
1619.000000	20.592908
1620.000000	20.611231
1621.000000	20.636298
1622.000000	20.651936
1623.000000	20.684114
1624.000000	20.704807
1625.000000	20.726196
1626.000000	20.748018
1627.000000	20.756287
1628.000000	20.776638
1629.000000	20.777901
1630.000000	20.795777
1631.000000	20.812352
1632.000000	20.841129
1633.000000	20.849028
1634.000000	20.847658
1635.000000	20.861182
1636.000000	20.886830
1637.000000	20.886938
1638.000000	20.887331
1639.000000	20.899406
1640.000000	20.892013
1641.000000	20.913367
1642.000000	20.910489
1643.000000	20.916310
1644.000000	20.909018
1645.000000	20.903422
1646.000000	20.900644
1647.000000	20.901047
1648.000000	20.891033
1649.000000	20.866449
1650.000000	20.854202
1651.000000	20.833654
1652.000000	20.818042
1653.000000	20.811973
1654.000000	20.781788
1655.000000	20.742654
1656.000000	20.731062
1657.000000	20.671478
1658.000000	20.622289
1659.000000	20.595106
1660.000000	20.533912
1661.000000	20.471656
1662.000000	20.409278
1663.000000	20.355558
1664.000000	20.303350
1665.000000	20.228936
1666.000000	20.158974
1667.000000	20.103778
1668.000000	20.038861
1669.000000	19.953973
1670.000000	19.862819
1671.000000	19.790082
1672.000000	19.700864
1673.000000	19.624820
1674.000000	19.536279
1675.000000	19.458496
1676.000000	19.366390
1677.000000	19.290590
1678.000000	19.205233
1679.000000	19.123895
1680.000000	19.040640
1681.000000	18.974797
1682.000000	18.888339
1683.000000	18.811691
1684.000000	18.771708
1685.000000	18.702714
1686.000000	18.669405
1687.000000	18.621607
1688.000000	18.619203
1689.000000	18.620994
1690.000000	18.599431
1691.000000	18.614213
1692.000000	18.604187
1693.000000	18.623379
1694.000000	18.647332
1695.000000	18.639207
1696.000000	18.646527
1697.000000	18.667390
1698.000000	18.654183
1699.000000	18.639030
1700.000000	18.644805
1701.000000	18.640278
1702.000000	18.606340
1703.000000	18.581498
1704.000000	18.541525
1705.000000	18.506851
1706.000000	18.476484
1707.000000	18.406124
1708.000000	18.356457
1709.000000	18.291898
1710.000000	18.235018
1711.000000	18.162449
1712.000000	18.086721
1713.000000	18.010328
1714.000000	17.912271
1715.000000	17.823606
1716.000000	17.755007
1717.000000	17.680691
1718.000000	17.613228
1719.000000	17.556927
1720.000000	17.490051
1721.000000	17.451165
1722.000000	17.405287
1723.000000	17.379556
1724.000000	17.356199
1725.000000	17.351509
1726.000000	17.346873
1727.000000	17.344446
1728.000000	17.362988
1729.000000	17.394672
1730.000000	17.399303
1731.000000	17.435193
1732.000000	17.452802
1733.000000	17.498664
1734.000000	17.517385
1735.000000	17.549418
1736.000000	17.591000
1737.000000	17.616625
1738.000000	17.646217
1739.000000	17.688965
1740.000000	17.716592
1741.000000	17.756127
1742.000000	17.796937
1743.000000	17.855133
1744.000000	17.880421
1745.000000	17.903801
1746.000000	17.916694
1747.000000	17.949965
1748.000000	17.990717
1749.000000	18.016811
1750.000000	18.038888
1751.000000	18.055701
1752.000000	18.052854
1753.000000	18.067301
1754.000000	18.082746
1755.000000	18.075223
1756.000000	18.093011
1757.000000	18.095408
1758.000000	18.120464
1759.000000	18.124450
1760.000000	18.119597
1761.000000	18.148722
1762.000000	18.163580
1763.000000	18.163515
1764.000000	18.170244
1765.000000	18.186378
1766.000000	18.201771
1767.000000	18.205389
1768.000000	18.220007
1769.000000	18.224681
1770.000000	18.252940
1771.000000	18.280462
1772.000000	18.281006
1773.000000	18.304307
1774.000000	18.317289
1775.000000	18.325721
1776.000000	18.349288
1777.000000	18.376464
1778.000000	18.378740
1779.000000	18.376378
1780.000000	18.391359
1781.000000	18.400486
1782.000000	18.396528
1783.000000	18.413590
1784.000000	18.421559
1785.000000	18.427474
1786.000000	18.453301
1787.000000	18.447731
1788.000000	18.451611
1789.000000	18.457678
1790.000000	18.452750
1791.000000	18.465564
1792.000000	18.488817
1793.000000	18.505248
1794.000000	18.518301
1795.000000	18.517145
1796.000000	18.519297
1797.000000	18.534461
1798.000000	18.557768
1799.000000	18.584115
1800.000000	18.588574
1801.000000	18.588200
1802.000000	18.600758
1803.000000	18.626684
1804.000000	18.651022
1805.000000	18.659029
1806.000000	18.657757
1807.000000	18.670028
1808.000000	18.687101
1809.000000	18.717460
1810.000000	18.754877
1811.000000	18.739587
1812.000000	18.737120
1813.000000	18.761443
1814.000000	18.786926
1815.000000	18.782696
1816.000000	18.786397
1817.000000	18.834416
1818.000000	18.865492
1819.000000	18.863560
1820.000000	18.813182
1821.000000	18.757409
1822.000000	18.773344
1823.000000	18.848169
1824.000000	18.890700
1825.000000	18.903213
1826.000000	18.909700
1827.000000	18.914387
1828.000000	18.921685
1829.000000	18.902131
1830.000000	18.904109
1831.000000	18.945052
1832.000000	18.974791
1833.000000	19.023776
1834.000000	19.072392
1835.000000	19.083271
1836.000000	19.074738
1837.000000	19.078314
1838.000000	19.103938
1839.000000	19.115070
1840.000000	19.076633
1841.000000	19.045789
1842.000000	19.046873
1843.000000	19.110379
1844.000000	19.182502
1845.000000	19.257229
1846.000000	19.235956
1847.000000	19.127546
1848.000000	19.046426
1849.000000	19.032075
1850.000000	19.091734
1851.000000	19.136520
1852.000000	19.129030
1853.000000	19.109287
1854.000000	19.085088
1855.000000	19.080355
1856.000000	19.093262
1857.000000	19.089521
1858.000000	19.047666
1859.000000	19.003908
1860.000000	18.974980
1861.000000	18.902670
1862.000000	18.873818
1863.000000	18.881240
1864.000000	18.865282
1865.000000	18.858367
1866.000000	18.824530
1867.000000	18.781276
1868.000000	18.695679
1869.000000	18.560202
1870.000000	18.412143
1871.000000	18.307446
1872.000000	18.147227
1873.000000	17.992790
1874.000000	17.851036
1875.000000	17.717407
1876.000000	17.583866
1877.000000	17.423763
1878.000000	17.259498
1879.000000	17.124152
1880.000000	17.003967
1881.000000	16.867551
1882.000000	16.675434
1883.000000	16.481669
1884.000000	16.282422
1885.000000	16.096688
1886.000000	15.917927
1887.000000	15.746256
1888.000000	15.529992
1889.000000	15.311664
1890.000000	15.100307
1891.000000	14.841154
1892.000000	14.571693
1893.000000	14.354502
1894.000000	14.127702
1895.000000	13.897491
1896.000000	13.670729
1897.000000	13.418648
1898.000000	13.169832
1899.000000	12.889351
1900.000000	12.637129
1901.000000	12.425402
1902.000000	12.189029
1903.000000	11.947500
1904.000000	11.707903
1905.000000	11.431052
1906.000000	11.234490
1907.000000	11.036689
1908.000000	10.849939
1909.000000	10.668417
1910.000000	10.542889
1911.000000	10.330139
1912.000000	10.171018
1913.000000	10.007043
1914.000000	9.876073
1915.000000	9.720697
1916.000000	9.599267
1917.000000	9.542498
1918.000000	9.379673
1919.000000	9.275171
1920.000000	9.191862
1921.000000	9.077518
1922.000000	8.984563
1923.000000	8.929851
1924.000000	8.925675
1925.000000	8.825270
1926.000000	8.774320
1927.000000	8.707757
1928.000000	8.706472
1929.000000	8.643695
1930.000000	8.586883
1931.000000	8.563974
1932.000000	8.548064
1933.000000	8.518133
1934.000000	8.505010
1935.000000	8.502969
1936.000000	8.520367
1937.000000	8.514104
1938.000000	8.535572
1939.000000	8.549918
1940.000000	8.539979
1941.000000	8.565921
1942.000000	8.594341
1943.000000	8.582599
1944.000000	8.596303
1945.000000	8.653409
1946.000000	8.665052
1947.000000	8.718310
1948.000000	8.734489
1949.000000	8.794597
1950.000000	8.856918
1951.000000	8.853482
1952.000000	8.901878
1953.000000	8.950161
1954.000000	9.035088
1955.000000	9.030609
1956.000000	9.099727
1957.000000	9.081477
1958.000000	9.177756
1959.000000	9.224596
1960.000000	9.255703
1961.000000	9.279962
1962.000000	9.356934
1963.000000	9.407032
1964.000000	9.451170
1965.000000	9.480893
1966.000000	9.520386
1967.000000	9.590591
1968.000000	9.600614
1969.000000	9.660764
1970.000000	9.691032
1971.000000	9.747183
1972.000000	9.798145
1973.000000	9.834745
1974.000000	9.891415
1975.000000	9.935211
1976.000000	10.001778
1977.000000	10.038406
1978.000000	10.033067
1979.000000	10.097367
1980.000000	10.183455
1981.000000	10.252906
1982.000000	10.288322
1983.000000	10.321621
1984.000000	10.383111
1985.000000	10.444242
1986.000000	10.480440
1987.000000	10.557008
1988.000000	10.586773
1989.000000	10.621547
1990.000000	10.667219
1991.000000	10.694408
1992.000000	10.768812
1993.000000	10.810931
1994.000000	10.903014
1995.000000	10.902947
1996.000000	10.931087
1997.000000	10.938064
1998.000000	10.963332
1999.000000	11.007536
2000.000000	11.027912
2001.000000	11.072167
2002.000000	11.120909
2003.000000	11.125185
2004.000000	11.127656
2005.000000	11.129222
2006.000000	11.149961
2007.000000	11.193779
2008.000000	11.185251
2009.000000	11.169821
2010.000000	11.182659
2011.000000	11.184377
2012.000000	11.182048
2013.000000	11.172988
2014.000000	11.141374
2015.000000	11.172309
2016.000000	11.175258
2017.000000	11.159551
2018.000000	11.137583
2019.000000	11.060486
2020.000000	11.050596
2021.000000	11.028943
2022.000000	10.977205
2023.000000	10.978779
2024.000000	10.959310
2025.000000	10.905185
2026.000000	10.873814
2027.000000	10.795601
2028.000000	10.746184
2029.000000	10.724385
2030.000000	10.702552
2031.000000	10.640838
2032.000000	10.539918
2033.000000	10.476274
2034.000000	10.456275
2035.000000	10.408067
2036.000000	10.335466
2037.000000	10.280680
2038.000000	10.220392
2039.000000	10.176055
2040.000000	10.116236
2041.000000	10.027689
2042.000000	9.960015
2043.000000	9.922394
2044.000000	9.835012
2045.000000	9.815112
2046.000000	9.794591
2047.000000	9.700521
2048.000000	9.639758
2049.000000	9.660127
2050.000000	9.625249
2051.000000	9.600264
2052.000000	9.563892
2053.000000	9.526304
2054.000000	9.549148
2055.000000	9.606028
2056.000000	9.666626
2057.000000	9.651257
2058.000000	9.621021
2059.000000	9.677906
2060.000000	9.734500
2061.000000	9.696645
2062.000000	9.704174
2063.000000	9.793777
2064.000000	9.855521
2065.000000	9.891097
2066.000000	9.967608
2067.000000	10.090094
2068.000000	10.136870
2069.000000	10.127424
2070.000000	10.182447
2071.000000	10.283419
2072.000000	10.328254
2073.000000	10.311530
2074.000000	10.297458
2075.000000	10.417048
2076.000000	10.505811
2077.000000	10.533940
2078.000000	10.578141
2079.000000	10.611804
2080.000000	10.605116
2081.000000	10.583042
2082.000000	10.618776
2083.000000	10.642896
2084.000000	10.642278
2085.000000	10.719075
2086.000000	10.712651
2087.000000	10.730271
2088.000000	10.751589
2089.000000	10.744472
2090.000000	10.776775
2091.000000	10.743754
2092.000000	10.768982
2093.000000	10.755146
2094.000000	10.762998
2095.000000	10.833304
2096.000000	10.829341
2097.000000	10.777761
2098.000000	10.683417
2099.000000	10.750263
2100.000000	10.788673
2101.000000	10.779797
2102.000000	10.794446
2103.000000	10.810723
2104.000000	10.762477
2105.000000	10.795789
2106.000000	10.858634
2107.000000	10.910224
2108.000000	10.902123
2109.000000	10.885491
2110.000000	10.861079
2111.000000	10.808414
2112.000000	10.879917
2113.000000	10.881014
2114.000000	10.828753
2115.000000	10.889361
2116.000000	10.928394
2117.000000	10.977224
2118.000000	10.980605
2119.000000	10.947504
2120.000000	10.924976
2121.000000	10.929091
2122.000000	10.968514
2123.000000	10.896368
2124.000000	10.905005
2125.000000	10.922064
2126.000000	11.018693
2127.000000	10.830765
2128.000000	10.709228
2129.000000	10.747402
2130.000000	10.759219
2131.000000	10.695331
2132.000000	10.642137
2133.000000	10.597739
2134.000000	10.625785
2135.000000	10.583070
2136.000000	10.603747
2137.000000	10.540994
2138.000000	10.341681
2139.000000	10.457094
2140.000000	10.360086
2141.000000	10.394167
2142.000000	10.168250
2143.000000	10.146224
2144.000000	10.152118
2145.000000	10.132949
2146.000000	9.938460
2147.000000	9.889509
2148.000000	9.951756
2149.000000	10.021448
2150.000000	9.835435
2151.000000	9.849690
2152.000000	9.718655
2153.000000	9.648588
2154.000000	9.641830
2155.000000	9.486520
2156.000000	9.491963
2157.000000	9.481969
2158.000000	9.502007
2159.000000	9.466976
2160.000000	9.431919
2161.000000	9.379168
2162.000000	9.440019
2163.000000	9.227284
2164.000000	9.190999
2165.000000	9.296746
2166.000000	9.245232
2167.000000	9.104294
2168.000000	9.157979
2169.000000	9.082239
2170.000000	9.065638
2171.000000	9.116973
2172.000000	9.172578
2173.000000	9.182838
2174.000000	9.026445
2175.000000	9.132833
2176.000000	8.920647
2177.000000	9.013095
2178.000000	9.071466
2179.000000	9.058574
2180.000000	9.071790
2181.000000	8.968639
2182.000000	9.027984
2183.000000	9.169177
2184.000000	9.087545
2185.000000	9.128121
2186.000000	9.171689
2187.000000	9.072972
2188.000000	9.061924
2189.000000	9.174924
2190.000000	9.154301
2191.000000	9.176354
2192.000000	9.093824
2193.000000	9.135776
2194.000000	9.302825
2195.000000	9.278193
2196.000000	9.247384
2197.000000	9.401357
2198.000000	9.210952
2199.000000	9.263214
2200.000000	9.295279
2201.000000	9.417000
2202.000000	9.357442
2203.000000	9.328656
2204.000000	9.463722
2205.000000	9.487524
2206.000000	9.505057
2207.000000	9.662022
2208.000000	9.597121
2209.000000	9.440246
2210.000000	9.482066
2211.000000	9.552874
2212.000000	9.491738
2213.000000	9.642900
2214.000000	9.754069
2215.000000	9.693379
2216.000000	9.886684
2217.000000	9.737000
2218.000000	9.941923
2219.000000	9.836400
2220.000000	9.896302
2221.000000	9.865722
2222.000000	9.893640
2223.000000	9.911151
2224.000000	9.921069
2225.000000	9.984112
2226.000000	9.790858
2227.000000	9.856007
2228.000000	10.059376
2229.000000	10.103929
2230.000000	10.120798
2231.000000	9.997775
2232.000000	9.996640
2233.000000	10.082932
2234.000000	10.062240
2235.000000	10.106145
2236.000000	10.075022
2237.000000	10.068797
2238.000000	10.184806
2239.000000	10.137189
2240.000000	9.952736
2241.000000	9.854472
2242.000000	9.935095
2243.000000	9.829625
2244.000000	9.866172
2245.000000	9.869056
2246.000000	9.748619
2247.000000	9.795094
2248.000000	9.738752
2249.000000	9.658731
2250.000000	9.587441
2251.000000	9.649046
2252.000000	9.611672
2253.000000	9.505140
2254.000000	9.456534
2255.000000	9.490225
2256.000000	9.385151
2257.000000	9.298691
2258.000000	9.255448
2259.000000	9.142642
2260.000000	9.033496
2261.000000	8.894386
2262.000000	8.783545
2263.000000	8.793617
2264.000000	8.982851
2265.000000	8.885769
2266.000000	8.781769
2267.000000	8.726767
2268.000000	8.655738
2269.000000	8.856009
2270.000000	8.856640
2271.000000	8.721587
2272.000000	8.640488
2273.000000	8.553215
2274.000000	8.623471
2275.000000	8.705151
2276.000000	8.740966
2277.000000	8.681973
2278.000000	8.544515
2279.000000	8.472116
2280.000000	8.575611
2281.000000	8.664871
2282.000000	8.844626
2283.000000	8.845279
2284.000000	8.756696
2285.000000	8.784962
2286.000000	8.900324
2287.000000	8.869388
2288.000000	8.662331
2289.000000	8.626486
2290.000000	8.787376
2291.000000	8.600841
2292.000000	8.649718
2293.000000	8.610045
2294.000000	8.627183
2295.000000	8.819521
2296.000000	8.867720
2297.000000	8.754923
2298.000000	8.768072
2299.000000	8.944668
2300.000000	8.998290
2301.000000	8.896160
2302.000000	8.817376
2303.000000	8.659713
2304.000000	8.785516
2305.000000	8.942323
2306.000000	8.959771
2307.000000	8.887714
2308.000000	8.919044
2309.000000	9.030485
2310.000000	9.117982
2311.000000	9.162527
2312.000000	9.127412
2313.000000	9.149588
2314.000000	9.113852
2315.000000	9.143166
2316.000000	9.052877
2317.000000	9.086341
2318.000000	9.183922
2319.000000	9.146840
2320.000000	9.141216
2321.000000	9.211617
2322.000000	9.248957
2323.000000	9.219412
2324.000000	9.380300
2325.000000	9.413983
2326.000000	9.295057
2327.000000	9.291853
2328.000000	9.178403
2329.000000	9.114519
2330.000000	9.090097
2331.000000	9.063907
2332.000000	9.339058
2333.000000	9.539958
2334.000000	9.475199
2335.000000	9.537925
2336.000000	9.670003
2337.000000	9.600384
2338.000000	9.588466
2339.000000	9.544991
2340.000000	9.613883
2341.000000	9.611269
2342.000000	9.635164
2343.000000	9.736886
2344.000000	9.662180
2345.000000	9.580882
2346.000000	9.476049
2347.000000	9.641095
2348.000000	9.911327
2349.000000	9.801631
2350.000000	9.570931
2351.000000	9.516192
2352.000000	9.591195
2353.000000	9.666341
2354.000000	9.683514
2355.000000	9.798913
2356.000000	9.883606
2357.000000	9.913177
2358.000000	9.902391
2359.000000	9.901181
2360.000000	9.960398
2361.000000	10.223359
2362.000000	10.184875
2363.000000	10.123186
2364.000000	9.882450
2365.000000	9.821655
2366.000000	10.117381
2367.000000	10.238698
2368.000000	10.303603
2369.000000	10.166317
2370.000000	10.174110
2371.000000	10.535713
2372.000000	10.480173
2373.000000	10.293769
2374.000000	10.130090
2375.000000	10.029834
2376.000000	10.164735
2377.000000	10.240737
2378.000000	9.952150
2379.000000	10.311032
2380.000000	10.293240
2381.000000	10.305117
2382.000000	10.490939
2383.000000	10.737114
2384.000000	10.466328
2385.000000	10.457537
2386.000000	10.510239
2387.000000	10.429643
2388.000000	10.322034
2389.000000	10.526934
2390.000000	10.336076
2391.000000	10.429542
2392.000000	10.688819
2393.000000	10.760986
2394.000000	10.702487
2395.000000	10.771369
2396.000000	10.796352
2397.000000	10.636866
2398.000000	10.524721
2399.000000	10.485008
2400.000000	10.507721
2401.000000	10.631493
2402.000000	10.419130
2403.000000	10.727034
2404.000000	10.758327
2405.000000	10.708485
2406.000000	10.749173
2407.000000	10.414771
2408.000000	10.579490
2409.000000	10.706486
2410.000000	10.724449
2411.000000	10.634838
2412.000000	10.999236
2413.000000	11.122772
2414.000000	10.976168
2415.000000	10.686792
2416.000000	10.790222
2417.000000	10.831794
2418.000000	10.639996
2419.000000	10.265158
2420.000000	10.800517
2421.000000	10.679586
2422.000000	10.790047
2423.000000	11.110533
2424.000000	10.587804
2425.000000	10.812430
2426.000000	10.455205
2427.000000	10.608700
2428.000000	10.416603
2429.000000	10.742078
2430.000000	10.725656
2431.000000	10.760384
2432.000000	10.555731
2433.000000	11.050096
2434.000000	10.373751
2435.000000	11.198239
2436.000000	11.260511
2437.000000	11.264079
2438.000000	10.738881
2439.000000	11.291179
2440.000000	11.036794
2441.000000	10.663515
2442.000000	10.663441
2443.000000	10.735832
2444.000000	10.392159
2445.000000	10.599623
2446.000000	11.114340
2447.000000	11.545543
2448.000000	11.615446
2449.000000	11.125829
2450.000000	10.425096
2451.000000	10.721194
2452.000000	11.607979
2453.000000	11.322001
2454.000000	11.463284
2455.000000	11.745165
2456.000000	12.338796
2457.000000	11.909332
2458.000000	11.851920
2459.000000	11.967782
2460.000000	12.172906
2461.000000	11.312166
2462.000000	12.555062
2463.000000	12.532512
2464.000000	11.753417
2465.000000	12.941010
2466.000000	12.635925
2467.000000	13.262823
2468.000000	12.773643
2469.000000	13.379426
2470.000000	13.775892
2471.000000	14.355963
2472.000000	14.556374
2473.000000	14.434028
2474.000000	14.325580
2475.000000	15.044157
2476.000000	13.956822
2477.000000	15.971813
2478.000000	16.417767
2479.000000	14.908199
2480.000000	15.187728
2481.000000	17.615545
2482.000000	15.950012
2483.000000	17.166839
2484.000000	17.092665
2485.000000	16.358231
2486.000000	18.469026
2487.000000	17.897697
2488.000000	18.066441
2489.000000	19.441640
2490.000000	18.867216
2491.000000	19.525930
2492.000000	18.708121
2493.000000	20.378888
2494.000000	20.545747
2495.000000	20.381763
2496.000000	20.730347
2497.000000	19.983722
2498.000000	21.083983
2499.000000	22.667340
2500.000000	21.752530
2501.000000	nan
2502.000000	nan
2503.000000	nan
2504.000000	nan
2505.000000	nan
2506.000000	nan
2507.000000	nan
2508.000000	nan
2509.000000	nan
2510.000000	nan
2511.000000	nan
2512.000000	nan
2513.000000	nan
2514.000000	nan
2515.000000	nan
2516.000000	nan
2517.000000	nan
2518.000000	nan
2519.000000	nan
2520.000000	nan
2521.000000	nan
2522.000000	nan
2523.000000	nan
2524.000000	nan
2525.000000	nan
2526.000000	nan
2527.000000	nan
2528.000000	nan
2529.000000	nan
2530.000000	nan
2531.000000	nan
2532.000000	nan
2533.000000	nan
2534.000000	nan
2535.000000	nan
2536.000000	nan
2537.000000	nan
2538.000000	nan
2539.000000	nan
2540.000000	nan
2541.000000	nan
2542.000000	nan
2543.000000	nan
2544.000000	nan
2545.000000	nan
2546.000000	nan
2547.000000	nan
2548.000000	nan
2549.000000	nan
2550.000000	nan
2551.000000	nan
2552.000000	nan
2553.000000	nan
2554.000000	nan
2555.000000	nan
2556.000000	nan
2557.000000	nan
2558.000000	nan
2559.000000	nan
2560.000000	nan
2561.000000	nan
2562.000000	nan
2563.000000	nan
2564.000000	nan
2565.000000	nan
2566.000000	nan
2567.000000	nan
2568.000000	nan
2569.000000	nan
2570.000000	nan
2571.000000	nan
2572.000000	nan
2573.000000	nan
2574.000000	nan
2575.000000	nan
2576.000000	nan
2577.000000	nan
2578.000000	nan
2579.000000	nan
2580.000000	nan
2581.000000	nan
2582.000000	nan
2583.000000	nan
2584.000000	nan
2585.000000	nan
2586.000000	nan
2587.000000	nan
2588.000000	nan
2589.000000	nan
2590.000000	nan
2591.000000	nan
2592.000000	nan
2593.000000	nan
2594.000000	nan
2595.000000	nan
2596.000000	nan
2597.000000	nan
2598.000000	nan
2599.000000	nan
2600.000000	nan
2601.000000	nan
2602.000000	nan
2603.000000	nan
2604.000000	nan
2605.000000	nan
2606.000000	nan
2607.000000	nan
2608.000000	nan
2609.000000	nan
2610.000000	nan
2611.000000	nan
2612.000000	nan
2613.000000	nan
2614.000000	nan
2615.000000	nan
2616.000000	nan
2617.000000	nan
2618.000000	nan
2619.000000	nan
2620.000000	nan
2621.000000	nan
2622.000000	nan
2623.000000	nan
2624.000000	nan
2625.000000	nan
2626.000000	nan
2627.000000	nan
2628.000000	nan
2629.000000	nan
2630.000000	nan
2631.000000	nan
2632.000000	nan
2633.000000	nan
2634.000000	nan
2635.000000	nan
2636.000000	nan
2637.000000	nan
2638.000000	nan
2639.000000	nan
2640.000000	nan
2641.000000	nan
2642.000000	nan
2643.000000	nan
2644.000000	nan
2645.000000	nan
2646.000000	nan
2647.000000	nan
2648.000000	nan
2649.000000	nan
2650.000000	nan
2651.000000	nan
2652.000000	nan
2653.000000	nan
2654.000000	nan
2655.000000	nan
2656.000000	nan
2657.000000	nan
2658.000000	nan
2659.000000	nan
2660.000000	nan
2661.000000	nan
2662.000000	nan
2663.000000	nan
2664.000000	nan
2665.000000	nan
2666.000000	nan
2667.000000	nan
2668.000000	nan
2669.000000	nan
2670.000000	nan
2671.000000	nan
2672.000000	nan
2673.000000	nan
2674.000000	nan
2675.000000	nan
2676.000000	nan
2677.000000	nan
2678.000000	nan
2679.000000	nan
2680.000000	nan
2681.000000	nan
2682.000000	nan
2683.000000	nan
2684.000000	nan
2685.000000	nan
2686.000000	nan
2687.000000	nan
2688.000000	nan
2689.000000	nan
2690.000000	nan
2691.000000	nan
2692.000000	nan
2693.000000	nan
2694.000000	nan
2695.000000	nan
2696.000000	nan
2697.000000	nan
2698.000000	nan
2699.000000	nan
2700.000000	nan
2701.000000	nan
2702.000000	nan
2703.000000	nan
2704.000000	nan
2705.000000	nan
2706.000000	nan
2707.000000	nan
2708.000000	nan
2709.000000	nan
2710.000000	nan
2711.000000	nan
2712.000000	nan
2713.000000	nan
2714.000000	nan
2715.000000	nan
2716.000000	nan
2717.000000	nan
2718.000000	nan
2719.000000	nan
2720.000000	nan
2721.000000	nan
2722.000000	nan
2723.000000	nan
2724.000000	nan
2725.000000	nan
2726.000000	nan
2727.000000	nan
2728.000000	nan
2729.000000	nan
2730.000000	nan
2731.000000	nan
2732.000000	nan
2733.000000	nan
2734.000000	nan
2735.000000	nan
2736.000000	nan
2737.000000	nan
2738.000000	nan
2739.000000	nan
2740.000000	nan
2741.000000	nan
2742.000000	nan
2743.000000	nan
2744.000000	nan
2745.000000	nan
2746.000000	nan
2747.000000	nan
2748.000000	nan
2749.000000	nan
2750.000000	nan
2751.000000	nan
2752.000000	nan
2753.000000	nan
2754.000000	nan
2755.000000	nan
2756.000000	nan
2757.000000	nan
2758.000000	nan
2759.000000	nan
2760.000000	nan
2761.000000	nan
2762.000000	nan
2763.000000	nan
2764.000000	nan
2765.000000	nan
2766.000000	nan
2767.000000	nan
2768.000000	nan
2769.000000	nan
2770.000000	nan
2771.000000	nan
2772.000000	nan
2773.000000	nan
2774.000000	nan
2775.000000	nan
2776.000000	nan
2777.000000	nan
2778.000000	nan
2779.000000	nan
2780.000000	nan
2781.000000	nan
2782.000000	nan
2783.000000	nan
2784.000000	nan
2785.000000	nan
2786.000000	nan
2787.000000	nan
2788.000000	nan
2789.000000	nan
2790.000000	nan
2791.000000	nan
2792.000000	nan
2793.000000	nan
2794.000000	nan
2795.000000	nan
2796.000000	nan
2797.000000	nan
2798.000000	nan
2799.000000	nan
2800.000000	nan
2801.000000	nan
2802.000000	nan
2803.000000	nan
2804.000000	nan
2805.000000	nan
2806.000000	nan
2807.000000	nan
2808.000000	nan
2809.000000	nan
2810.000000	nan
2811.000000	nan
2812.000000	nan
2813.000000	nan
2814.000000	nan
2815.000000	nan
2816.000000	nan
2817.000000	nan
2818.000000	nan
2819.000000	nan
2820.000000	nan
2821.000000	nan
2822.000000	nan
2823.000000	nan
2824.000000	nan
2825.000000	nan
2826.000000	nan
2827.000000	nan
2828.000000	nan
2829.000000	nan
2830.000000	nan
2831.000000	nan
2832.000000	nan
2833.000000	nan
2834.000000	nan
2835.000000	nan
2836.000000	nan
2837.000000	nan
2838.000000	nan
2839.000000	nan
2840.000000	nan
2841.000000	nan
2842.000000	nan
2843.000000	nan
2844.000000	nan
2845.000000	nan
2846.000000	nan
2847.000000	nan
2848.000000	nan
2849.000000	nan
2850.000000	nan
2851.000000	nan
2852.000000	nan
2853.000000	nan
2854.000000	nan
2855.000000	nan
2856.000000	nan
2857.000000	nan
2858.000000	nan
2859.000000	nan
2860.000000	nan
2861.000000	nan
2862.000000	nan
2863.000000	nan
2864.000000	nan
2865.000000	nan
2866.000000	nan
2867.000000	nan
2868.000000	nan
2869.000000	nan
2870.000000	nan
2871.000000	nan
2872.000000	nan
2873.000000	nan
2874.000000	nan
2875.000000	nan
2876.000000	nan
2877.000000	nan
2878.000000	nan
2879.000000	nan
2880.000000	nan
2881.000000	nan
2882.000000	nan
2883.000000	nan
2884.000000	nan
2885.000000	nan
2886.000000	nan
2887.000000	nan
2888.000000	nan
2889.000000	nan
2890.000000	nan
2891.000000	nan
2892.000000	nan
2893.000000	nan
2894.000000	nan
2895.000000	nan
2896.000000	nan
2897.000000	nan
2898.000000	nan
2899.000000	nan
2900.000000	nan
2901.000000	nan
2902.000000	nan
2903.000000	nan
2904.000000	nan
2905.000000	nan
2906.000000	nan
2907.000000	nan
2908.000000	nan
2909.000000	nan
2910.000000	nan
2911.000000	nan
2912.000000	nan
2913.000000	nan
2914.000000	nan
2915.000000	nan
2916.000000	nan
2917.000000	nan
2918.000000	nan
2919.000000	nan
2920.000000	nan
2921.000000	nan
2922.000000	nan
2923.000000	nan
2924.000000	nan
2925.000000	nan
2926.000000	nan
2927.000000	nan
2928.000000	nan
2929.000000	nan
2930.000000	nan
2931.000000	nan
2932.000000	nan
2933.000000	nan
2934.000000	nan
2935.000000	nan
2936.000000	nan
2937.000000	nan
2938.000000	nan
2939.000000	nan
2940.000000	nan
2941.000000	nan
2942.000000	nan
2943.000000	nan
2944.000000	nan
2945.000000	nan
2946.000000	nan
2947.000000	nan
2948.000000	nan
2949.000000	nan
2950.000000	nan
2951.000000	nan
2952.000000	nan
2953.000000	nan
2954.000000	nan
2955.000000	nan
2956.000000	nan
2957.000000	nan
2958.000000	nan
2959.000000	nan
2960.000000	nan
2961.000000	nan
2962.000000	nan
2963.000000	nan
2964.000000	nan
2965.000000	nan
2966.000000	nan
2967.000000	nan
2968.000000	nan
2969.000000	nan
2970.000000	nan
2971.000000	nan
2972.000000	nan
2973.000000	nan
2974.000000	nan
2975.000000	nan
2976.000000	nan
2977.000000	nan
2978.000000	nan
2979.000000	nan
2980.000000	nan
2981.000000	nan
2982.000000	nan
2983.000000	nan
2984.000000	nan
2985.000000	nan
2986.000000	nan
2987.000000	nan
2988.000000	nan
2989.000000	nan
2990.000000	nan
2991.000000	nan
2992.000000	nan
2993.000000	nan
2994.000000	nan
2995.000000	nan
2996.000000	nan
2997.000000	nan
2998.000000	nan
2999.000000	nan
3000.000000	nan
