PE UV       SUBTECH     SPECTRUM    ASCII       PEDS        4.00        
   -1
CICIMAUCR0205-4.ASC
24/06/06
14:47:53.00
24/06/06
14:47:53.00
Vinicio Soto Monge
C. cupreomarginata. Sex F. Ventral
250,000000
1
Lambda 1050
1050L1511233
PerkinElmer UV WinLab 6.3.2.0749 / 2.02.05 Lambda 900 UV/VIS/NIR, Aug  7 2015 09:38:08

0
0
3350/servo 860,8/2
0
0
UV/VIS
1
1
1
DoubleDePol,CommonBeamDepol,RBeamAtt,SBeamAtt,60mm sphere, WB InGaAs Detector
0
0
0
0
Program
Program
3350/servo 860,8/2
3350/0,2 860,8/0,2
3350/0,2 860,8/0,2
0
15.00
 
 
 
0
 
860,8
319,2
860,8
Front
100
on
S:100 R:100
0
0
0
0
 
0
 
 
 
0
 
 
0
0
0
0
0
 
 
 
 
0
0


0
0
#HDR
-1
-1
#GR
nm
%R
1.0
0.0
2500,000000
-1,000000
2251
8
59,445600
4,483100
#DATA
250.000000	0.247769
251.000000	0.248445
252.000000	0.246749
253.000000	0.234894
254.000000	0.246992
255.000000	0.258683
256.000000	0.246922
257.000000	0.221570
258.000000	0.213718
259.000000	0.236002
260.000000	0.242971
261.000000	0.233220
262.000000	0.238871
263.000000	0.234087
264.000000	0.233955
265.000000	0.229695
266.000000	0.220147
267.000000	0.211315
268.000000	0.218704
269.000000	0.211624
270.000000	0.207212
271.000000	0.204067
272.000000	0.219399
273.000000	0.208250
274.000000	0.221722
275.000000	0.226428
276.000000	0.217589
277.000000	0.210840
278.000000	0.206956
279.000000	0.209776
280.000000	0.210764
281.000000	0.214414
282.000000	0.230720
283.000000	0.234754
284.000000	0.211249
285.000000	0.182010
286.000000	0.193976
287.000000	0.216741
288.000000	0.214338
289.000000	0.206399
290.000000	0.203515
291.000000	0.187078
292.000000	0.174111
293.000000	0.227091
294.000000	0.225419
295.000000	0.199694
296.000000	0.199245
297.000000	0.195180
298.000000	0.199762
299.000000	0.195117
300.000000	0.205660
301.000000	0.207559
302.000000	0.212622
303.000000	0.224038
304.000000	0.204854
305.000000	0.176833
306.000000	0.176841
307.000000	0.198121
308.000000	0.202991
309.000000	0.211536
310.000000	0.216212
311.000000	0.203252
312.000000	0.199965
313.000000	0.213295
314.000000	0.226893
315.000000	0.209129
316.000000	0.163975
317.000000	0.500105
318.000000	0.414969
319.000000	0.170787
320.000000	0.594827
321.000000	0.431005
322.000000	0.293355
323.000000	0.146740
324.000000	0.255251
325.000000	0.211519
326.000000	0.315184
327.000000	0.237914
328.000000	0.247557
329.000000	0.255821
330.000000	0.262278
331.000000	0.328250
332.000000	0.276561
333.000000	0.214177
334.000000	0.246620
335.000000	0.197071
336.000000	0.111035
337.000000	0.198613
338.000000	0.220385
339.000000	0.212998
340.000000	0.169828
341.000000	0.193835
342.000000	0.288226
343.000000	0.261160
344.000000	0.198709
345.000000	0.084254
346.000000	0.162828
347.000000	0.215878
348.000000	0.187537
349.000000	0.094530
350.000000	0.151115
351.000000	0.179914
352.000000	0.085357
353.000000	0.086242
354.000000	0.153103
355.000000	0.296393
356.000000	0.273569
357.000000	0.251804
358.000000	0.139734
359.000000	0.146889
360.000000	0.219020
361.000000	0.172145
362.000000	0.138136
363.000000	0.139146
364.000000	0.153511
365.000000	0.170205
366.000000	0.188456
367.000000	0.213434
368.000000	0.185975
369.000000	0.224416
370.000000	0.220282
371.000000	0.147223
372.000000	0.267721
373.000000	0.209209
374.000000	0.129986
375.000000	0.141805
376.000000	0.159003
377.000000	0.204493
378.000000	0.203678
379.000000	0.194139
380.000000	0.199894
381.000000	0.202816
382.000000	0.191350
383.000000	0.190932
384.000000	0.189037
385.000000	0.194608
386.000000	0.185521
387.000000	0.187907
388.000000	0.188852
389.000000	0.182426
390.000000	0.178045
391.000000	0.174154
392.000000	0.167153
393.000000	0.161887
394.000000	0.181065
395.000000	0.171943
396.000000	0.169710
397.000000	0.164186
398.000000	0.173241
399.000000	0.168364
400.000000	0.164899
401.000000	0.160935
402.000000	0.156391
403.000000	0.149150
404.000000	0.147587
405.000000	0.154645
406.000000	0.165652
407.000000	0.154465
408.000000	0.163584
409.000000	0.165875
410.000000	0.157877
411.000000	0.156065
412.000000	0.166165
413.000000	0.159251
414.000000	0.161081
415.000000	0.159363
416.000000	0.167001
417.000000	0.173356
418.000000	0.183618
419.000000	0.178384
420.000000	0.177563
421.000000	0.190514
422.000000	0.196577
423.000000	0.196060
424.000000	0.197000
425.000000	0.199127
426.000000	0.199175
427.000000	0.210307
428.000000	0.209730
429.000000	0.221961
430.000000	0.230992
431.000000	0.231024
432.000000	0.239039
433.000000	0.252171
434.000000	0.250515
435.000000	0.251747
436.000000	0.268716
437.000000	0.273143
438.000000	0.281097
439.000000	0.286870
440.000000	0.286957
441.000000	0.293870
442.000000	0.300582
443.000000	0.301133
444.000000	0.307833
445.000000	0.329284
446.000000	0.329370
447.000000	0.358809
448.000000	0.355063
449.000000	0.357145
450.000000	0.376866
451.000000	0.382607
452.000000	0.384575
453.000000	0.405009
454.000000	0.403526
455.000000	0.424399
456.000000	0.425793
457.000000	0.439384
458.000000	0.436897
459.000000	0.451250
460.000000	0.457959
461.000000	0.471563
462.000000	0.489743
463.000000	0.487441
464.000000	0.501018
465.000000	0.502322
466.000000	0.511357
467.000000	0.525639
468.000000	0.534767
469.000000	0.538090
470.000000	0.542580
471.000000	0.552901
472.000000	0.563684
473.000000	0.567625
474.000000	0.574687
475.000000	0.584970
476.000000	0.597552
477.000000	0.586439
478.000000	0.600214
479.000000	0.608251
480.000000	0.609394
481.000000	0.611966
482.000000	0.597882
483.000000	0.593148
484.000000	0.589930
485.000000	0.579399
486.000000	0.572365
487.000000	0.570962
488.000000	0.571179
489.000000	0.559864
490.000000	0.550985
491.000000	0.520718
492.000000	0.514446
493.000000	0.510115
494.000000	0.501847
495.000000	0.481105
496.000000	0.467446
497.000000	0.452374
498.000000	0.430223
499.000000	0.401111
500.000000	0.388445
501.000000	0.363986
502.000000	0.340602
503.000000	0.313396
504.000000	0.283021
505.000000	0.272717
506.000000	0.248265
507.000000	0.222822
508.000000	0.202508
509.000000	0.186190
510.000000	0.160421
511.000000	0.131515
512.000000	0.125705
513.000000	0.111644
514.000000	0.092182
515.000000	0.072322
516.000000	0.065003
517.000000	0.057559
518.000000	0.055790
519.000000	0.034914
520.000000	0.030219
521.000000	0.034197
522.000000	0.021348
523.000000	0.025441
524.000000	0.029027
525.000000	0.041938
526.000000	0.037250
527.000000	0.051520
528.000000	0.054563
529.000000	0.065986
530.000000	0.076680
531.000000	0.088114
532.000000	0.104189
533.000000	0.117722
534.000000	0.136208
535.000000	0.160406
536.000000	0.163689
537.000000	0.182369
538.000000	0.203988
539.000000	0.218495
540.000000	0.249229
541.000000	0.279483
542.000000	0.304461
543.000000	0.325184
544.000000	0.355155
545.000000	0.376399
546.000000	0.407734
547.000000	0.442899
548.000000	0.480471
549.000000	0.516992
550.000000	0.559207
551.000000	0.586014
552.000000	0.624012
553.000000	0.661630
554.000000	0.697809
555.000000	0.742907
556.000000	0.773806
557.000000	0.812340
558.000000	0.866583
559.000000	0.908204
560.000000	0.980171
561.000000	1.025284
562.000000	1.064597
563.000000	1.100760
564.000000	1.151866
565.000000	1.187251
566.000000	1.229775
567.000000	1.266402
568.000000	1.311567
569.000000	1.349840
570.000000	1.392811
571.000000	1.432706
572.000000	1.483861
573.000000	1.518436
574.000000	1.543449
575.000000	1.582065
576.000000	1.614035
577.000000	1.665124
578.000000	1.688186
579.000000	1.715777
580.000000	1.750008
581.000000	1.788863
582.000000	1.821001
583.000000	1.850106
584.000000	1.881943
585.000000	1.909551
586.000000	1.933772
587.000000	1.971224
588.000000	1.989218
589.000000	2.029468
590.000000	2.060524
591.000000	2.084450
592.000000	2.113671
593.000000	2.138860
594.000000	2.159176
595.000000	2.186733
596.000000	2.203938
597.000000	2.236208
598.000000	2.259871
599.000000	2.284198
600.000000	2.290532
601.000000	2.301768
602.000000	2.324306
603.000000	2.344174
604.000000	2.348066
605.000000	2.371451
606.000000	2.388591
607.000000	2.381023
608.000000	2.383299
609.000000	2.371523
610.000000	2.380306
611.000000	2.384193
612.000000	2.379232
613.000000	2.378970
614.000000	2.373156
615.000000	2.361297
616.000000	2.350633
617.000000	2.344688
618.000000	2.332395
619.000000	2.311031
620.000000	2.288965
621.000000	2.273220
622.000000	2.262211
623.000000	2.227997
624.000000	2.198283
625.000000	2.181636
626.000000	2.155252
627.000000	2.125156
628.000000	2.098764
629.000000	2.066915
630.000000	2.032235
631.000000	1.993581
632.000000	1.951614
633.000000	1.897084
634.000000	1.845720
635.000000	1.796662
636.000000	1.738213
637.000000	1.684096
638.000000	1.630012
639.000000	1.565680
640.000000	1.501879
641.000000	1.449741
642.000000	1.391966
643.000000	1.329636
644.000000	1.271441
645.000000	1.209082
646.000000	1.150820
647.000000	1.096722
648.000000	1.038010
649.000000	0.959491
650.000000	0.889012
651.000000	0.844995
652.000000	0.787759
653.000000	0.739412
654.000000	0.687862
655.000000	0.624738
656.000000	0.579198
657.000000	0.537278
658.000000	0.495410
659.000000	0.448067
660.000000	0.406276
661.000000	0.373711
662.000000	0.326980
663.000000	0.289123
664.000000	0.250981
665.000000	0.217708
666.000000	0.179815
667.000000	0.139980
668.000000	0.106156
669.000000	0.080233
670.000000	0.053181
671.000000	0.037421
672.000000	0.037635
673.000000	0.069980
674.000000	0.070706
675.000000	0.079233
676.000000	0.115774
677.000000	0.133154
678.000000	0.138666
679.000000	0.144636
680.000000	0.179753
681.000000	0.172212
682.000000	0.183401
683.000000	0.176796
684.000000	0.179019
685.000000	0.171007
686.000000	0.165109
687.000000	0.150586
688.000000	0.144846
689.000000	0.132250
690.000000	0.133247
691.000000	0.129447
692.000000	0.128069
693.000000	0.118261
694.000000	0.115282
695.000000	0.092984
696.000000	0.096256
697.000000	0.106235
698.000000	0.104053
699.000000	0.127882
700.000000	0.165999
701.000000	0.166931
702.000000	0.212682
703.000000	0.222187
704.000000	0.270078
705.000000	0.288774
706.000000	0.335104
707.000000	0.361419
708.000000	0.402862
709.000000	0.443903
710.000000	0.473441
711.000000	0.522091
712.000000	0.564134
713.000000	0.599672
714.000000	0.656791
715.000000	0.699664
716.000000	0.743707
717.000000	0.782048
718.000000	0.796068
719.000000	0.839141
720.000000	0.866040
721.000000	0.948396
722.000000	0.956189
723.000000	1.001746
724.000000	1.052667
725.000000	1.071413
726.000000	1.105104
727.000000	1.155193
728.000000	1.149042
729.000000	1.219966
730.000000	1.257977
731.000000	1.306568
732.000000	1.311641
733.000000	1.375976
734.000000	1.393812
735.000000	1.425153
736.000000	1.464693
737.000000	1.512560
738.000000	1.549251
739.000000	1.594776
740.000000	1.639295
741.000000	1.624992
742.000000	1.660255
743.000000	1.703907
744.000000	1.706792
745.000000	1.722525
746.000000	1.765470
747.000000	1.803249
748.000000	1.808727
749.000000	1.826694
750.000000	1.893547
751.000000	1.880878
752.000000	1.843850
753.000000	1.951929
754.000000	1.990849
755.000000	1.974656
756.000000	1.994306
757.000000	2.016204
758.000000	2.027535
759.000000	2.090146
760.000000	2.076083
761.000000	2.108831
762.000000	2.117130
763.000000	2.196794
764.000000	2.181322
765.000000	2.154877
766.000000	2.259049
767.000000	2.305311
768.000000	2.287677
769.000000	2.300322
770.000000	2.356183
771.000000	2.363052
772.000000	2.352927
773.000000	2.419624
774.000000	2.490414
775.000000	2.505784
776.000000	2.532016
777.000000	2.581169
778.000000	2.526735
779.000000	2.597901
780.000000	2.595643
781.000000	2.597372
782.000000	2.716690
783.000000	2.663698
784.000000	2.741618
785.000000	2.739168
786.000000	2.794954
787.000000	2.814897
788.000000	2.862181
789.000000	2.897537
790.000000	2.924596
791.000000	2.972788
792.000000	2.990819
793.000000	2.989602
794.000000	3.065132
795.000000	3.050309
796.000000	3.057506
797.000000	3.182844
798.000000	3.175463
799.000000	3.231564
800.000000	3.117720
801.000000	3.178193
802.000000	3.273013
803.000000	3.283015
804.000000	3.316132
805.000000	3.387027
806.000000	3.472255
807.000000	3.384814
808.000000	3.425843
809.000000	3.439272
810.000000	3.485175
811.000000	3.607955
812.000000	3.555793
813.000000	3.652395
814.000000	3.526063
815.000000	3.628993
816.000000	3.626376
817.000000	3.586247
818.000000	3.613875
819.000000	3.731856
820.000000	3.646343
821.000000	3.660591
822.000000	3.801330
823.000000	3.834175
824.000000	3.723769
825.000000	3.727306
826.000000	3.720501
827.000000	3.763399
828.000000	3.793971
829.000000	3.717544
830.000000	3.758255
831.000000	3.804659
832.000000	3.727772
833.000000	3.839716
834.000000	3.823758
835.000000	3.881935
836.000000	3.739425
837.000000	3.744339
838.000000	3.888856
839.000000	3.886018
840.000000	3.956584
841.000000	3.720940
842.000000	3.885411
843.000000	3.910373
844.000000	3.806488
845.000000	3.745005
846.000000	3.872016
847.000000	3.901026
848.000000	3.698850
849.000000	3.512863
850.000000	3.746165
851.000000	3.733574
852.000000	3.741268
853.000000	3.865951
854.000000	3.786629
855.000000	3.480073
856.000000	3.670009
857.000000	3.220521
858.000000	3.456488
859.000000	3.423744
860.000000	3.417137
861.000000	3.373846
862.000000	3.331662
863.000000	3.331983
864.000000	3.287702
865.000000	3.259712
866.000000	3.240462
867.000000	3.214775
868.000000	3.187185
869.000000	3.154102
870.000000	3.137907
871.000000	3.131964
872.000000	3.140846
873.000000	3.182217
874.000000	3.217959
875.000000	3.216551
876.000000	3.229521
877.000000	3.261473
878.000000	3.275661
879.000000	3.278710
880.000000	3.297456
881.000000	3.310227
882.000000	3.320487
883.000000	3.333280
884.000000	3.341303
885.000000	3.347230
886.000000	3.350018
887.000000	3.352974
888.000000	3.347335
889.000000	3.350536
890.000000	3.343935
891.000000	3.347699
892.000000	3.349002
893.000000	3.341036
894.000000	3.336022
895.000000	3.345395
896.000000	3.329621
897.000000	3.327543
898.000000	3.328957
899.000000	3.329788
900.000000	3.321017
901.000000	3.315693
902.000000	3.303128
903.000000	3.296933
904.000000	3.287402
905.000000	3.281221
906.000000	3.278678
907.000000	3.273937
908.000000	3.264709
909.000000	3.258915
910.000000	3.236867
911.000000	3.230161
912.000000	3.227171
913.000000	3.226036
914.000000	3.217622
915.000000	3.211517
916.000000	3.199998
917.000000	3.193442
918.000000	3.183039
919.000000	3.174440
920.000000	3.169068
921.000000	3.163517
922.000000	3.157926
923.000000	3.144586
924.000000	3.134375
925.000000	3.131149
926.000000	3.123430
927.000000	3.120542
928.000000	3.110315
929.000000	3.103359
930.000000	3.102617
931.000000	3.098787
932.000000	3.098344
933.000000	3.090791
934.000000	3.094411
935.000000	3.094461
936.000000	3.097388
937.000000	3.096530
938.000000	3.083458
939.000000	3.078427
940.000000	3.084077
941.000000	3.085868
942.000000	3.086209
943.000000	3.080745
944.000000	3.076956
945.000000	3.076930
946.000000	3.074908
947.000000	3.076339
948.000000	3.067975
949.000000	3.053449
950.000000	3.059931
951.000000	3.070958
952.000000	3.067081
953.000000	3.072017
954.000000	3.076501
955.000000	3.070825
956.000000	3.068693
957.000000	3.073887
958.000000	3.079198
959.000000	3.086808
960.000000	3.078453
961.000000	3.074555
962.000000	3.080153
963.000000	3.078738
964.000000	3.085394
965.000000	3.092502
966.000000	3.097936
967.000000	3.101067
968.000000	3.093496
969.000000	3.097598
970.000000	3.102188
971.000000	3.109283
972.000000	3.114581
973.000000	3.116563
974.000000	3.120297
975.000000	3.124358
976.000000	3.125359
977.000000	3.125053
978.000000	3.137899
979.000000	3.136781
980.000000	3.145091
981.000000	3.148123
982.000000	3.150200
983.000000	3.155094
984.000000	3.162668
985.000000	3.164908
986.000000	3.164916
987.000000	3.173953
988.000000	3.185618
989.000000	3.187137
990.000000	3.185103
991.000000	3.190550
992.000000	3.215436
993.000000	3.214971
994.000000	3.214597
995.000000	3.223163
996.000000	3.231907
997.000000	3.242240
998.000000	3.236482
999.000000	3.234240
1000.000000	3.245499
1001.000000	3.253835
1002.000000	3.251850
1003.000000	3.261872
1004.000000	3.261053
1005.000000	3.269390
1006.000000	3.279713
1007.000000	3.288024
1008.000000	3.282100
1009.000000	3.287382
1010.000000	3.291818
1011.000000	3.295275
1012.000000	3.302265
1013.000000	3.298000
1014.000000	3.310854
1015.000000	3.319930
1016.000000	3.315581
1017.000000	3.322359
1018.000000	3.343475
1019.000000	3.336447
1020.000000	3.350561
1021.000000	3.360100
1022.000000	3.357618
1023.000000	3.369260
1024.000000	3.377551
1025.000000	3.368032
1026.000000	3.372077
1027.000000	3.394515
1028.000000	3.387297
1029.000000	3.397657
1030.000000	3.405433
1031.000000	3.398173
1032.000000	3.402683
1033.000000	3.422986
1034.000000	3.419728
1035.000000	3.419152
1036.000000	3.437042
1037.000000	3.441206
1038.000000	3.451953
1039.000000	3.448723
1040.000000	3.466706
1041.000000	3.465106
1042.000000	3.465513
1043.000000	3.474043
1044.000000	3.483389
1045.000000	3.493063
1046.000000	3.485892
1047.000000	3.496315
1048.000000	3.500478
1049.000000	3.514685
1050.000000	3.520704
1051.000000	3.519188
1052.000000	3.529692
1053.000000	3.533428
1054.000000	3.535765
1055.000000	3.541137
1056.000000	3.545574
1057.000000	3.563031
1058.000000	3.561466
1059.000000	3.567371
1060.000000	3.581504
1061.000000	3.583771
1062.000000	3.588009
1063.000000	3.600382
1064.000000	3.590194
1065.000000	3.599006
1066.000000	3.601685
1067.000000	3.608948
1068.000000	3.615057
1069.000000	3.638856
1070.000000	3.621281
1071.000000	3.637733
1072.000000	3.635590
1073.000000	3.647990
1074.000000	3.656241
1075.000000	3.661615
1076.000000	3.660037
1077.000000	3.644221
1078.000000	3.668667
1079.000000	3.681454
1080.000000	3.671009
1081.000000	3.681901
1082.000000	3.674176
1083.000000	3.692989
1084.000000	3.695002
1085.000000	3.689927
1086.000000	3.682589
1087.000000	3.710196
1088.000000	3.709717
1089.000000	3.724600
1090.000000	3.723273
1091.000000	3.715334
1092.000000	3.730385
1093.000000	3.736050
1094.000000	3.742874
1095.000000	3.730119
1096.000000	3.733359
1097.000000	3.750856
1098.000000	3.738397
1099.000000	3.745453
1100.000000	3.739931
1101.000000	3.765863
1102.000000	3.763426
1103.000000	3.764747
1104.000000	3.753782
1105.000000	3.761670
1106.000000	3.768787
1107.000000	3.775327
1108.000000	3.763306
1109.000000	3.765135
1110.000000	3.775505
1111.000000	3.778584
1112.000000	3.778420
1113.000000	3.784822
1114.000000	3.786963
1115.000000	3.786049
1116.000000	3.788190
1117.000000	3.786970
1118.000000	3.793187
1119.000000	3.788736
1120.000000	3.789632
1121.000000	3.789627
1122.000000	3.790882
1123.000000	3.786448
1124.000000	3.785856
1125.000000	3.774424
1126.000000	3.783689
1127.000000	3.772101
1128.000000	3.782258
1129.000000	3.766974
1130.000000	3.758126
1131.000000	3.748090
1132.000000	3.724738
1133.000000	3.706593
1134.000000	3.713841
1135.000000	3.708400
1136.000000	3.709262
1137.000000	3.689975
1138.000000	3.669606
1139.000000	3.661718
1140.000000	3.658223
1141.000000	3.647276
1142.000000	3.635579
1143.000000	3.639516
1144.000000	3.635700
1145.000000	3.628436
1146.000000	3.617183
1147.000000	3.613792
1148.000000	3.603577
1149.000000	3.590926
1150.000000	3.592955
1151.000000	3.579053
1152.000000	3.572052
1153.000000	3.576488
1154.000000	3.563019
1155.000000	3.547991
1156.000000	3.544536
1157.000000	3.522790
1158.000000	3.510635
1159.000000	3.514674
1160.000000	3.491189
1161.000000	3.477848
1162.000000	3.457497
1163.000000	3.460991
1164.000000	3.449521
1165.000000	3.438998
1166.000000	3.424181
1167.000000	3.418902
1168.000000	3.413360
1169.000000	3.401142
1170.000000	3.399383
1171.000000	3.385908
1172.000000	3.387259
1173.000000	3.386031
1174.000000	3.373340
1175.000000	3.361517
1176.000000	3.355624
1177.000000	3.348837
1178.000000	3.341337
1179.000000	3.332314
1180.000000	3.317550
1181.000000	3.311972
1182.000000	3.314879
1183.000000	3.307493
1184.000000	3.300967
1185.000000	3.304300
1186.000000	3.310504
1187.000000	3.309612
1188.000000	3.311729
1189.000000	3.314723
1190.000000	3.317432
1191.000000	3.324925
1192.000000	3.333738
1193.000000	3.346962
1194.000000	3.351700
1195.000000	3.348687
1196.000000	3.360421
1197.000000	3.373082
1198.000000	3.367740
1199.000000	3.379209
1200.000000	3.394894
1201.000000	3.402056
1202.000000	3.404714
1203.000000	3.408686
1204.000000	3.410985
1205.000000	3.405894
1206.000000	3.414367
1207.000000	3.430652
1208.000000	3.450099
1209.000000	3.460353
1210.000000	3.456609
1211.000000	3.460588
1212.000000	3.465824
1213.000000	3.469019
1214.000000	3.473829
1215.000000	3.485282
1216.000000	3.499928
1217.000000	3.508412
1218.000000	3.512748
1219.000000	3.520677
1220.000000	3.529440
1221.000000	3.531018
1222.000000	3.540207
1223.000000	3.550930
1224.000000	3.552678
1225.000000	3.556794
1226.000000	3.567323
1227.000000	3.571842
1228.000000	3.573848
1229.000000	3.577673
1230.000000	3.584402
1231.000000	3.587180
1232.000000	3.592373
1233.000000	3.594922
1234.000000	3.595089
1235.000000	3.607720
1236.000000	3.611813
1237.000000	3.610831
1238.000000	3.613432
1239.000000	3.626018
1240.000000	3.633804
1241.000000	3.633629
1242.000000	3.642475
1243.000000	3.647563
1244.000000	3.650842
1245.000000	3.661367
1246.000000	3.664388
1247.000000	3.668912
1248.000000	3.668773
1249.000000	3.670829
1250.000000	3.676026
1251.000000	3.686000
1252.000000	3.685133
1253.000000	3.688379
1254.000000	3.689113
1255.000000	3.686144
1256.000000	3.690984
1257.000000	3.693050
1258.000000	3.690849
1259.000000	3.686685
1260.000000	3.685504
1261.000000	3.683766
1262.000000	3.685397
1263.000000	3.688236
1264.000000	3.680124
1265.000000	3.672257
1266.000000	3.676701
1267.000000	3.676777
1268.000000	3.677859
1269.000000	3.671028
1270.000000	3.665602
1271.000000	3.667698
1272.000000	3.662634
1273.000000	3.665201
1274.000000	3.671232
1275.000000	3.670362
1276.000000	3.675574
1277.000000	3.676282
1278.000000	3.683555
1279.000000	3.683852
1280.000000	3.680263
1281.000000	3.689826
1282.000000	3.684720
1283.000000	3.683007
1284.000000	3.689674
1285.000000	3.692995
1286.000000	3.691689
1287.000000	3.694682
1288.000000	3.697543
1289.000000	3.699697
1290.000000	3.706632
1291.000000	3.701712
1292.000000	3.704323
1293.000000	3.706783
1294.000000	3.700811
1295.000000	3.692679
1296.000000	3.698645
1297.000000	3.698528
1298.000000	3.697713
1299.000000	3.691393
1300.000000	3.687180
1301.000000	3.693406
1302.000000	3.696694
1303.000000	3.690964
1304.000000	3.691942
1305.000000	3.688612
1306.000000	3.684534
1307.000000	3.678249
1308.000000	3.674745
1309.000000	3.664766
1310.000000	3.659269
1311.000000	3.655096
1312.000000	3.658277
1313.000000	3.663585
1314.000000	3.650810
1315.000000	3.647730
1316.000000	3.643009
1317.000000	3.639386
1318.000000	3.641277
1319.000000	3.633489
1320.000000	3.627863
1321.000000	3.628300
1322.000000	3.618578
1323.000000	3.613418
1324.000000	3.610397
1325.000000	3.595414
1326.000000	3.588857
1327.000000	3.579280
1328.000000	3.587973
1329.000000	3.581535
1330.000000	3.561638
1331.000000	3.553692
1332.000000	3.545364
1333.000000	3.550321
1334.000000	3.533042
1335.000000	3.512429
1336.000000	3.507320
1337.000000	3.507056
1338.000000	3.483152
1339.000000	3.481664
1340.000000	3.460247
1341.000000	3.453809
1342.000000	3.442023
1343.000000	3.429276
1344.000000	3.413752
1345.000000	3.393351
1346.000000	3.372889
1347.000000	3.363533
1348.000000	3.353578
1349.000000	3.329729
1350.000000	3.318652
1351.000000	3.296622
1352.000000	3.269144
1353.000000	3.280908
1354.000000	3.262266
1355.000000	3.264046
1356.000000	3.264231
1357.000000	3.243049
1358.000000	3.225799
1359.000000	3.195932
1360.000000	3.202300
1361.000000	3.205990
1362.000000	3.191353
1363.000000	3.202524
1364.000000	3.168033
1365.000000	3.164456
1366.000000	3.177723
1367.000000	3.145856
1368.000000	3.136058
1369.000000	3.136748
1370.000000	3.110532
1371.000000	3.104594
1372.000000	3.094868
1373.000000	3.080207
1374.000000	3.059633
1375.000000	3.061027
1376.000000	3.047252
1377.000000	3.027872
1378.000000	2.997512
1379.000000	2.982913
1380.000000	2.990838
1381.000000	2.946243
1382.000000	2.939632
1383.000000	2.907522
1384.000000	2.870959
1385.000000	2.875210
1386.000000	2.836717
1387.000000	2.811208
1388.000000	2.766005
1389.000000	2.779798
1390.000000	2.740942
1391.000000	2.707033
1392.000000	2.680278
1393.000000	2.668509
1394.000000	2.641958
1395.000000	2.598599
1396.000000	2.584100
1397.000000	2.594752
1398.000000	2.552259
1399.000000	2.503957
1400.000000	2.469689
1401.000000	2.457117
1402.000000	2.453336
1403.000000	2.385384
1404.000000	2.389502
1405.000000	2.338177
1406.000000	2.332515
1407.000000	2.295367
1408.000000	2.282889
1409.000000	2.259851
1410.000000	2.252931
1411.000000	2.224916
1412.000000	2.197439
1413.000000	2.173262
1414.000000	2.160053
1415.000000	2.147493
1416.000000	2.143173
1417.000000	2.117989
1418.000000	2.098168
1419.000000	2.079099
1420.000000	2.073823
1421.000000	2.062810
1422.000000	2.044254
1423.000000	2.032026
1424.000000	2.021795
1425.000000	2.009501
1426.000000	2.013584
1427.000000	1.997556
1428.000000	1.993395
1429.000000	1.989676
1430.000000	1.973900
1431.000000	1.962654
1432.000000	1.959740
1433.000000	1.954438
1434.000000	1.935089
1435.000000	1.943343
1436.000000	1.935957
1437.000000	1.930069
1438.000000	1.923253
1439.000000	1.912439
1440.000000	1.914803
1441.000000	1.908374
1442.000000	1.904546
1443.000000	1.901660
1444.000000	1.890961
1445.000000	1.894384
1446.000000	1.883582
1447.000000	1.880704
1448.000000	1.878509
1449.000000	1.877223
1450.000000	1.870060
1451.000000	1.857684
1452.000000	1.862741
1453.000000	1.852407
1454.000000	1.835390
1455.000000	1.842381
1456.000000	1.841550
1457.000000	1.834684
1458.000000	1.824409
1459.000000	1.825236
1460.000000	1.826597
1461.000000	1.820965
1462.000000	1.813707
1463.000000	1.804406
1464.000000	1.813814
1465.000000	1.807355
1466.000000	1.806989
1467.000000	1.801438
1468.000000	1.797195
1469.000000	1.799279
1470.000000	1.794828
1471.000000	1.794492
1472.000000	1.797250
1473.000000	1.789119
1474.000000	1.786367
1475.000000	1.779237
1476.000000	1.783047
1477.000000	1.787563
1478.000000	1.779898
1479.000000	1.778845
1480.000000	1.783673
1481.000000	1.781876
1482.000000	1.785849
1483.000000	1.774701
1484.000000	1.770743
1485.000000	1.770060
1486.000000	1.762206
1487.000000	1.765735
1488.000000	1.772456
1489.000000	1.768179
1490.000000	1.757702
1491.000000	1.756875
1492.000000	1.758165
1493.000000	1.756294
1494.000000	1.764015
1495.000000	1.763270
1496.000000	1.763214
1497.000000	1.763018
1498.000000	1.765120
1499.000000	1.767562
1500.000000	1.766787
1501.000000	1.771133
1502.000000	1.774604
1503.000000	1.778169
1504.000000	1.784590
1505.000000	1.778275
1506.000000	1.774075
1507.000000	1.784169
1508.000000	1.789708
1509.000000	1.792155
1510.000000	1.796426
1511.000000	1.793882
1512.000000	1.795442
1513.000000	1.801029
1514.000000	1.808288
1515.000000	1.815656
1516.000000	1.814010
1517.000000	1.812592
1518.000000	1.822713
1519.000000	1.824573
1520.000000	1.819286
1521.000000	1.822034
1522.000000	1.828209
1523.000000	1.830072
1524.000000	1.832818
1525.000000	1.842163
1526.000000	1.844110
1527.000000	1.845141
1528.000000	1.847038
1529.000000	1.852995
1530.000000	1.853637
1531.000000	1.850263
1532.000000	1.855716
1533.000000	1.860505
1534.000000	1.861282
1535.000000	1.866285
1536.000000	1.864500
1537.000000	1.863839
1538.000000	1.865494
1539.000000	1.867799
1540.000000	1.874646
1541.000000	1.876625
1542.000000	1.885610
1543.000000	1.894351
1544.000000	1.898695
1545.000000	1.899164
1546.000000	1.900966
1547.000000	1.911942
1548.000000	1.913000
1549.000000	1.919595
1550.000000	1.930686
1551.000000	1.940157
1552.000000	1.941549
1553.000000	1.942352
1554.000000	1.941101
1555.000000	1.945610
1556.000000	1.952098
1557.000000	1.958390
1558.000000	1.964249
1559.000000	1.958709
1560.000000	1.956692
1561.000000	1.958495
1562.000000	1.968895
1563.000000	1.958144
1564.000000	1.955550
1565.000000	1.961237
1566.000000	1.967497
1567.000000	1.964972
1568.000000	1.960466
1569.000000	1.958426
1570.000000	1.951386
1571.000000	1.955991
1572.000000	1.962052
1573.000000	1.960502
1574.000000	1.955291
1575.000000	1.961391
1576.000000	1.962011
1577.000000	1.965816
1578.000000	1.969104
1579.000000	1.969170
1580.000000	1.967361
1581.000000	1.968538
1582.000000	1.979690
1583.000000	1.990728
1584.000000	1.992752
1585.000000	1.984559
1586.000000	1.987126
1587.000000	2.002510
1588.000000	1.992891
1589.000000	2.000129
1590.000000	2.007764
1591.000000	2.003304
1592.000000	2.003781
1593.000000	2.012647
1594.000000	2.021748
1595.000000	2.028869
1596.000000	2.021753
1597.000000	2.028965
1598.000000	2.039104
1599.000000	2.052459
1600.000000	2.047273
1601.000000	2.046948
1602.000000	2.061698
1603.000000	2.052162
1604.000000	2.061226
1605.000000	2.067968
1606.000000	2.077388
1607.000000	2.081313
1608.000000	2.084551
1609.000000	2.085740
1610.000000	2.091177
1611.000000	2.084131
1612.000000	2.093362
1613.000000	2.095415
1614.000000	2.100823
1615.000000	2.094259
1616.000000	2.098023
1617.000000	2.096681
1618.000000	2.098918
1619.000000	2.111811
1620.000000	2.108012
1621.000000	2.118822
1622.000000	2.106564
1623.000000	2.104082
1624.000000	2.116966
1625.000000	2.113725
1626.000000	2.121984
1627.000000	2.130540
1628.000000	2.139996
1629.000000	2.136693
1630.000000	2.137502
1631.000000	2.134158
1632.000000	2.134559
1633.000000	2.147061
1634.000000	2.144467
1635.000000	2.142422
1636.000000	2.141624
1637.000000	2.144637
1638.000000	2.138153
1639.000000	2.148125
1640.000000	2.146791
1641.000000	2.155453
1642.000000	2.139485
1643.000000	2.152478
1644.000000	2.152002
1645.000000	2.153278
1646.000000	2.164654
1647.000000	2.164234
1648.000000	2.143850
1649.000000	2.146457
1650.000000	2.153099
1651.000000	2.147969
1652.000000	2.153430
1653.000000	2.146092
1654.000000	2.145683
1655.000000	2.143510
1656.000000	2.125283
1657.000000	2.125664
1658.000000	2.128407
1659.000000	2.118106
1660.000000	2.092964
1661.000000	2.096994
1662.000000	2.086177
1663.000000	2.081142
1664.000000	2.059574
1665.000000	2.068818
1666.000000	2.058535
1667.000000	2.042406
1668.000000	2.032103
1669.000000	2.003808
1670.000000	2.003640
1671.000000	1.997218
1672.000000	1.974095
1673.000000	1.964119
1674.000000	1.955655
1675.000000	1.952266
1676.000000	1.929257
1677.000000	1.931495
1678.000000	1.904975
1679.000000	1.892125
1680.000000	1.866381
1681.000000	1.871582
1682.000000	1.838010
1683.000000	1.830239
1684.000000	1.810265
1685.000000	1.802896
1686.000000	1.806675
1687.000000	1.805942
1688.000000	1.794721
1689.000000	1.793039
1690.000000	1.801238
1691.000000	1.787775
1692.000000	1.795279
1693.000000	1.795189
1694.000000	1.793474
1695.000000	1.785668
1696.000000	1.774348
1697.000000	1.774695
1698.000000	1.771908
1699.000000	1.767997
1700.000000	1.771469
1701.000000	1.770885
1702.000000	1.764220
1703.000000	1.751897
1704.000000	1.759926
1705.000000	1.766594
1706.000000	1.757477
1707.000000	1.741242
1708.000000	1.742011
1709.000000	1.747366
1710.000000	1.734914
1711.000000	1.720574
1712.000000	1.714259
1713.000000	1.701973
1714.000000	1.703215
1715.000000	1.701296
1716.000000	1.687901
1717.000000	1.684337
1718.000000	1.663985
1719.000000	1.663433
1720.000000	1.664521
1721.000000	1.659424
1722.000000	1.655142
1723.000000	1.653823
1724.000000	1.648629
1725.000000	1.656348
1726.000000	1.651123
1727.000000	1.653303
1728.000000	1.664851
1729.000000	1.664783
1730.000000	1.669191
1731.000000	1.674181
1732.000000	1.677965
1733.000000	1.681684
1734.000000	1.675485
1735.000000	1.678861
1736.000000	1.682456
1737.000000	1.685694
1738.000000	1.691098
1739.000000	1.692504
1740.000000	1.697843
1741.000000	1.701240
1742.000000	1.710700
1743.000000	1.714613
1744.000000	1.709987
1745.000000	1.710752
1746.000000	1.709174
1747.000000	1.717789
1748.000000	1.715593
1749.000000	1.711141
1750.000000	1.716441
1751.000000	1.727120
1752.000000	1.728041
1753.000000	1.734926
1754.000000	1.730498
1755.000000	1.725006
1756.000000	1.721502
1757.000000	1.716729
1758.000000	1.719564
1759.000000	1.732343
1760.000000	1.734948
1761.000000	1.747762
1762.000000	1.753026
1763.000000	1.746532
1764.000000	1.750578
1765.000000	1.760250
1766.000000	1.753771
1767.000000	1.758191
1768.000000	1.770793
1769.000000	1.773400
1770.000000	1.773307
1771.000000	1.778600
1772.000000	1.783625
1773.000000	1.789096
1774.000000	1.780463
1775.000000	1.777314
1776.000000	1.784644
1777.000000	1.788466
1778.000000	1.792822
1779.000000	1.791732
1780.000000	1.792968
1781.000000	1.796879
1782.000000	1.803292
1783.000000	1.801131
1784.000000	1.799185
1785.000000	1.799617
1786.000000	1.803728
1787.000000	1.806986
1788.000000	1.802682
1789.000000	1.803707
1790.000000	1.807959
1791.000000	1.798558
1792.000000	1.800198
1793.000000	1.804572
1794.000000	1.805607
1795.000000	1.808460
1796.000000	1.798212
1797.000000	1.799252
1798.000000	1.810089
1799.000000	1.811437
1800.000000	1.809335
1801.000000	1.807726
1802.000000	1.810659
1803.000000	1.808121
1804.000000	1.809028
1805.000000	1.804939
1806.000000	1.805874
1807.000000	1.817644
1808.000000	1.819245
1809.000000	1.815066
1810.000000	1.817322
1811.000000	1.819604
1812.000000	1.826884
1813.000000	1.830944
1814.000000	1.829032
1815.000000	1.827647
1816.000000	1.830832
1817.000000	1.830621
1818.000000	1.823939
1819.000000	1.822973
1820.000000	1.827211
1821.000000	1.839515
1822.000000	1.853990
1823.000000	1.848715
1824.000000	1.841640
1825.000000	1.836100
1826.000000	1.829037
1827.000000	1.828683
1828.000000	1.835402
1829.000000	1.836816
1830.000000	1.833736
1831.000000	1.846946
1832.000000	1.861606
1833.000000	1.855124
1834.000000	1.851387
1835.000000	1.851191
1836.000000	1.849793
1837.000000	1.856907
1838.000000	1.859891
1839.000000	1.865873
1840.000000	1.862551
1841.000000	1.862767
1842.000000	1.875007
1843.000000	1.886365
1844.000000	1.880641
1845.000000	1.866062
1846.000000	1.856106
1847.000000	1.854289
1848.000000	1.870085
1849.000000	1.886829
1850.000000	1.898838
1851.000000	1.878500
1852.000000	1.859137
1853.000000	1.854335
1854.000000	1.857192
1855.000000	1.860031
1856.000000	1.854542
1857.000000	1.845780
1858.000000	1.836871
1859.000000	1.833266
1860.000000	1.832808
1861.000000	1.827687
1862.000000	1.828405
1863.000000	1.825712
1864.000000	1.802385
1865.000000	1.791035
1866.000000	1.776588
1867.000000	1.754879
1868.000000	1.733174
1869.000000	1.715847
1870.000000	1.707160
1871.000000	1.699981
1872.000000	1.691188
1873.000000	1.672515
1874.000000	1.655281
1875.000000	1.641953
1876.000000	1.629083
1877.000000	1.606488
1878.000000	1.584847
1879.000000	1.559653
1880.000000	1.529892
1881.000000	1.490624
1882.000000	1.464965
1883.000000	1.439466
1884.000000	1.409661
1885.000000	1.396196
1886.000000	1.371035
1887.000000	1.332782
1888.000000	1.291448
1889.000000	1.273094
1890.000000	1.233704
1891.000000	1.197429
1892.000000	1.176253
1893.000000	1.167811
1894.000000	1.138967
1895.000000	1.119229
1896.000000	1.079782
1897.000000	1.044599
1898.000000	1.050408
1899.000000	1.008273
1900.000000	0.987607
1901.000000	0.965701
1902.000000	0.946630
1903.000000	0.932154
1904.000000	0.917163
1905.000000	0.894577
1906.000000	0.880772
1907.000000	0.879769
1908.000000	0.876967
1909.000000	0.847234
1910.000000	0.845509
1911.000000	0.830537
1912.000000	0.805330
1913.000000	0.803606
1914.000000	0.802098
1915.000000	0.802786
1916.000000	0.806918
1917.000000	0.770511
1918.000000	0.763895
1919.000000	0.776474
1920.000000	0.766535
1921.000000	0.758577
1922.000000	0.750558
1923.000000	0.759346
1924.000000	0.742221
1925.000000	0.737681
1926.000000	0.754608
1927.000000	0.736651
1928.000000	0.739577
1929.000000	0.732364
1930.000000	0.738240
1931.000000	0.727643
1932.000000	0.734133
1933.000000	0.738543
1934.000000	0.735581
1935.000000	0.722719
1936.000000	0.733455
1937.000000	0.729549
1938.000000	0.739022
1939.000000	0.735995
1940.000000	0.733559
1941.000000	0.741485
1942.000000	0.755648
1943.000000	0.750888
1944.000000	0.744150
1945.000000	0.751712
1946.000000	0.750030
1947.000000	0.751863
1948.000000	0.761549
1949.000000	0.762065
1950.000000	0.767304
1951.000000	0.770517
1952.000000	0.776290
1953.000000	0.788388
1954.000000	0.772867
1955.000000	0.791526
1956.000000	0.807732
1957.000000	0.801552
1958.000000	0.799103
1959.000000	0.802126
1960.000000	0.805894
1961.000000	0.809443
1962.000000	0.819240
1963.000000	0.816288
1964.000000	0.830470
1965.000000	0.828560
1966.000000	0.840794
1967.000000	0.839223
1968.000000	0.846353
1969.000000	0.842740
1970.000000	0.859295
1971.000000	0.860368
1972.000000	0.852461
1973.000000	0.858504
1974.000000	0.868141
1975.000000	0.871513
1976.000000	0.873528
1977.000000	0.869976
1978.000000	0.887105
1979.000000	0.883267
1980.000000	0.888399
1981.000000	0.895027
1982.000000	0.892554
1983.000000	0.895429
1984.000000	0.905414
1985.000000	0.903965
1986.000000	0.908568
1987.000000	0.910083
1988.000000	0.915454
1989.000000	0.933844
1990.000000	0.932475
1991.000000	0.935428
1992.000000	0.932696
1993.000000	0.943690
1994.000000	0.950219
1995.000000	0.949688
1996.000000	0.946554
1997.000000	0.948697
1998.000000	0.954687
1999.000000	0.955023
2000.000000	0.958850
2001.000000	0.966972
2002.000000	0.961787
2003.000000	0.949413
2004.000000	0.958564
2005.000000	0.965453
2006.000000	0.962363
2007.000000	0.962011
2008.000000	0.970056
2009.000000	0.972724
2010.000000	0.964606
2011.000000	0.968185
2012.000000	0.961461
2013.000000	0.967434
2014.000000	0.969532
2015.000000	0.966022
2016.000000	0.954746
2017.000000	0.959235
2018.000000	0.964982
2019.000000	0.950437
2020.000000	0.949095
2021.000000	0.955727
2022.000000	0.966325
2023.000000	0.955653
2024.000000	0.942124
2025.000000	0.935834
2026.000000	0.942383
2027.000000	0.944006
2028.000000	0.934661
2029.000000	0.934894
2030.000000	0.924666
2031.000000	0.928902
2032.000000	0.925554
2033.000000	0.919180
2034.000000	0.910761
2035.000000	0.908004
2036.000000	0.893304
2037.000000	0.889799
2038.000000	0.893191
2039.000000	0.892978
2040.000000	0.887110
2041.000000	0.875245
2042.000000	0.875094
2043.000000	0.871298
2044.000000	0.858167
2045.000000	0.861956
2046.000000	0.867871
2047.000000	0.853835
2048.000000	0.846420
2049.000000	0.850672
2050.000000	0.850961
2051.000000	0.847943
2052.000000	0.843927
2053.000000	0.844207
2054.000000	0.857039
2055.000000	0.861058
2056.000000	0.859870
2057.000000	0.864113
2058.000000	0.862644
2059.000000	0.866550
2060.000000	0.865900
2061.000000	0.870456
2062.000000	0.882416
2063.000000	0.893221
2064.000000	0.893376
2065.000000	0.891587
2066.000000	0.905834
2067.000000	0.916635
2068.000000	0.917987
2069.000000	0.925587
2070.000000	0.937005
2071.000000	0.935292
2072.000000	0.934308
2073.000000	0.940674
2074.000000	0.944147
2075.000000	0.952777
2076.000000	0.958334
2077.000000	0.957871
2078.000000	0.957476
2079.000000	0.962950
2080.000000	0.962879
2081.000000	0.959025
2082.000000	0.964680
2083.000000	0.971709
2084.000000	0.969043
2085.000000	0.972502
2086.000000	0.988027
2087.000000	0.987854
2088.000000	0.988342
2089.000000	0.987230
2090.000000	0.990914
2091.000000	0.998432
2092.000000	0.996689
2093.000000	0.997583
2094.000000	0.994814
2095.000000	0.992202
2096.000000	0.998018
2097.000000	1.003204
2098.000000	1.008658
2099.000000	1.008000
2100.000000	1.006765
2101.000000	1.003917
2102.000000	1.009031
2103.000000	1.011960
2104.000000	1.006568
2105.000000	1.001222
2106.000000	1.005621
2107.000000	1.008888
2108.000000	1.019078
2109.000000	1.017246
2110.000000	1.010641
2111.000000	1.007791
2112.000000	1.015417
2113.000000	1.009865
2114.000000	1.008329
2115.000000	1.011363
2116.000000	1.010512
2117.000000	1.009016
2118.000000	1.006462
2119.000000	1.001113
2120.000000	1.003895
2121.000000	1.007811
2122.000000	1.009308
2123.000000	1.018896
2124.000000	1.013933
2125.000000	1.003612
2126.000000	0.998728
2127.000000	0.991175
2128.000000	0.987730
2129.000000	0.992590
2130.000000	0.984507
2131.000000	0.988960
2132.000000	0.990504
2133.000000	0.988421
2134.000000	0.981010
2135.000000	0.975936
2136.000000	0.972254
2137.000000	0.961474
2138.000000	0.953326
2139.000000	0.957262
2140.000000	0.953277
2141.000000	0.942780
2142.000000	0.952574
2143.000000	0.946788
2144.000000	0.933617
2145.000000	0.929004
2146.000000	0.922505
2147.000000	0.920211
2148.000000	0.922385
2149.000000	0.917897
2150.000000	0.919054
2151.000000	0.902830
2152.000000	0.902337
2153.000000	0.907908
2154.000000	0.890221
2155.000000	0.891411
2156.000000	0.888680
2157.000000	0.893538
2158.000000	0.891510
2159.000000	0.887725
2160.000000	0.881182
2161.000000	0.874446
2162.000000	0.882184
2163.000000	0.885288
2164.000000	0.879483
2165.000000	0.873806
2166.000000	0.863192
2167.000000	0.867040
2168.000000	0.865591
2169.000000	0.864723
2170.000000	0.865408
2171.000000	0.860712
2172.000000	0.863218
2173.000000	0.858431
2174.000000	0.853656
2175.000000	0.854399
2176.000000	0.853425
2177.000000	0.851662
2178.000000	0.863929
2179.000000	0.869512
2180.000000	0.853278
2181.000000	0.844921
2182.000000	0.855848
2183.000000	0.845742
2184.000000	0.849242
2185.000000	0.849873
2186.000000	0.841851
2187.000000	0.844919
2188.000000	0.864423
2189.000000	0.848082
2190.000000	0.837124
2191.000000	0.848581
2192.000000	0.858757
2193.000000	0.852676
2194.000000	0.847104
2195.000000	0.850849
2196.000000	0.855422
2197.000000	0.846964
2198.000000	0.856526
2199.000000	0.854921
2200.000000	0.848931
2201.000000	0.849613
2202.000000	0.860377
2203.000000	0.859654
2204.000000	0.854057
2205.000000	0.852420
2206.000000	0.858089
2207.000000	0.862996
2208.000000	0.874134
2209.000000	0.872986
2210.000000	0.862119
2211.000000	0.878288
2212.000000	0.892093
2213.000000	0.878679
2214.000000	0.888791
2215.000000	0.886614
2216.000000	0.891344
2217.000000	0.893780
2218.000000	0.896262
2219.000000	0.898119
2220.000000	0.911810
2221.000000	0.893503
2222.000000	0.899437
2223.000000	0.893161
2224.000000	0.912320
2225.000000	0.914695
2226.000000	0.904635
2227.000000	0.922237
2228.000000	0.916195
2229.000000	0.922281
2230.000000	0.923559
2231.000000	0.909420
2232.000000	0.916298
2233.000000	0.924307
2234.000000	0.922951
2235.000000	0.915508
2236.000000	0.913720
2237.000000	0.918837
2238.000000	0.918071
2239.000000	0.908569
2240.000000	0.907588
2241.000000	0.907703
2242.000000	0.898057
2243.000000	0.899171
2244.000000	0.896921
2245.000000	0.870038
2246.000000	0.881984
2247.000000	0.886380
2248.000000	0.889885
2249.000000	0.874780
2250.000000	0.861089
2251.000000	0.858206
2252.000000	0.861765
2253.000000	0.865013
2254.000000	0.860928
2255.000000	0.845938
2256.000000	0.839848
2257.000000	0.843844
2258.000000	0.838088
2259.000000	0.838775
2260.000000	0.834785
2261.000000	0.834973
2262.000000	0.825428
2263.000000	0.833533
2264.000000	0.825615
2265.000000	0.820243
2266.000000	0.833552
2267.000000	0.822148
2268.000000	0.812179
2269.000000	0.826281
2270.000000	0.824545
2271.000000	0.820005
2272.000000	0.817974
2273.000000	0.819257
2274.000000	0.825235
2275.000000	0.816406
2276.000000	0.820106
2277.000000	0.824585
2278.000000	0.824347
2279.000000	0.809435
2280.000000	0.805832
2281.000000	0.804009
2282.000000	0.810885
2283.000000	0.802322
2284.000000	0.798674
2285.000000	0.807618
2286.000000	0.798625
2287.000000	0.807530
2288.000000	0.816041
2289.000000	0.805564
2290.000000	0.800815
2291.000000	0.796818
2292.000000	0.800364
2293.000000	0.801023
2294.000000	0.792693
2295.000000	0.800323
2296.000000	0.795675
2297.000000	0.793991
2298.000000	0.808364
2299.000000	0.799582
2300.000000	0.799831
2301.000000	0.799958
2302.000000	0.796582
2303.000000	0.801946
2304.000000	0.796634
2305.000000	0.810247
2306.000000	0.807410
2307.000000	0.804370
2308.000000	0.804310
2309.000000	0.812344
2310.000000	0.807463
2311.000000	0.808194
2312.000000	0.803830
2313.000000	0.806111
2314.000000	0.819611
2315.000000	0.821212
2316.000000	0.817350
2317.000000	0.809069
2318.000000	0.809153
2319.000000	0.812924
2320.000000	0.816361
2321.000000	0.817315
2322.000000	0.816124
2323.000000	0.805414
2324.000000	0.818501
2325.000000	0.827422
2326.000000	0.818488
2327.000000	0.813711
2328.000000	0.817569
2329.000000	0.817141
2330.000000	0.815123
2331.000000	0.820717
2332.000000	0.823307
2333.000000	0.824597
2334.000000	0.826266
2335.000000	0.826136
2336.000000	0.826614
2337.000000	0.830421
2338.000000	0.833496
2339.000000	0.822613
2340.000000	0.816411
2341.000000	0.825105
2342.000000	0.828829
2343.000000	0.822072
2344.000000	0.819720
2345.000000	0.819518
2346.000000	0.826000
2347.000000	0.835358
2348.000000	0.840194
2349.000000	0.844373
2350.000000	0.844086
2351.000000	0.838257
2352.000000	0.842929
2353.000000	0.843292
2354.000000	0.843336
2355.000000	0.841673
2356.000000	0.840271
2357.000000	0.846220
2358.000000	0.844921
2359.000000	0.840086
2360.000000	0.838869
2361.000000	0.843518
2362.000000	0.846417
2363.000000	0.849239
2364.000000	0.853351
2365.000000	0.849046
2366.000000	0.842552
2367.000000	0.842639
2368.000000	0.848744
2369.000000	0.845339
2370.000000	0.850003
2371.000000	0.854092
2372.000000	0.860758
2373.000000	0.856128
2374.000000	0.853958
2375.000000	0.864117
2376.000000	0.862743
2377.000000	0.863875
2378.000000	0.866015
2379.000000	0.861697
2380.000000	0.864065
2381.000000	0.863277
2382.000000	0.861372
2383.000000	0.867713
2384.000000	0.871748
2385.000000	0.876671
2386.000000	0.875591
2387.000000	0.867951
2388.000000	0.867090
2389.000000	0.874475
2390.000000	0.874199
2391.000000	0.868571
2392.000000	0.869796
2393.000000	0.866856
2394.000000	0.866720
2395.000000	0.863217
2396.000000	0.870565
2397.000000	0.879309
2398.000000	0.877879
2399.000000	0.883469
2400.000000	0.881483
2401.000000	0.886900
2402.000000	0.890820
2403.000000	0.897372
2404.000000	0.891544
2405.000000	0.889728
2406.000000	0.884107
2407.000000	0.877123
2408.000000	0.877734
2409.000000	0.881018
2410.000000	0.881494
2411.000000	0.879808
2412.000000	0.871553
2413.000000	0.869008
2414.000000	0.881337
2415.000000	0.872474
2416.000000	0.862850
2417.000000	0.861355
2418.000000	0.860965
2419.000000	0.857418
2420.000000	0.858107
2421.000000	0.850033
2422.000000	0.853494
2423.000000	0.838658
2424.000000	0.846079
2425.000000	0.839662
2426.000000	0.833422
2427.000000	0.831890
2428.000000	0.829161
2429.000000	0.822361
2430.000000	0.822679
2431.000000	0.833071
2432.000000	0.815572
2433.000000	0.809140
2434.000000	0.810434
2435.000000	0.804774
2436.000000	0.803701
2437.000000	0.798829
2438.000000	0.796947
2439.000000	0.792493
2440.000000	0.776522
2441.000000	0.786346
2442.000000	0.796851
2443.000000	0.783223
2444.000000	0.769756
2445.000000	0.775425
2446.000000	0.771333
2447.000000	0.767091
2448.000000	0.771970
2449.000000	0.748917
2450.000000	0.756967
2451.000000	0.752667
2452.000000	0.745940
2453.000000	0.736118
2454.000000	0.733575
2455.000000	0.746585
2456.000000	0.733555
2457.000000	0.737478
2458.000000	0.727858
2459.000000	0.712903
2460.000000	0.706351
2461.000000	0.729918
2462.000000	0.734854
2463.000000	0.715919
2464.000000	0.704560
2465.000000	0.675609
2466.000000	0.703964
2467.000000	0.701834
2468.000000	0.705967
2469.000000	0.705122
2470.000000	0.711950
2471.000000	0.668905
2472.000000	0.695308
2473.000000	0.655789
2474.000000	0.653472
2475.000000	0.691502
2476.000000	0.730662
2477.000000	0.632902
2478.000000	0.667716
2479.000000	0.702575
2480.000000	0.657190
2481.000000	0.706282
2482.000000	0.702478
2483.000000	0.687005
2484.000000	0.687139
2485.000000	0.676305
2486.000000	0.691174
2487.000000	0.649365
2488.000000	0.683110
2489.000000	0.636499
2490.000000	0.672638
2491.000000	0.656974
2492.000000	0.656005
2493.000000	0.645237
2494.000000	0.715753
2495.000000	0.661996
2496.000000	0.642635
2497.000000	0.635260
2498.000000	0.671953
2499.000000	0.639809
2500.000000	0.632253
