PE UV       SUBTECH     SPECTRUM    ASCII       PEDS        4.00        
   -1
CICIMAUCR0251-3.ASC
24/05/30
14:00:00.00
24/05/30
14:00:00.00
Vinicio Soto Monge
C. resplendens, F Ventral
250,000000
1
Lambda 1050
1050L1511233
PerkinElmer UV WinLab 6.3.2.0749 / 2.02.05 Lambda 900 UV/VIS/NIR, Aug  7 2015 09:38:08

0
0
3350/servo 860,8/2
0
0
UV/VIS
1
1
1
DoubleDePol,CommonBeamDepol,RBeamAtt,SBeamAtt,60mm sphere, WB InGaAs Detector
0
0
0
0
Program
Program
3350/servo 860,8/2
3350/0,2 860,8/0,2
3350/0,2 860,8/0,2
0
15.00
 
 
 
0
 
860,8
319,2
860,8
Front
100
on
S:100 R:100
0
0
0
0
 
0
 
 
 
0
 
 
0
0
0
0
0
 
 
 
 
0
0


0
0
#HDR
-1
-1
#GR
nm
%R
1.0
0.0
2500,000000
-1,000000
2251
8
60,560100
3,798400
#DATA
250.000000	0.178483
251.000000	0.212696
252.000000	0.173441
253.000000	0.157714
254.000000	0.175577
255.000000	0.212816
256.000000	0.201220
257.000000	0.184365
258.000000	0.222010
259.000000	0.190532
260.000000	0.170453
261.000000	0.184707
262.000000	0.194504
263.000000	0.189026
264.000000	0.161323
265.000000	0.164346
266.000000	0.153631
267.000000	0.159321
268.000000	0.175097
269.000000	0.186883
270.000000	0.160522
271.000000	0.181917
272.000000	0.173131
273.000000	0.169828
274.000000	0.184708
275.000000	0.153623
276.000000	0.158140
277.000000	0.185704
278.000000	0.181855
279.000000	0.188203
280.000000	0.165609
281.000000	0.153113
282.000000	0.177041
283.000000	0.167312
284.000000	0.158134
285.000000	0.165901
286.000000	0.185007
287.000000	0.162313
288.000000	0.147440
289.000000	0.153780
290.000000	0.151733
291.000000	0.140695
292.000000	0.171885
293.000000	0.202405
294.000000	0.183450
295.000000	0.156421
296.000000	0.161601
297.000000	0.167754
298.000000	0.165591
299.000000	0.170329
300.000000	0.162153
301.000000	0.172225
302.000000	0.165951
303.000000	0.166750
304.000000	0.189729
305.000000	0.181825
306.000000	0.173176
307.000000	0.185160
308.000000	0.166827
309.000000	0.145159
310.000000	0.162877
311.000000	0.164952
312.000000	0.171200
313.000000	0.154939
314.000000	0.141925
315.000000	0.160038
316.000000	0.184419
317.000000	0.582023
318.000000	0.436246
319.000000	0.345261
320.000000	0.484054
321.000000	0.432508
322.000000	0.287881
323.000000	0.245564
324.000000	0.221911
325.000000	0.206709
326.000000	0.248398
327.000000	0.355772
328.000000	0.434769
329.000000	0.372136
330.000000	0.262968
331.000000	0.170358
332.000000	0.238097
333.000000	0.239349
334.000000	0.095412
335.000000	0.130410
336.000000	0.135816
337.000000	0.097020
338.000000	0.118902
339.000000	0.186658
340.000000	0.153383
341.000000	0.086200
342.000000	0.127898
343.000000	0.213392
344.000000	0.202304
345.000000	0.160276
346.000000	0.161701
347.000000	0.157722
348.000000	0.149644
349.000000	0.166049
350.000000	0.105640
351.000000	0.129150
352.000000	0.136092
353.000000	0.181990
354.000000	0.248958
355.000000	0.208165
356.000000	0.122990
357.000000	0.194664
358.000000	0.090543
359.000000	0.095766
360.000000	0.142433
361.000000	0.147905
362.000000	0.283350
363.000000	0.243204
364.000000	0.226032
365.000000	0.288283
366.000000	0.260897
367.000000	0.264315
368.000000	0.270601
369.000000	0.263528
370.000000	0.222416
371.000000	0.268164
372.000000	0.349474
373.000000	0.405938
374.000000	0.293572
375.000000	0.202540
376.000000	0.209195
377.000000	0.186759
378.000000	0.187260
379.000000	0.217550
380.000000	0.209505
381.000000	0.200852
382.000000	0.208917
383.000000	0.209403
384.000000	0.215852
385.000000	0.226370
386.000000	0.230552
387.000000	0.226851
388.000000	0.223433
389.000000	0.225382
390.000000	0.221946
391.000000	0.220554
392.000000	0.229587
393.000000	0.230432
394.000000	0.238984
395.000000	0.238064
396.000000	0.239856
397.000000	0.241224
398.000000	0.237487
399.000000	0.255263
400.000000	0.253203
401.000000	0.250266
402.000000	0.261967
403.000000	0.275591
404.000000	0.276551
405.000000	0.269920
406.000000	0.269916
407.000000	0.271141
408.000000	0.284057
409.000000	0.292570
410.000000	0.281388
411.000000	0.287599
412.000000	0.295204
413.000000	0.284019
414.000000	0.298213
415.000000	0.294037
416.000000	0.302075
417.000000	0.305950
418.000000	0.308941
419.000000	0.307869
420.000000	0.305475
421.000000	0.304619
422.000000	0.319108
423.000000	0.327741
424.000000	0.321614
425.000000	0.318663
426.000000	0.322735
427.000000	0.329217
428.000000	0.322294
429.000000	0.326717
430.000000	0.326896
431.000000	0.312815
432.000000	0.324488
433.000000	0.323913
434.000000	0.325501
435.000000	0.314056
436.000000	0.324430
437.000000	0.327278
438.000000	0.324075
439.000000	0.321849
440.000000	0.310087
441.000000	0.309550
442.000000	0.314446
443.000000	0.304266
444.000000	0.303071
445.000000	0.300048
446.000000	0.304321
447.000000	0.296907
448.000000	0.294753
449.000000	0.302108
450.000000	0.287149
451.000000	0.285728
452.000000	0.276167
453.000000	0.264165
454.000000	0.274650
455.000000	0.269848
456.000000	0.262162
457.000000	0.271220
458.000000	0.252812
459.000000	0.259885
460.000000	0.253853
461.000000	0.261443
462.000000	0.251594
463.000000	0.258741
464.000000	0.242897
465.000000	0.251347
466.000000	0.254440
467.000000	0.260744
468.000000	0.252204
469.000000	0.268901
470.000000	0.277422
471.000000	0.270715
472.000000	0.276987
473.000000	0.277388
474.000000	0.290510
475.000000	0.289188
476.000000	0.297574
477.000000	0.307108
478.000000	0.317056
479.000000	0.324203
480.000000	0.331333
481.000000	0.349151
482.000000	0.351325
483.000000	0.367924
484.000000	0.372934
485.000000	0.389751
486.000000	0.403550
487.000000	0.412928
488.000000	0.432998
489.000000	0.444593
490.000000	0.455843
491.000000	0.470865
492.000000	0.498020
493.000000	0.505011
494.000000	0.507454
495.000000	0.534739
496.000000	0.548720
497.000000	0.571846
498.000000	0.588423
499.000000	0.602660
500.000000	0.620327
501.000000	0.631001
502.000000	0.652948
503.000000	0.664831
504.000000	0.672910
505.000000	0.710668
506.000000	0.724051
507.000000	0.736403
508.000000	0.757112
509.000000	0.772428
510.000000	0.773977
511.000000	0.789285
512.000000	0.808443
513.000000	0.811703
514.000000	0.822340
515.000000	0.828048
516.000000	0.838562
517.000000	0.839501
518.000000	0.849994
519.000000	0.839214
520.000000	0.848896
521.000000	0.844534
522.000000	0.831499
523.000000	0.840714
524.000000	0.839594
525.000000	0.832116
526.000000	0.815790
527.000000	0.809499
528.000000	0.805881
529.000000	0.800553
530.000000	0.781983
531.000000	0.772066
532.000000	0.764204
533.000000	0.755967
534.000000	0.762777
535.000000	0.735465
536.000000	0.716496
537.000000	0.716955
538.000000	0.705001
539.000000	0.687453
540.000000	0.674630
541.000000	0.649644
542.000000	0.648936
543.000000	0.633719
544.000000	0.631237
545.000000	0.598381
546.000000	0.596315
547.000000	0.583044
548.000000	0.575752
549.000000	0.568875
550.000000	0.562436
551.000000	0.538380
552.000000	0.522482
553.000000	0.523156
554.000000	0.506793
555.000000	0.492227
556.000000	0.490022
557.000000	0.486985
558.000000	0.490345
559.000000	0.496342
560.000000	0.501484
561.000000	0.490818
562.000000	0.495246
563.000000	0.510306
564.000000	0.510502
565.000000	0.516332
566.000000	0.531184
567.000000	0.518209
568.000000	0.522411
569.000000	0.523576
570.000000	0.534078
571.000000	0.542074
572.000000	0.551267
573.000000	0.556377
574.000000	0.563683
575.000000	0.573477
576.000000	0.582078
577.000000	0.584236
578.000000	0.576773
579.000000	0.592275
580.000000	0.604301
581.000000	0.584718
582.000000	0.575291
583.000000	0.589808
584.000000	0.609447
585.000000	0.608218
586.000000	0.602886
587.000000	0.601578
588.000000	0.603555
589.000000	0.603421
590.000000	0.604222
591.000000	0.617998
592.000000	0.610632
593.000000	0.616866
594.000000	0.622109
595.000000	0.623735
596.000000	0.618766
597.000000	0.599035
598.000000	0.609216
599.000000	0.613071
600.000000	0.601867
601.000000	0.605079
602.000000	0.614197
603.000000	0.618621
604.000000	0.611199
605.000000	0.622089
606.000000	0.617662
607.000000	0.617158
608.000000	0.620690
609.000000	0.613470
610.000000	0.605368
611.000000	0.612187
612.000000	0.599366
613.000000	0.594954
614.000000	0.609640
615.000000	0.606529
616.000000	0.596826
617.000000	0.602277
618.000000	0.597532
619.000000	0.589143
620.000000	0.587358
621.000000	0.583982
622.000000	0.587144
623.000000	0.588302
624.000000	0.576624
625.000000	0.578675
626.000000	0.590901
627.000000	0.591675
628.000000	0.586264
629.000000	0.581941
630.000000	0.582922
631.000000	0.592947
632.000000	0.596489
633.000000	0.591915
634.000000	0.595561
635.000000	0.608304
636.000000	0.627144
637.000000	0.632101
638.000000	0.624753
639.000000	0.633503
640.000000	0.649021
641.000000	0.641201
642.000000	0.651303
643.000000	0.660928
644.000000	0.664687
645.000000	0.691580
646.000000	0.704871
647.000000	0.708489
648.000000	0.722319
649.000000	0.735294
650.000000	0.750628
651.000000	0.764583
652.000000	0.774401
653.000000	0.786631
654.000000	0.796198
655.000000	0.794843
656.000000	0.801749
657.000000	0.817232
658.000000	0.832294
659.000000	0.848537
660.000000	0.854579
661.000000	0.858170
662.000000	0.859688
663.000000	0.873145
664.000000	0.887172
665.000000	0.912520
666.000000	0.918033
667.000000	0.904404
668.000000	0.910940
669.000000	0.932903
670.000000	0.944413
671.000000	0.936617
672.000000	0.963283
673.000000	0.979059
674.000000	0.981871
675.000000	1.000398
676.000000	1.002597
677.000000	1.025892
678.000000	1.058301
679.000000	1.054679
680.000000	1.063007
681.000000	1.082101
682.000000	1.095950
683.000000	1.094714
684.000000	1.089192
685.000000	1.098537
686.000000	1.111211
687.000000	1.136663
688.000000	1.135548
689.000000	1.138820
690.000000	1.163799
691.000000	1.166025
692.000000	1.205786
693.000000	1.203046
694.000000	1.206184
695.000000	1.242069
696.000000	1.238512
697.000000	1.234118
698.000000	1.243641
699.000000	1.252276
700.000000	1.244887
701.000000	1.270977
702.000000	1.283850
703.000000	1.320202
704.000000	1.321288
705.000000	1.328368
706.000000	1.371897
707.000000	1.398429
708.000000	1.381240
709.000000	1.395243
710.000000	1.409868
711.000000	1.417261
712.000000	1.444139
713.000000	1.465517
714.000000	1.488664
715.000000	1.480189
716.000000	1.492403
717.000000	1.524213
718.000000	1.520198
719.000000	1.538463
720.000000	1.567202
721.000000	1.598773
722.000000	1.624752
723.000000	1.689975
724.000000	1.711277
725.000000	1.730915
726.000000	1.763681
727.000000	1.775164
728.000000	1.800626
729.000000	1.784114
730.000000	1.806381
731.000000	1.868347
732.000000	1.885264
733.000000	1.921407
734.000000	1.958535
735.000000	1.970210
736.000000	1.961186
737.000000	1.980211
738.000000	2.057057
739.000000	2.088558
740.000000	2.122088
741.000000	2.107227
742.000000	2.117402
743.000000	2.158854
744.000000	2.145739
745.000000	2.186059
746.000000	2.197535
747.000000	2.284192
748.000000	2.318234
749.000000	2.335307
750.000000	2.348938
751.000000	2.371085
752.000000	2.412530
753.000000	2.404089
754.000000	2.506321
755.000000	2.531928
756.000000	2.525873
757.000000	2.509174
758.000000	2.613722
759.000000	2.603346
760.000000	2.620407
761.000000	2.661247
762.000000	2.638074
763.000000	2.632212
764.000000	2.711865
765.000000	2.765086
766.000000	2.750243
767.000000	2.834151
768.000000	2.799137
769.000000	2.868717
770.000000	2.852335
771.000000	2.908795
772.000000	2.971464
773.000000	3.022836
774.000000	2.965898
775.000000	2.919623
776.000000	3.049870
777.000000	3.104639
778.000000	3.010458
779.000000	3.052558
780.000000	3.090014
781.000000	3.080023
782.000000	3.234402
783.000000	3.255247
784.000000	3.202502
785.000000	3.294166
786.000000	3.326273
787.000000	3.318281
788.000000	3.260400
789.000000	3.312444
790.000000	3.422052
791.000000	3.388197
792.000000	3.411289
793.000000	3.377262
794.000000	3.495634
795.000000	3.491010
796.000000	3.489227
797.000000	3.458079
798.000000	3.488799
799.000000	3.522853
800.000000	3.622064
801.000000	3.614604
802.000000	3.547994
803.000000	3.714950
804.000000	3.646222
805.000000	3.744748
806.000000	3.734979
807.000000	3.717289
808.000000	3.804749
809.000000	3.784855
810.000000	3.841481
811.000000	3.873745
812.000000	3.907665
813.000000	3.807334
814.000000	3.907530
815.000000	3.982292
816.000000	4.016395
817.000000	3.952364
818.000000	3.921433
819.000000	3.871514
820.000000	3.999521
821.000000	4.013593
822.000000	4.120250
823.000000	4.054979
824.000000	4.129454
825.000000	4.080120
826.000000	4.000985
827.000000	4.170074
828.000000	4.076459
829.000000	4.183183
830.000000	4.211391
831.000000	4.297403
832.000000	4.198307
833.000000	4.379423
834.000000	4.310925
835.000000	4.289567
836.000000	4.284151
837.000000	4.356425
838.000000	4.356761
839.000000	4.446551
840.000000	4.377611
841.000000	4.457962
842.000000	4.490515
843.000000	4.450200
844.000000	4.407624
845.000000	4.500435
846.000000	4.578996
847.000000	4.638867
848.000000	4.473231
849.000000	4.619302
850.000000	4.724291
851.000000	4.666491
852.000000	4.857877
853.000000	4.945479
854.000000	5.078786
855.000000	4.930803
856.000000	4.800107
857.000000	4.622662
858.000000	4.775689
859.000000	4.797319
860.000000	4.805099
861.000000	4.802688
862.000000	4.813363
863.000000	4.822411
864.000000	4.836463
865.000000	4.855816
866.000000	4.856201
867.000000	4.865431
868.000000	4.882615
869.000000	4.875464
870.000000	4.870863
871.000000	4.867326
872.000000	4.882497
873.000000	4.917297
874.000000	4.966166
875.000000	5.023660
876.000000	5.064797
877.000000	5.119011
878.000000	5.163708
879.000000	5.223558
880.000000	5.274500
881.000000	5.304984
882.000000	5.341471
883.000000	5.378789
884.000000	5.425754
885.000000	5.447615
886.000000	5.487810
887.000000	5.500279
888.000000	5.524489
889.000000	5.576755
890.000000	5.588852
891.000000	5.601017
892.000000	5.625553
893.000000	5.646611
894.000000	5.657211
895.000000	5.680448
896.000000	5.699771
897.000000	5.713834
898.000000	5.712382
899.000000	5.719628
900.000000	5.730751
901.000000	5.744962
902.000000	5.755929
903.000000	5.784084
904.000000	5.796731
905.000000	5.793275
906.000000	5.807769
907.000000	5.815483
908.000000	5.817103
909.000000	5.835326
910.000000	5.852210
911.000000	5.857630
912.000000	5.854802
913.000000	5.876559
914.000000	5.893346
915.000000	5.901435
916.000000	5.910991
917.000000	5.908616
918.000000	5.911051
919.000000	5.928903
920.000000	5.943812
921.000000	5.943467
922.000000	5.941346
923.000000	5.953492
924.000000	5.950510
925.000000	5.952072
926.000000	5.959350
927.000000	5.982129
928.000000	5.975310
929.000000	5.972316
930.000000	5.980027
931.000000	5.986542
932.000000	6.001011
933.000000	6.000638
934.000000	6.007046
935.000000	6.025051
936.000000	6.032599
937.000000	6.024221
938.000000	6.033536
939.000000	6.052110
940.000000	6.052878
941.000000	6.051162
942.000000	6.031061
943.000000	6.047006
944.000000	6.075837
945.000000	6.069345
946.000000	6.063280
947.000000	6.072803
948.000000	6.081154
949.000000	6.093708
950.000000	6.090817
951.000000	6.081263
952.000000	6.092040
953.000000	6.097135
954.000000	6.092566
955.000000	6.092467
956.000000	6.088980
957.000000	6.085305
958.000000	6.093670
959.000000	6.104866
960.000000	6.103207
961.000000	6.100146
962.000000	6.087381
963.000000	6.086936
964.000000	6.101488
965.000000	6.093472
966.000000	6.092538
967.000000	6.092784
968.000000	6.095369
969.000000	6.097195
970.000000	6.093527
971.000000	6.093995
972.000000	6.103763
973.000000	6.104168
974.000000	6.086622
975.000000	6.088680
976.000000	6.093880
977.000000	6.099262
978.000000	6.087188
979.000000	6.094937
980.000000	6.107890
981.000000	6.103077
982.000000	6.088046
983.000000	6.097934
984.000000	6.098924
985.000000	6.089791
986.000000	6.086519
987.000000	6.095871
988.000000	6.099923
989.000000	6.109373
990.000000	6.098177
991.000000	6.095606
992.000000	6.092216
993.000000	6.088705
994.000000	6.100240
995.000000	6.106278
996.000000	6.100800
997.000000	6.098109
998.000000	6.113364
999.000000	6.115499
1000.000000	6.116754
1001.000000	6.116968
1002.000000	6.105408
1003.000000	6.094146
1004.000000	6.102112
1005.000000	6.107438
1006.000000	6.095406
1007.000000	6.103412
1008.000000	6.107763
1009.000000	6.103266
1010.000000	6.109430
1011.000000	6.123017
1012.000000	6.121674
1013.000000	6.117058
1014.000000	6.113056
1015.000000	6.129627
1016.000000	6.139812
1017.000000	6.150813
1018.000000	6.146418
1019.000000	6.166186
1020.000000	6.162617
1021.000000	6.179010
1022.000000	6.180122
1023.000000	6.182526
1024.000000	6.198793
1025.000000	6.201407
1026.000000	6.204128
1027.000000	6.209182
1028.000000	6.239410
1029.000000	6.244661
1030.000000	6.240266
1031.000000	6.242829
1032.000000	6.239830
1033.000000	6.250102
1034.000000	6.260674
1035.000000	6.278295
1036.000000	6.269556
1037.000000	6.287737
1038.000000	6.296286
1039.000000	6.297911
1040.000000	6.311373
1041.000000	6.305948
1042.000000	6.319796
1043.000000	6.327174
1044.000000	6.311414
1045.000000	6.324943
1046.000000	6.327128
1047.000000	6.353481
1048.000000	6.346374
1049.000000	6.351823
1050.000000	6.354951
1051.000000	6.369846
1052.000000	6.377125
1053.000000	6.376410
1054.000000	6.390686
1055.000000	6.386861
1056.000000	6.390796
1057.000000	6.397218
1058.000000	6.415057
1059.000000	6.432303
1060.000000	6.418291
1061.000000	6.436525
1062.000000	6.448760
1063.000000	6.448368
1064.000000	6.447594
1065.000000	6.469787
1066.000000	6.480132
1067.000000	6.479004
1068.000000	6.484194
1069.000000	6.488105
1070.000000	6.506340
1071.000000	6.504309
1072.000000	6.508699
1073.000000	6.520777
1074.000000	6.496476
1075.000000	6.520366
1076.000000	6.533756
1077.000000	6.538532
1078.000000	6.540467
1079.000000	6.536136
1080.000000	6.538529
1081.000000	6.568584
1082.000000	6.546899
1083.000000	6.568317
1084.000000	6.583906
1085.000000	6.581545
1086.000000	6.586093
1087.000000	6.601125
1088.000000	6.585174
1089.000000	6.610116
1090.000000	6.608548
1091.000000	6.590581
1092.000000	6.608939
1093.000000	6.614099
1094.000000	6.622521
1095.000000	6.618331
1096.000000	6.629952
1097.000000	6.634876
1098.000000	6.628655
1099.000000	6.624484
1100.000000	6.635154
1101.000000	6.632391
1102.000000	6.636299
1103.000000	6.638282
1104.000000	6.637855
1105.000000	6.656575
1106.000000	6.635730
1107.000000	6.647460
1108.000000	6.647595
1109.000000	6.645412
1110.000000	6.635396
1111.000000	6.641044
1112.000000	6.659551
1113.000000	6.645675
1114.000000	6.644639
1115.000000	6.649338
1116.000000	6.645489
1117.000000	6.646508
1118.000000	6.638426
1119.000000	6.637627
1120.000000	6.634247
1121.000000	6.632022
1122.000000	6.632523
1123.000000	6.619116
1124.000000	6.610091
1125.000000	6.597276
1126.000000	6.574021
1127.000000	6.549175
1128.000000	6.537495
1129.000000	6.501915
1130.000000	6.493245
1131.000000	6.451550
1132.000000	6.386999
1133.000000	6.364563
1134.000000	6.310699
1135.000000	6.243732
1136.000000	6.194349
1137.000000	6.142427
1138.000000	6.086157
1139.000000	6.036460
1140.000000	5.989039
1141.000000	5.938483
1142.000000	5.889709
1143.000000	5.855501
1144.000000	5.820122
1145.000000	5.786577
1146.000000	5.771171
1147.000000	5.734023
1148.000000	5.728809
1149.000000	5.718189
1150.000000	5.719144
1151.000000	5.706141
1152.000000	5.697571
1153.000000	5.685949
1154.000000	5.666968
1155.000000	5.637479
1156.000000	5.605121
1157.000000	5.572099
1158.000000	5.533433
1159.000000	5.486703
1160.000000	5.435205
1161.000000	5.401218
1162.000000	5.365381
1163.000000	5.303401
1164.000000	5.266150
1165.000000	5.224459
1166.000000	5.179449
1167.000000	5.139001
1168.000000	5.086900
1169.000000	5.037353
1170.000000	5.010754
1171.000000	4.973843
1172.000000	4.946010
1173.000000	4.902629
1174.000000	4.869025
1175.000000	4.832132
1176.000000	4.799029
1177.000000	4.753691
1178.000000	4.708279
1179.000000	4.660773
1180.000000	4.602742
1181.000000	4.542130
1182.000000	4.496155
1183.000000	4.453939
1184.000000	4.415472
1185.000000	4.393973
1186.000000	4.389215
1187.000000	4.395895
1188.000000	4.413673
1189.000000	4.460265
1190.000000	4.507128
1191.000000	4.556309
1192.000000	4.600026
1193.000000	4.645612
1194.000000	4.682063
1195.000000	4.705995
1196.000000	4.731035
1197.000000	4.756828
1198.000000	4.779126
1199.000000	4.790594
1200.000000	4.797758
1201.000000	4.796504
1202.000000	4.798720
1203.000000	4.798635
1204.000000	4.802623
1205.000000	4.803972
1206.000000	4.810645
1207.000000	4.827629
1208.000000	4.837284
1209.000000	4.848110
1210.000000	4.872776
1211.000000	4.882529
1212.000000	4.891567
1213.000000	4.913634
1214.000000	4.920411
1215.000000	4.945708
1216.000000	4.971369
1217.000000	4.978612
1218.000000	4.994521
1219.000000	5.014358
1220.000000	5.035047
1221.000000	5.053131
1222.000000	5.071256
1223.000000	5.098110
1224.000000	5.128635
1225.000000	5.152134
1226.000000	5.164949
1227.000000	5.172908
1228.000000	5.196885
1229.000000	5.228503
1230.000000	5.246262
1231.000000	5.265682
1232.000000	5.287848
1233.000000	5.308235
1234.000000	5.325718
1235.000000	5.341907
1236.000000	5.357575
1237.000000	5.379112
1238.000000	5.398295
1239.000000	5.422677
1240.000000	5.441843
1241.000000	5.440274
1242.000000	5.453180
1243.000000	5.473533
1244.000000	5.490531
1245.000000	5.491780
1246.000000	5.507647
1247.000000	5.528656
1248.000000	5.527195
1249.000000	5.550687
1250.000000	5.563982
1251.000000	5.558303
1252.000000	5.570312
1253.000000	5.585907
1254.000000	5.589946
1255.000000	5.602816
1256.000000	5.629670
1257.000000	5.625521
1258.000000	5.623343
1259.000000	5.635058
1260.000000	5.636080
1261.000000	5.655279
1262.000000	5.670672
1263.000000	5.670877
1264.000000	5.665799
1265.000000	5.669252
1266.000000	5.672982
1267.000000	5.685378
1268.000000	5.696226
1269.000000	5.696977
1270.000000	5.701806
1271.000000	5.718379
1272.000000	5.714514
1273.000000	5.710030
1274.000000	5.725972
1275.000000	5.733990
1276.000000	5.740243
1277.000000	5.748885
1278.000000	5.760666
1279.000000	5.764485
1280.000000	5.771984
1281.000000	5.771523
1282.000000	5.780849
1283.000000	5.790173
1284.000000	5.787489
1285.000000	5.780629
1286.000000	5.791178
1287.000000	5.799300
1288.000000	5.818235
1289.000000	5.823042
1290.000000	5.823218
1291.000000	5.814624
1292.000000	5.806645
1293.000000	5.823127
1294.000000	5.832641
1295.000000	5.825404
1296.000000	5.819686
1297.000000	5.820433
1298.000000	5.827951
1299.000000	5.822259
1300.000000	5.818583
1301.000000	5.803381
1302.000000	5.803800
1303.000000	5.799018
1304.000000	5.791738
1305.000000	5.784569
1306.000000	5.784657
1307.000000	5.768011
1308.000000	5.760515
1309.000000	5.756087
1310.000000	5.741353
1311.000000	5.742328
1312.000000	5.717806
1313.000000	5.710305
1314.000000	5.691508
1315.000000	5.671335
1316.000000	5.655933
1317.000000	5.649767
1318.000000	5.631321
1319.000000	5.610672
1320.000000	5.586666
1321.000000	5.578471
1322.000000	5.559866
1323.000000	5.540372
1324.000000	5.528001
1325.000000	5.487668
1326.000000	5.474467
1327.000000	5.447200
1328.000000	5.414549
1329.000000	5.402703
1330.000000	5.360622
1331.000000	5.334470
1332.000000	5.312800
1333.000000	5.285750
1334.000000	5.241881
1335.000000	5.213608
1336.000000	5.183595
1337.000000	5.145472
1338.000000	5.131992
1339.000000	5.093554
1340.000000	5.055864
1341.000000	5.023044
1342.000000	4.983961
1343.000000	4.934091
1344.000000	4.890357
1345.000000	4.858114
1346.000000	4.841766
1347.000000	4.778253
1348.000000	4.731011
1349.000000	4.691408
1350.000000	4.637566
1351.000000	4.593407
1352.000000	4.534584
1353.000000	4.483302
1354.000000	4.429139
1355.000000	4.361231
1356.000000	4.330451
1357.000000	4.314036
1358.000000	4.297395
1359.000000	4.318607
1360.000000	4.290159
1361.000000	4.274488
1362.000000	4.239699
1363.000000	4.233977
1364.000000	4.216176
1365.000000	4.191247
1366.000000	4.171961
1367.000000	4.137678
1368.000000	4.102775
1369.000000	4.057334
1370.000000	4.051196
1371.000000	3.994523
1372.000000	3.933544
1373.000000	3.922369
1374.000000	3.877481
1375.000000	3.862087
1376.000000	3.840408
1377.000000	3.815683
1378.000000	3.833384
1379.000000	3.794280
1380.000000	3.771472
1381.000000	3.744322
1382.000000	3.680554
1383.000000	3.637053
1384.000000	3.570619
1385.000000	3.517422
1386.000000	3.450527
1387.000000	3.403848
1388.000000	3.356284
1389.000000	3.295465
1390.000000	3.278087
1391.000000	3.241977
1392.000000	3.202368
1393.000000	3.176787
1394.000000	3.164622
1395.000000	3.106415
1396.000000	3.048516
1397.000000	3.001328
1398.000000	2.976966
1399.000000	2.964428
1400.000000	2.906825
1401.000000	2.850051
1402.000000	2.804119
1403.000000	2.791830
1404.000000	2.741872
1405.000000	2.683686
1406.000000	2.636623
1407.000000	2.597255
1408.000000	2.544676
1409.000000	2.501228
1410.000000	2.464430
1411.000000	2.429142
1412.000000	2.399472
1413.000000	2.354874
1414.000000	2.330215
1415.000000	2.284280
1416.000000	2.256825
1417.000000	2.241894
1418.000000	2.215698
1419.000000	2.179201
1420.000000	2.159402
1421.000000	2.127806
1422.000000	2.087101
1423.000000	2.075825
1424.000000	2.046823
1425.000000	2.031179
1426.000000	1.998463
1427.000000	1.993810
1428.000000	1.960486
1429.000000	1.941905
1430.000000	1.923614
1431.000000	1.914224
1432.000000	1.902384
1433.000000	1.885272
1434.000000	1.866041
1435.000000	1.848183
1436.000000	1.838718
1437.000000	1.831979
1438.000000	1.822607
1439.000000	1.806526
1440.000000	1.796556
1441.000000	1.778297
1442.000000	1.771457
1443.000000	1.745497
1444.000000	1.741896
1445.000000	1.729313
1446.000000	1.712877
1447.000000	1.698727
1448.000000	1.696214
1449.000000	1.694982
1450.000000	1.692080
1451.000000	1.675320
1452.000000	1.659504
1453.000000	1.654635
1454.000000	1.653838
1455.000000	1.646065
1456.000000	1.632907
1457.000000	1.626838
1458.000000	1.612558
1459.000000	1.614691
1460.000000	1.615974
1461.000000	1.606468
1462.000000	1.598875
1463.000000	1.595489
1464.000000	1.594109
1465.000000	1.595531
1466.000000	1.586020
1467.000000	1.586121
1468.000000	1.578633
1469.000000	1.576763
1470.000000	1.571827
1471.000000	1.577050
1472.000000	1.572426
1473.000000	1.556917
1474.000000	1.554893
1475.000000	1.570513
1476.000000	1.569493
1477.000000	1.565272
1478.000000	1.568872
1479.000000	1.564064
1480.000000	1.563262
1481.000000	1.549010
1482.000000	1.553224
1483.000000	1.555149
1484.000000	1.552611
1485.000000	1.549700
1486.000000	1.544276
1487.000000	1.548494
1488.000000	1.550403
1489.000000	1.558830
1490.000000	1.561497
1491.000000	1.559261
1492.000000	1.561354
1493.000000	1.573052
1494.000000	1.575532
1495.000000	1.554666
1496.000000	1.546290
1497.000000	1.556318
1498.000000	1.572797
1499.000000	1.572102
1500.000000	1.575829
1501.000000	1.586365
1502.000000	1.591597
1503.000000	1.597140
1504.000000	1.601351
1505.000000	1.610467
1506.000000	1.612660
1507.000000	1.618766
1508.000000	1.624574
1509.000000	1.622288
1510.000000	1.628775
1511.000000	1.633249
1512.000000	1.638489
1513.000000	1.644776
1514.000000	1.647239
1515.000000	1.657820
1516.000000	1.653431
1517.000000	1.649869
1518.000000	1.669198
1519.000000	1.667211
1520.000000	1.677636
1521.000000	1.689991
1522.000000	1.687771
1523.000000	1.697076
1524.000000	1.694720
1525.000000	1.695417
1526.000000	1.703817
1527.000000	1.709487
1528.000000	1.712285
1529.000000	1.715432
1530.000000	1.721243
1531.000000	1.728195
1532.000000	1.734157
1533.000000	1.735935
1534.000000	1.739028
1535.000000	1.735997
1536.000000	1.739496
1537.000000	1.745270
1538.000000	1.749360
1539.000000	1.759081
1540.000000	1.753731
1541.000000	1.748674
1542.000000	1.757877
1543.000000	1.761560
1544.000000	1.764891
1545.000000	1.772773
1546.000000	1.775589
1547.000000	1.772567
1548.000000	1.774108
1549.000000	1.783620
1550.000000	1.785166
1551.000000	1.790269
1552.000000	1.791839
1553.000000	1.794062
1554.000000	1.799688
1555.000000	1.813664
1556.000000	1.813188
1557.000000	1.815366
1558.000000	1.811288
1559.000000	1.812660
1560.000000	1.814386
1561.000000	1.820081
1562.000000	1.822533
1563.000000	1.812317
1564.000000	1.818631
1565.000000	1.812315
1566.000000	1.813033
1567.000000	1.821392
1568.000000	1.821641
1569.000000	1.816678
1570.000000	1.810671
1571.000000	1.810456
1572.000000	1.818185
1573.000000	1.810422
1574.000000	1.809120
1575.000000	1.808501
1576.000000	1.822113
1577.000000	1.824618
1578.000000	1.818198
1579.000000	1.833268
1580.000000	1.828954
1581.000000	1.831303
1582.000000	1.835779
1583.000000	1.836110
1584.000000	1.852291
1585.000000	1.857567
1586.000000	1.846830
1587.000000	1.860698
1588.000000	1.866041
1589.000000	1.861619
1590.000000	1.865492
1591.000000	1.878063
1592.000000	1.882879
1593.000000	1.882650
1594.000000	1.896237
1595.000000	1.907533
1596.000000	1.918862
1597.000000	1.931921
1598.000000	1.931035
1599.000000	1.936445
1600.000000	1.944475
1601.000000	1.945750
1602.000000	1.958282
1603.000000	1.971808
1604.000000	1.974818
1605.000000	1.988257
1606.000000	1.993053
1607.000000	2.000810
1608.000000	2.007536
1609.000000	2.008144
1610.000000	2.015090
1611.000000	2.042949
1612.000000	2.047339
1613.000000	2.046881
1614.000000	2.071361
1615.000000	2.083979
1616.000000	2.074237
1617.000000	2.055922
1618.000000	2.077029
1619.000000	2.091267
1620.000000	2.098701
1621.000000	2.103876
1622.000000	2.129799
1623.000000	2.119928
1624.000000	2.123959
1625.000000	2.140372
1626.000000	2.141076
1627.000000	2.164562
1628.000000	2.169343
1629.000000	2.189079
1630.000000	2.177218
1631.000000	2.185808
1632.000000	2.199134
1633.000000	2.217176
1634.000000	2.217941
1635.000000	2.235978
1636.000000	2.243043
1637.000000	2.239992
1638.000000	2.250138
1639.000000	2.256112
1640.000000	2.269910
1641.000000	2.273642
1642.000000	2.270592
1643.000000	2.269673
1644.000000	2.277084
1645.000000	2.306288
1646.000000	2.299292
1647.000000	2.288894
1648.000000	2.298741
1649.000000	2.317108
1650.000000	2.305727
1651.000000	2.309369
1652.000000	2.318630
1653.000000	2.307649
1654.000000	2.303804
1655.000000	2.311138
1656.000000	2.299642
1657.000000	2.303940
1658.000000	2.307583
1659.000000	2.312486
1660.000000	2.290104
1661.000000	2.274834
1662.000000	2.263712
1663.000000	2.267591
1664.000000	2.267481
1665.000000	2.250973
1666.000000	2.226011
1667.000000	2.209342
1668.000000	2.205874
1669.000000	2.176664
1670.000000	2.162095
1671.000000	2.143567
1672.000000	2.110959
1673.000000	2.065393
1674.000000	2.048158
1675.000000	2.038423
1676.000000	1.979481
1677.000000	1.939330
1678.000000	1.879811
1679.000000	1.832806
1680.000000	1.787793
1681.000000	1.745538
1682.000000	1.694007
1683.000000	1.669899
1684.000000	1.658048
1685.000000	1.636373
1686.000000	1.624004
1687.000000	1.634276
1688.000000	1.629204
1689.000000	1.623001
1690.000000	1.602734
1691.000000	1.597948
1692.000000	1.576375
1693.000000	1.557823
1694.000000	1.571078
1695.000000	1.565638
1696.000000	1.579598
1697.000000	1.587117
1698.000000	1.604217
1699.000000	1.614180
1700.000000	1.624397
1701.000000	1.659998
1702.000000	1.663124
1703.000000	1.666362
1704.000000	1.684621
1705.000000	1.690698
1706.000000	1.682227
1707.000000	1.691173
1708.000000	1.688483
1709.000000	1.692838
1710.000000	1.686694
1711.000000	1.681173
1712.000000	1.691749
1713.000000	1.690763
1714.000000	1.681936
1715.000000	1.668506
1716.000000	1.659531
1717.000000	1.648555
1718.000000	1.642109
1719.000000	1.629603
1720.000000	1.620358
1721.000000	1.627908
1722.000000	1.620132
1723.000000	1.611622
1724.000000	1.605160
1725.000000	1.618299
1726.000000	1.602862
1727.000000	1.599352
1728.000000	1.584914
1729.000000	1.560800
1730.000000	1.574770
1731.000000	1.564261
1732.000000	1.558245
1733.000000	1.556579
1734.000000	1.553739
1735.000000	1.566984
1736.000000	1.570271
1737.000000	1.563300
1738.000000	1.589117
1739.000000	1.607931
1740.000000	1.636129
1741.000000	1.646433
1742.000000	1.667489
1743.000000	1.681331
1744.000000	1.693647
1745.000000	1.710956
1746.000000	1.718397
1747.000000	1.729933
1748.000000	1.741871
1749.000000	1.748166
1750.000000	1.756528
1751.000000	1.753116
1752.000000	1.757566
1753.000000	1.765822
1754.000000	1.768831
1755.000000	1.761967
1756.000000	1.762547
1757.000000	1.761059
1758.000000	1.759335
1759.000000	1.751876
1760.000000	1.745895
1761.000000	1.751613
1762.000000	1.756155
1763.000000	1.745403
1764.000000	1.740564
1765.000000	1.745932
1766.000000	1.751717
1767.000000	1.761206
1768.000000	1.780301
1769.000000	1.787599
1770.000000	1.791969
1771.000000	1.796903
1772.000000	1.808845
1773.000000	1.820957
1774.000000	1.835217
1775.000000	1.844637
1776.000000	1.852455
1777.000000	1.858666
1778.000000	1.870127
1779.000000	1.870229
1780.000000	1.876977
1781.000000	1.891930
1782.000000	1.899787
1783.000000	1.906435
1784.000000	1.916543
1785.000000	1.932369
1786.000000	1.937935
1787.000000	1.933294
1788.000000	1.946217
1789.000000	1.954649
1790.000000	1.945555
1791.000000	1.954933
1792.000000	1.966408
1793.000000	1.977697
1794.000000	1.982754
1795.000000	1.980252
1796.000000	1.987638
1797.000000	1.992457
1798.000000	1.996514
1799.000000	2.004908
1800.000000	2.012187
1801.000000	2.006841
1802.000000	2.003457
1803.000000	2.012399
1804.000000	2.029903
1805.000000	2.045847
1806.000000	2.053201
1807.000000	2.049450
1808.000000	2.047069
1809.000000	2.052546
1810.000000	2.063471
1811.000000	2.073144
1812.000000	2.069705
1813.000000	2.068406
1814.000000	2.076559
1815.000000	2.078935
1816.000000	2.077491
1817.000000	2.083251
1818.000000	2.093312
1819.000000	2.086252
1820.000000	2.071460
1821.000000	2.073358
1822.000000	2.072571
1823.000000	2.075287
1824.000000	2.099445
1825.000000	2.106949
1826.000000	2.112637
1827.000000	2.112986
1828.000000	2.110197
1829.000000	2.121866
1830.000000	2.120586
1831.000000	2.123190
1832.000000	2.126096
1833.000000	2.155079
1834.000000	2.172197
1835.000000	2.170361
1836.000000	2.163225
1837.000000	2.161861
1838.000000	2.155305
1839.000000	2.177054
1840.000000	2.187313
1841.000000	2.180054
1842.000000	2.171927
1843.000000	2.173141
1844.000000	2.185854
1845.000000	2.198019
1846.000000	2.203558
1847.000000	2.192725
1848.000000	2.184503
1849.000000	2.188440
1850.000000	2.195720
1851.000000	2.204413
1852.000000	2.203672
1853.000000	2.207583
1854.000000	2.199471
1855.000000	2.186537
1856.000000	2.198697
1857.000000	2.186453
1858.000000	2.173882
1859.000000	2.165389
1860.000000	2.148716
1861.000000	2.128058
1862.000000	2.123445
1863.000000	2.114468
1864.000000	2.112301
1865.000000	2.087913
1866.000000	2.075203
1867.000000	2.052491
1868.000000	2.032579
1869.000000	1.975002
1870.000000	1.930564
1871.000000	1.895937
1872.000000	1.868154
1873.000000	1.823294
1874.000000	1.789157
1875.000000	1.742532
1876.000000	1.714757
1877.000000	1.671296
1878.000000	1.631938
1879.000000	1.595890
1880.000000	1.547791
1881.000000	1.512506
1882.000000	1.451144
1883.000000	1.422995
1884.000000	1.364030
1885.000000	1.310216
1886.000000	1.259932
1887.000000	1.217280
1888.000000	1.184266
1889.000000	1.138727
1890.000000	1.109473
1891.000000	1.076386
1892.000000	1.048669
1893.000000	1.019624
1894.000000	0.981851
1895.000000	0.962727
1896.000000	0.926731
1897.000000	0.918161
1898.000000	0.878641
1899.000000	0.826806
1900.000000	0.809330
1901.000000	0.768703
1902.000000	0.760997
1903.000000	0.738317
1904.000000	0.713748
1905.000000	0.724678
1906.000000	0.675339
1907.000000	0.667669
1908.000000	0.645637
1909.000000	0.645095
1910.000000	0.624505
1911.000000	0.615952
1912.000000	0.617371
1913.000000	0.601839
1914.000000	0.595473
1915.000000	0.578572
1916.000000	0.575103
1917.000000	0.548446
1918.000000	0.540477
1919.000000	0.539768
1920.000000	0.530511
1921.000000	0.523657
1922.000000	0.498887
1923.000000	0.518910
1924.000000	0.498282
1925.000000	0.519023
1926.000000	0.496273
1927.000000	0.504118
1928.000000	0.495478
1929.000000	0.492827
1930.000000	0.475420
1931.000000	0.488191
1932.000000	0.478521
1933.000000	0.485745
1934.000000	0.503775
1935.000000	0.494884
1936.000000	0.483893
1937.000000	0.469771
1938.000000	0.504485
1939.000000	0.479955
1940.000000	0.476323
1941.000000	0.476011
1942.000000	0.483887
1943.000000	0.487483
1944.000000	0.485500
1945.000000	0.476258
1946.000000	0.498424
1947.000000	0.491605
1948.000000	0.493521
1949.000000	0.499057
1950.000000	0.500235
1951.000000	0.498975
1952.000000	0.511363
1953.000000	0.519302
1954.000000	0.525082
1955.000000	0.518506
1956.000000	0.507530
1957.000000	0.524498
1958.000000	0.535061
1959.000000	0.536127
1960.000000	0.548507
1961.000000	0.545764
1962.000000	0.530427
1963.000000	0.539603
1964.000000	0.550577
1965.000000	0.549772
1966.000000	0.567097
1967.000000	0.561407
1968.000000	0.578052
1969.000000	0.573228
1970.000000	0.562704
1971.000000	0.572615
1972.000000	0.561763
1973.000000	0.581028
1974.000000	0.600864
1975.000000	0.588126
1976.000000	0.588208
1977.000000	0.603915
1978.000000	0.593062
1979.000000	0.604461
1980.000000	0.608860
1981.000000	0.611694
1982.000000	0.607458
1983.000000	0.622394
1984.000000	0.638042
1985.000000	0.634218
1986.000000	0.626149
1987.000000	0.631637
1988.000000	0.639790
1989.000000	0.660073
1990.000000	0.659524
1991.000000	0.661114
1992.000000	0.656356
1993.000000	0.670637
1994.000000	0.673252
1995.000000	0.680031
1996.000000	0.667644
1997.000000	0.683146
1998.000000	0.674544
1999.000000	0.691286
2000.000000	0.688812
2001.000000	0.689828
2002.000000	0.703033
2003.000000	0.699940
2004.000000	0.690578
2005.000000	0.695791
2006.000000	0.706993
2007.000000	0.700446
2008.000000	0.705760
2009.000000	0.706879
2010.000000	0.705253
2011.000000	0.706180
2012.000000	0.711487
2013.000000	0.712505
2014.000000	0.699610
2015.000000	0.700870
2016.000000	0.701512
2017.000000	0.686002
2018.000000	0.704645
2019.000000	0.698727
2020.000000	0.690564
2021.000000	0.678503
2022.000000	0.679328
2023.000000	0.680901
2024.000000	0.676608
2025.000000	0.675687
2026.000000	0.671939
2027.000000	0.663362
2028.000000	0.664755
2029.000000	0.664885
2030.000000	0.655930
2031.000000	0.648129
2032.000000	0.649933
2033.000000	0.657229
2034.000000	0.652921
2035.000000	0.639987
2036.000000	0.636290
2037.000000	0.632232
2038.000000	0.621706
2039.000000	0.622935
2040.000000	0.614485
2041.000000	0.608890
2042.000000	0.604111
2043.000000	0.600258
2044.000000	0.590014
2045.000000	0.575865
2046.000000	0.573611
2047.000000	0.561720
2048.000000	0.568639
2049.000000	0.557983
2050.000000	0.544143
2051.000000	0.536870
2052.000000	0.533743
2053.000000	0.532848
2054.000000	0.531450
2055.000000	0.528570
2056.000000	0.510722
2057.000000	0.510654
2058.000000	0.506291
2059.000000	0.496317
2060.000000	0.491319
2061.000000	0.499850
2062.000000	0.509455
2063.000000	0.501352
2064.000000	0.500752
2065.000000	0.495979
2066.000000	0.486786
2067.000000	0.492189
2068.000000	0.505924
2069.000000	0.504165
2070.000000	0.501915
2071.000000	0.504582
2072.000000	0.496665
2073.000000	0.498211
2074.000000	0.503982
2075.000000	0.510276
2076.000000	0.521244
2077.000000	0.514600
2078.000000	0.501579
2079.000000	0.509179
2080.000000	0.518628
2081.000000	0.521674
2082.000000	0.508263
2083.000000	0.507139
2084.000000	0.512867
2085.000000	0.510376
2086.000000	0.517101
2087.000000	0.525247
2088.000000	0.522926
2089.000000	0.520748
2090.000000	0.515909
2091.000000	0.511159
2092.000000	0.506651
2093.000000	0.504816
2094.000000	0.509114
2095.000000	0.513041
2096.000000	0.511859
2097.000000	0.511109
2098.000000	0.513008
2099.000000	0.513124
2100.000000	0.497409
2101.000000	0.502714
2102.000000	0.518052
2103.000000	0.512431
2104.000000	0.501404
2105.000000	0.507068
2106.000000	0.505382
2107.000000	0.497545
2108.000000	0.492435
2109.000000	0.499946
2110.000000	0.498849
2111.000000	0.494990
2112.000000	0.498172
2113.000000	0.489464
2114.000000	0.480835
2115.000000	0.484967
2116.000000	0.482741
2117.000000	0.483375
2118.000000	0.481673
2119.000000	0.477659
2120.000000	0.472706
2121.000000	0.476227
2122.000000	0.476161
2123.000000	0.479912
2124.000000	0.462727
2125.000000	0.456805
2126.000000	0.457480
2127.000000	0.460283
2128.000000	0.450873
2129.000000	0.462764
2130.000000	0.454683
2131.000000	0.456454
2132.000000	0.453757
2133.000000	0.451695
2134.000000	0.446779
2135.000000	0.445560
2136.000000	0.439257
2137.000000	0.434229
2138.000000	0.431201
2139.000000	0.427935
2140.000000	0.425108
2141.000000	0.427537
2142.000000	0.419765
2143.000000	0.426689
2144.000000	0.420861
2145.000000	0.426869
2146.000000	0.422493
2147.000000	0.407001
2148.000000	0.406795
2149.000000	0.413375
2150.000000	0.422104
2151.000000	0.418758
2152.000000	0.407415
2153.000000	0.418565
2154.000000	0.421092
2155.000000	0.410220
2156.000000	0.405110
2157.000000	0.414278
2158.000000	0.409672
2159.000000	0.407405
2160.000000	0.412946
2161.000000	0.416189
2162.000000	0.419281
2163.000000	0.419810
2164.000000	0.423802
2165.000000	0.414724
2166.000000	0.414927
2167.000000	0.421753
2168.000000	0.425572
2169.000000	0.421061
2170.000000	0.430053
2171.000000	0.415641
2172.000000	0.420606
2173.000000	0.435925
2174.000000	0.446191
2175.000000	0.442439
2176.000000	0.441763
2177.000000	0.440164
2178.000000	0.432606
2179.000000	0.432748
2180.000000	0.429830
2181.000000	0.445203
2182.000000	0.431616
2183.000000	0.437731
2184.000000	0.459509
2185.000000	0.466155
2186.000000	0.440169
2187.000000	0.430107
2188.000000	0.449427
2189.000000	0.449495
2190.000000	0.456666
2191.000000	0.469827
2192.000000	0.456115
2193.000000	0.448095
2194.000000	0.447635
2195.000000	0.465339
2196.000000	0.459685
2197.000000	0.453460
2198.000000	0.456281
2199.000000	0.457696
2200.000000	0.453661
2201.000000	0.453554
2202.000000	0.461388
2203.000000	0.458331
2204.000000	0.448120
2205.000000	0.446435
2206.000000	0.458361
2207.000000	0.445950
2208.000000	0.433462
2209.000000	0.458895
2210.000000	0.457437
2211.000000	0.471718
2212.000000	0.451228
2213.000000	0.456549
2214.000000	0.455539
2215.000000	0.472884
2216.000000	0.465428
2217.000000	0.479056
2218.000000	0.463710
2219.000000	0.459984
2220.000000	0.464291
2221.000000	0.464519
2222.000000	0.475976
2223.000000	0.474153
2224.000000	0.469450
2225.000000	0.473298
2226.000000	0.458149
2227.000000	0.478238
2228.000000	0.468102
2229.000000	0.461216
2230.000000	0.456684
2231.000000	0.458500
2232.000000	0.458592
2233.000000	0.468256
2234.000000	0.454891
2235.000000	0.453060
2236.000000	0.464348
2237.000000	0.435997
2238.000000	0.434806
2239.000000	0.432568
2240.000000	0.427394
2241.000000	0.418839
2242.000000	0.421580
2243.000000	0.427927
2244.000000	0.403822
2245.000000	0.414629
2246.000000	0.391481
2247.000000	0.381080
2248.000000	0.369413
2249.000000	0.367488
2250.000000	0.371132
2251.000000	0.343428
2252.000000	0.347077
2253.000000	0.335007
2254.000000	0.328300
2255.000000	0.331569
2256.000000	0.312426
2257.000000	0.290400
2258.000000	0.324489
2259.000000	0.300558
2260.000000	0.278324
2261.000000	0.278384
2262.000000	0.267582
2263.000000	0.276556
2264.000000	0.275565
2265.000000	0.268602
2266.000000	0.262851
2267.000000	0.255207
2268.000000	0.254039
2269.000000	0.255506
2270.000000	0.249450
2271.000000	0.249568
2272.000000	0.251068
2273.000000	0.238800
2274.000000	0.254363
2275.000000	0.261324
2276.000000	0.253846
2277.000000	0.254182
2278.000000	0.273909
2279.000000	0.271202
2280.000000	0.256247
2281.000000	0.278703
2282.000000	0.278262
2283.000000	0.263764
2284.000000	0.277775
2285.000000	0.270037
2286.000000	0.275740
2287.000000	0.271423
2288.000000	0.275019
2289.000000	0.285224
2290.000000	0.284750
2291.000000	0.288754
2292.000000	0.272373
2293.000000	0.281887
2294.000000	0.289469
2295.000000	0.288135
2296.000000	0.273498
2297.000000	0.270700
2298.000000	0.277402
2299.000000	0.291695
2300.000000	0.266268
2301.000000	0.269172
2302.000000	0.265721
2303.000000	0.273897
2304.000000	0.264311
2305.000000	0.251281
2306.000000	0.247006
2307.000000	0.246916
2308.000000	0.260505
2309.000000	0.249863
2310.000000	0.248426
2311.000000	0.243870
2312.000000	0.231245
2313.000000	0.235999
2314.000000	0.228627
2315.000000	0.225926
2316.000000	0.233374
2317.000000	0.227576
2318.000000	0.230638
2319.000000	0.233689
2320.000000	0.230768
2321.000000	0.219824
2322.000000	0.225885
2323.000000	0.218060
2324.000000	0.217974
2325.000000	0.216642
2326.000000	0.215289
2327.000000	0.213066
2328.000000	0.216919
2329.000000	0.223212
2330.000000	0.224134
2331.000000	0.215348
2332.000000	0.214886
2333.000000	0.215552
2334.000000	0.218984
2335.000000	0.219205
2336.000000	0.221942
2337.000000	0.227381
2338.000000	0.226562
2339.000000	0.223146
2340.000000	0.221122
2341.000000	0.215409
2342.000000	0.214194
2343.000000	0.211098
2344.000000	0.217328
2345.000000	0.216858
2346.000000	0.212291
2347.000000	0.215027
2348.000000	0.212029
2349.000000	0.213484
2350.000000	0.205962
2351.000000	0.201552
2352.000000	0.200175
2353.000000	0.185077
2354.000000	0.182498
2355.000000	0.194009
2356.000000	0.191538
2357.000000	0.176713
2358.000000	0.180765
2359.000000	0.190179
2360.000000	0.189944
2361.000000	0.185117
2362.000000	0.178649
2363.000000	0.180884
2364.000000	0.174932
2365.000000	0.179335
2366.000000	0.187413
2367.000000	0.186899
2368.000000	0.185835
2369.000000	0.178250
2370.000000	0.184317
2371.000000	0.182977
2372.000000	0.185570
2373.000000	0.183450
2374.000000	0.175761
2375.000000	0.173488
2376.000000	0.177030
2377.000000	0.185814
2378.000000	0.184256
2379.000000	0.184537
2380.000000	0.181504
2381.000000	0.175258
2382.000000	0.168842
2383.000000	0.162835
2384.000000	0.167229
2385.000000	0.172157
2386.000000	0.164876
2387.000000	0.157846
2388.000000	0.165300
2389.000000	0.154133
2390.000000	0.153162
2391.000000	0.163089
2392.000000	0.170229
2393.000000	0.163881
2394.000000	0.152850
2395.000000	0.163653
2396.000000	0.168186
2397.000000	0.154417
2398.000000	0.157075
2399.000000	0.135799
2400.000000	0.146246
2401.000000	0.152130
2402.000000	0.148958
2403.000000	0.148694
2404.000000	0.148566
2405.000000	0.153441
2406.000000	0.163458
2407.000000	0.158710
2408.000000	0.151405
2409.000000	0.150644
2410.000000	0.166426
2411.000000	0.154494
2412.000000	0.138633
2413.000000	0.140033
2414.000000	0.139965
2415.000000	0.140749
2416.000000	0.142758
2417.000000	0.145887
2418.000000	0.140312
2419.000000	0.137694
2420.000000	0.144044
2421.000000	0.143020
2422.000000	0.146795
2423.000000	0.141012
2424.000000	0.137944
2425.000000	0.140812
2426.000000	0.156781
2427.000000	0.146526
2428.000000	0.143946
2429.000000	0.138664
2430.000000	0.133694
2431.000000	0.137350
2432.000000	0.150595
2433.000000	0.140619
2434.000000	0.128388
2435.000000	0.136114
2436.000000	0.140256
2437.000000	0.120440
2438.000000	0.122722
2439.000000	0.137603
2440.000000	0.135116
2441.000000	0.135563
2442.000000	0.138827
2443.000000	0.139087
2444.000000	0.126799
2445.000000	0.118323
2446.000000	0.129327
2447.000000	0.145783
2448.000000	0.119262
2449.000000	0.120491
2450.000000	0.124710
2451.000000	0.127748
2452.000000	0.122740
2453.000000	0.137622
2454.000000	0.131074
2455.000000	0.132784
2456.000000	0.144143
2457.000000	0.126899
2458.000000	0.123692
2459.000000	0.122949
2460.000000	0.129522
2461.000000	0.128501
2462.000000	0.136832
2463.000000	0.135120
2464.000000	0.110989
2465.000000	0.143895
2466.000000	0.113279
2467.000000	0.085681
2468.000000	0.118633
2469.000000	0.152302
2470.000000	0.108082
2471.000000	0.099592
2472.000000	0.115840
2473.000000	0.128793
2474.000000	0.134459
2475.000000	0.144030
2476.000000	0.147521
2477.000000	0.161022
2478.000000	0.132671
2479.000000	0.100826
2480.000000	0.129892
2481.000000	0.159388
2482.000000	0.106203
2483.000000	0.119124
2484.000000	0.131720
2485.000000	0.071797
2486.000000	0.096289
2487.000000	0.144755
2488.000000	0.132858
2489.000000	0.115527
2490.000000	0.168442
2491.000000	0.129990
2492.000000	0.167108
2493.000000	0.179883
2494.000000	0.116047
2495.000000	0.142591
2496.000000	0.129631
2497.000000	0.199636
2498.000000	0.084048
2499.000000	0.090271
2500.000000	0.134429
