PE UV       SUBTECH     SPECTRUM    ASCII       PEDS        4.00        
   -1
CICIMAUCR0225-3.ASC
24/05/30
11:57:32.00
24/05/30
11:57:32.00
Vinicio Soto Monge
C. resplendens, F Ventral
250,000000
1
Lambda 1050
1050L1511233
PerkinElmer UV WinLab 6.3.2.0749 / 2.02.05 Lambda 900 UV/VIS/NIR, Aug  7 2015 09:38:08

0
0
3350/servo 860,8/2
0
0
UV/VIS
1
1
1
DoubleDePol,CommonBeamDepol,RBeamAtt,SBeamAtt,60mm sphere, WB InGaAs Detector
0
0
0
0
Program
Program
3350/servo 860,8/2
3350/0,2 860,8/0,2
3350/0,2 860,8/0,2
0
15.00
 
 
 
0
 
860,8
319,2
860,8
Front
100
on
S:100 R:100
0
0
0
0
 
0
 
 
 
0
 
 
0
0
0
0
0
 
 
 
 
0
0


0
0
#HDR
-1
-1
#GR
nm
%R
1.0
0.0
2500,000000
-1,000000
2251
8
54,354700
4,244400
#DATA
250.000000	0.374254
251.000000	0.398114
252.000000	0.399994
253.000000	0.407300
254.000000	0.388748
255.000000	0.404758
256.000000	0.397328
257.000000	0.399690
258.000000	0.387033
259.000000	0.397822
260.000000	0.381295
261.000000	0.369584
262.000000	0.372763
263.000000	0.376642
264.000000	0.386902
265.000000	0.377985
266.000000	0.387673
267.000000	0.384458
268.000000	0.364543
269.000000	0.390842
270.000000	0.393140
271.000000	0.356454
272.000000	0.346287
273.000000	0.372314
274.000000	0.370772
275.000000	0.356959
276.000000	0.364258
277.000000	0.367678
278.000000	0.389324
279.000000	0.365933
280.000000	0.379742
281.000000	0.381990
282.000000	0.379993
283.000000	0.378002
284.000000	0.342764
285.000000	0.342878
286.000000	0.345785
287.000000	0.369501
288.000000	0.387589
289.000000	0.351448
290.000000	0.334913
291.000000	0.362496
292.000000	0.337016
293.000000	0.328212
294.000000	0.355884
295.000000	0.367016
296.000000	0.358775
297.000000	0.358914
298.000000	0.337313
299.000000	0.359107
300.000000	0.365661
301.000000	0.335343
302.000000	0.343650
303.000000	0.314239
304.000000	0.324438
305.000000	0.351797
306.000000	0.346105
307.000000	0.353086
308.000000	0.337740
309.000000	0.330387
310.000000	0.334535
311.000000	0.336146
312.000000	0.334658
313.000000	0.330890
314.000000	0.349534
315.000000	0.334403
316.000000	0.412927
317.000000	0.596293
318.000000	0.629687
319.000000	0.618598
320.000000	0.558574
321.000000	0.594555
322.000000	0.357378
323.000000	0.512763
324.000000	0.650505
325.000000	0.591256
326.000000	0.517730
327.000000	0.371687
328.000000	0.353770
329.000000	0.130416
330.000000	0.186087
331.000000	0.313393
332.000000	0.311398
333.000000	0.297035
334.000000	0.140128
335.000000	0.232141
336.000000	0.457319
337.000000	0.364566
338.000000	0.375385
339.000000	0.404756
340.000000	0.303653
341.000000	0.364753
342.000000	0.403909
343.000000	0.403739
344.000000	0.410032
345.000000	0.422216
346.000000	0.383586
347.000000	0.404722
348.000000	0.387057
349.000000	0.355448
350.000000	0.359618
351.000000	0.288625
352.000000	0.181901
353.000000	0.285962
354.000000	0.390021
355.000000	0.351648
356.000000	0.406984
357.000000	0.308660
358.000000	0.265443
359.000000	0.347554
360.000000	0.388811
361.000000	0.475771
362.000000	0.372941
363.000000	0.271617
364.000000	0.317424
365.000000	0.380554
366.000000	0.352767
367.000000	0.397856
368.000000	0.473485
369.000000	0.530758
370.000000	0.549354
371.000000	0.569512
372.000000	0.501219
373.000000	0.487872
374.000000	0.649814
375.000000	0.575308
376.000000	0.451263
377.000000	0.415477
378.000000	0.423326
379.000000	0.424086
380.000000	0.423313
381.000000	0.438919
382.000000	0.437991
383.000000	0.441089
384.000000	0.453980
385.000000	0.461014
386.000000	0.473268
387.000000	0.488324
388.000000	0.484966
389.000000	0.486674
390.000000	0.497607
391.000000	0.501794
392.000000	0.510060
393.000000	0.509370
394.000000	0.518757
395.000000	0.520742
396.000000	0.524029
397.000000	0.525802
398.000000	0.531626
399.000000	0.518423
400.000000	0.531861
401.000000	0.533813
402.000000	0.528847
403.000000	0.537752
404.000000	0.559510
405.000000	0.551959
406.000000	0.555768
407.000000	0.552287
408.000000	0.560665
409.000000	0.552563
410.000000	0.562179
411.000000	0.568647
412.000000	0.569763
413.000000	0.574492
414.000000	0.566734
415.000000	0.572129
416.000000	0.576547
417.000000	0.581594
418.000000	0.584173
419.000000	0.582414
420.000000	0.569035
421.000000	0.580720
422.000000	0.580715
423.000000	0.584439
424.000000	0.582882
425.000000	0.595305
426.000000	0.577241
427.000000	0.584803
428.000000	0.585920
429.000000	0.578794
430.000000	0.587117
431.000000	0.598032
432.000000	0.589527
433.000000	0.589527
434.000000	0.585470
435.000000	0.592879
436.000000	0.585168
437.000000	0.596560
438.000000	0.591936
439.000000	0.587928
440.000000	0.601250
441.000000	0.605680
442.000000	0.592766
443.000000	0.595007
444.000000	0.603494
445.000000	0.602379
446.000000	0.585588
447.000000	0.593805
448.000000	0.591404
449.000000	0.597024
450.000000	0.599015
451.000000	0.598364
452.000000	0.592287
453.000000	0.609901
454.000000	0.602717
455.000000	0.605098
456.000000	0.608286
457.000000	0.609026
458.000000	0.609207
459.000000	0.614143
460.000000	0.627293
461.000000	0.627960
462.000000	0.628873
463.000000	0.618219
464.000000	0.627587
465.000000	0.637007
466.000000	0.638918
467.000000	0.628262
468.000000	0.644190
469.000000	0.637543
470.000000	0.645051
471.000000	0.646374
472.000000	0.648266
473.000000	0.658892
474.000000	0.654369
475.000000	0.661781
476.000000	0.652040
477.000000	0.658461
478.000000	0.665366
479.000000	0.663366
480.000000	0.666348
481.000000	0.672157
482.000000	0.675882
483.000000	0.681423
484.000000	0.688445
485.000000	0.690627
486.000000	0.687872
487.000000	0.711168
488.000000	0.718268
489.000000	0.725237
490.000000	0.730663
491.000000	0.733217
492.000000	0.749202
493.000000	0.763015
494.000000	0.769708
495.000000	0.781273
496.000000	0.785397
497.000000	0.786542
498.000000	0.797742
499.000000	0.821656
500.000000	0.829529
501.000000	0.839739
502.000000	0.845870
503.000000	0.855035
504.000000	0.871603
505.000000	0.872511
506.000000	0.881572
507.000000	0.889825
508.000000	0.906374
509.000000	0.920844
510.000000	0.924400
511.000000	0.938932
512.000000	0.940549
513.000000	0.952998
514.000000	0.970097
515.000000	0.980339
516.000000	0.981453
517.000000	0.991636
518.000000	0.990825
519.000000	0.989525
520.000000	0.998277
521.000000	0.999957
522.000000	1.010220
523.000000	0.998656
524.000000	1.006685
525.000000	1.010022
526.000000	1.006497
527.000000	1.001598
528.000000	1.018031
529.000000	1.025580
530.000000	1.024569
531.000000	1.027989
532.000000	1.028509
533.000000	1.034814
534.000000	1.039919
535.000000	1.035510
536.000000	1.039653
537.000000	1.055939
538.000000	1.041351
539.000000	1.061168
540.000000	1.068279
541.000000	1.064597
542.000000	1.073285
543.000000	1.081249
544.000000	1.092749
545.000000	1.099990
546.000000	1.099994
547.000000	1.107830
548.000000	1.121044
549.000000	1.124961
550.000000	1.124548
551.000000	1.146543
552.000000	1.161199
553.000000	1.157045
554.000000	1.168042
555.000000	1.173207
556.000000	1.181692
557.000000	1.179795
558.000000	1.187183
559.000000	1.198505
560.000000	1.192279
561.000000	1.214512
562.000000	1.217653
563.000000	1.212621
564.000000	1.226651
565.000000	1.237033
566.000000	1.243452
567.000000	1.253531
568.000000	1.259478
569.000000	1.264671
570.000000	1.277468
571.000000	1.274498
572.000000	1.276331
573.000000	1.284644
574.000000	1.293437
575.000000	1.296510
576.000000	1.307416
577.000000	1.315028
578.000000	1.315341
579.000000	1.315677
580.000000	1.323517
581.000000	1.329886
582.000000	1.346202
583.000000	1.348223
584.000000	1.357498
585.000000	1.361251
586.000000	1.381529
587.000000	1.378984
588.000000	1.377169
589.000000	1.401527
590.000000	1.400921
591.000000	1.402295
592.000000	1.391625
593.000000	1.395031
594.000000	1.397494
595.000000	1.406702
596.000000	1.390474
597.000000	1.383762
598.000000	1.389549
599.000000	1.401820
600.000000	1.413018
601.000000	1.400431
602.000000	1.402091
603.000000	1.413436
604.000000	1.403265
605.000000	1.398090
606.000000	1.400379
607.000000	1.393127
608.000000	1.393704
609.000000	1.394262
610.000000	1.397382
611.000000	1.400626
612.000000	1.405857
613.000000	1.403535
614.000000	1.402431
615.000000	1.401695
616.000000	1.417151
617.000000	1.425258
618.000000	1.421067
619.000000	1.430171
620.000000	1.439116
621.000000	1.441255
622.000000	1.440666
623.000000	1.444248
624.000000	1.447932
625.000000	1.460123
626.000000	1.469102
627.000000	1.467467
628.000000	1.477342
629.000000	1.481745
630.000000	1.478621
631.000000	1.493674
632.000000	1.499331
633.000000	1.492412
634.000000	1.494641
635.000000	1.488777
636.000000	1.500839
637.000000	1.518418
638.000000	1.522966
639.000000	1.527294
640.000000	1.532775
641.000000	1.541501
642.000000	1.543569
643.000000	1.543779
644.000000	1.553126
645.000000	1.569679
646.000000	1.576272
647.000000	1.568102
648.000000	1.580335
649.000000	1.592233
650.000000	1.591174
651.000000	1.602411
652.000000	1.617475
653.000000	1.628719
654.000000	1.647963
655.000000	1.656105
656.000000	1.644074
657.000000	1.664574
658.000000	1.683090
659.000000	1.692591
660.000000	1.711127
661.000000	1.717054
662.000000	1.721909
663.000000	1.732162
664.000000	1.746103
665.000000	1.750787
666.000000	1.765305
667.000000	1.784848
668.000000	1.790027
669.000000	1.807569
670.000000	1.811610
671.000000	1.819577
672.000000	1.833196
673.000000	1.845081
674.000000	1.863570
675.000000	1.863734
676.000000	1.876976
677.000000	1.899920
678.000000	1.932853
679.000000	1.941717
680.000000	1.945819
681.000000	1.971725
682.000000	1.986589
683.000000	2.005908
684.000000	2.021540
685.000000	2.024256
686.000000	2.041561
687.000000	2.079434
688.000000	2.102041
689.000000	2.096966
690.000000	2.092468
691.000000	2.119469
692.000000	2.131979
693.000000	2.124775
694.000000	2.149831
695.000000	2.170718
696.000000	2.197421
697.000000	2.227279
698.000000	2.215274
699.000000	2.235450
700.000000	2.259095
701.000000	2.265920
702.000000	2.263349
703.000000	2.252687
704.000000	2.297444
705.000000	2.309292
706.000000	2.313659
707.000000	2.352594
708.000000	2.370956
709.000000	2.373393
710.000000	2.396753
711.000000	2.438021
712.000000	2.461502
713.000000	2.453338
714.000000	2.465250
715.000000	2.507187
716.000000	2.509265
717.000000	2.500020
718.000000	2.514352
719.000000	2.534076
720.000000	2.547791
721.000000	2.590168
722.000000	2.571972
723.000000	2.603585
724.000000	2.631780
725.000000	2.629748
726.000000	2.641389
727.000000	2.709701
728.000000	2.666908
729.000000	2.697155
730.000000	2.768682
731.000000	2.755312
732.000000	2.750765
733.000000	2.772990
734.000000	2.830937
735.000000	2.846810
736.000000	2.815591
737.000000	2.830007
738.000000	2.888295
739.000000	2.932991
740.000000	2.897479
741.000000	2.973382
742.000000	2.959806
743.000000	2.960843
744.000000	3.036548
745.000000	3.023284
746.000000	3.073037
747.000000	3.116101
748.000000	3.075322
749.000000	3.182176
750.000000	3.181795
751.000000	3.219093
752.000000	3.183718
753.000000	3.189171
754.000000	3.290653
755.000000	3.277605
756.000000	3.259281
757.000000	3.311757
758.000000	3.301976
759.000000	3.256905
760.000000	3.312154
761.000000	3.318223
762.000000	3.356791
763.000000	3.393706
764.000000	3.347525
765.000000	3.404306
766.000000	3.429790
767.000000	3.414241
768.000000	3.456362
769.000000	3.465553
770.000000	3.486183
771.000000	3.488669
772.000000	3.560229
773.000000	3.504653
774.000000	3.554454
775.000000	3.524821
776.000000	3.542020
777.000000	3.550786
778.000000	3.563167
779.000000	3.621314
780.000000	3.531979
781.000000	3.569611
782.000000	3.660312
783.000000	3.589742
784.000000	3.589217
785.000000	3.721505
786.000000	3.636407
787.000000	3.701982
788.000000	3.700351
789.000000	3.651471
790.000000	3.624381
791.000000	3.632872
792.000000	3.713611
793.000000	3.664455
794.000000	3.667667
795.000000	3.676965
796.000000	3.704187
797.000000	3.686789
798.000000	3.655688
799.000000	3.659714
800.000000	3.681081
801.000000	3.735847
802.000000	3.670296
803.000000	3.700252
804.000000	3.672139
805.000000	3.653698
806.000000	3.703060
807.000000	3.634987
808.000000	3.553060
809.000000	3.767850
810.000000	3.674964
811.000000	3.712083
812.000000	3.703470
813.000000	3.722247
814.000000	3.621462
815.000000	3.659479
816.000000	3.632155
817.000000	3.654452
818.000000	3.664531
819.000000	3.574764
820.000000	3.618357
821.000000	3.632524
822.000000	3.586767
823.000000	3.653563
824.000000	3.651390
825.000000	3.648350
826.000000	3.579405
827.000000	3.586607
828.000000	3.515853
829.000000	3.493066
830.000000	3.553523
831.000000	3.504167
832.000000	3.585200
833.000000	3.478681
834.000000	3.315188
835.000000	3.355089
836.000000	3.559370
837.000000	3.422655
838.000000	3.557930
839.000000	3.431352
840.000000	3.371324
841.000000	3.336794
842.000000	3.314044
843.000000	3.324255
844.000000	3.273602
845.000000	2.938736
846.000000	3.415034
847.000000	3.264246
848.000000	3.366355
849.000000	3.307516
850.000000	3.405224
851.000000	3.062113
852.000000	3.074361
853.000000	3.082073
854.000000	3.267756
855.000000	2.976983
856.000000	2.939578
857.000000	2.656723
858.000000	2.844949
859.000000	2.844036
860.000000	2.847003
861.000000	2.846437
862.000000	2.825056
863.000000	2.814463
864.000000	2.803254
865.000000	2.789799
866.000000	2.789521
867.000000	2.783974
868.000000	2.798391
869.000000	2.786713
870.000000	2.771327
871.000000	2.732703
872.000000	2.696717
873.000000	2.693836
874.000000	2.682709
875.000000	2.684425
876.000000	2.701840
877.000000	2.726009
878.000000	2.731049
879.000000	2.750903
880.000000	2.763983
881.000000	2.751835
882.000000	2.766841
883.000000	2.785092
884.000000	2.794895
885.000000	2.797565
886.000000	2.809835
887.000000	2.828653
888.000000	2.837300
889.000000	2.837513
890.000000	2.841264
891.000000	2.856869
892.000000	2.853476
893.000000	2.850115
894.000000	2.863124
895.000000	2.857780
896.000000	2.855433
897.000000	2.852673
898.000000	2.870850
899.000000	2.873572
900.000000	2.875533
901.000000	2.862207
902.000000	2.856770
903.000000	2.858762
904.000000	2.843737
905.000000	2.836931
906.000000	2.847311
907.000000	2.855089
908.000000	2.857366
909.000000	2.859953
910.000000	2.847790
911.000000	2.832962
912.000000	2.828498
913.000000	2.831902
914.000000	2.850755
915.000000	2.852458
916.000000	2.834042
917.000000	2.824391
918.000000	2.815067
919.000000	2.824413
920.000000	2.843106
921.000000	2.841125
922.000000	2.840453
923.000000	2.832545
924.000000	2.831999
925.000000	2.827069
926.000000	2.837187
927.000000	2.829461
928.000000	2.815731
929.000000	2.815472
930.000000	2.821747
931.000000	2.816137
932.000000	2.804127
933.000000	2.805498
934.000000	2.816443
935.000000	2.822778
936.000000	2.816781
937.000000	2.809217
938.000000	2.804120
939.000000	2.799934
940.000000	2.819816
941.000000	2.810640
942.000000	2.789655
943.000000	2.800297
944.000000	2.797996
945.000000	2.794453
946.000000	2.800252
947.000000	2.814052
948.000000	2.817450
949.000000	2.815029
950.000000	2.819134
951.000000	2.806376
952.000000	2.801086
953.000000	2.815465
954.000000	2.812908
955.000000	2.803833
956.000000	2.808581
957.000000	2.804834
958.000000	2.794487
959.000000	2.801201
960.000000	2.808924
961.000000	2.807502
962.000000	2.801981
963.000000	2.788327
964.000000	2.782024
965.000000	2.787924
966.000000	2.798486
967.000000	2.796503
968.000000	2.784160
969.000000	2.787776
970.000000	2.790160
971.000000	2.792306
972.000000	2.788409
973.000000	2.794796
974.000000	2.792179
975.000000	2.784820
976.000000	2.782622
977.000000	2.791201
978.000000	2.790668
979.000000	2.792455
980.000000	2.795273
981.000000	2.789772
982.000000	2.781040
983.000000	2.788830
984.000000	2.790615
985.000000	2.795707
986.000000	2.796491
987.000000	2.789322
988.000000	2.791312
989.000000	2.794641
990.000000	2.788872
991.000000	2.784466
992.000000	2.789976
993.000000	2.787330
994.000000	2.787613
995.000000	2.782677
996.000000	2.793328
997.000000	2.794631
998.000000	2.797089
999.000000	2.787436
1000.000000	2.792250
1001.000000	2.799178
1002.000000	2.806424
1003.000000	2.809757
1004.000000	2.807815
1005.000000	2.807663
1006.000000	2.801975
1007.000000	2.802124
1008.000000	2.802685
1009.000000	2.806812
1010.000000	2.810081
1011.000000	2.815445
1012.000000	2.811122
1013.000000	2.821317
1014.000000	2.819331
1015.000000	2.816949
1016.000000	2.828405
1017.000000	2.832832
1018.000000	2.829516
1019.000000	2.849379
1020.000000	2.849249
1021.000000	2.852700
1022.000000	2.865866
1023.000000	2.877332
1024.000000	2.876756
1025.000000	2.887390
1026.000000	2.891560
1027.000000	2.891541
1028.000000	2.898405
1029.000000	2.909654
1030.000000	2.928863
1031.000000	2.933569
1032.000000	2.920252
1033.000000	2.931742
1034.000000	2.939164
1035.000000	2.948801
1036.000000	2.963154
1037.000000	2.952820
1038.000000	2.971585
1039.000000	2.980938
1040.000000	2.971684
1041.000000	2.974651
1042.000000	2.969143
1043.000000	2.988478
1044.000000	2.974827
1045.000000	2.981898
1046.000000	3.006321
1047.000000	3.010060
1048.000000	3.001253
1049.000000	3.015658
1050.000000	3.011536
1051.000000	3.036117
1052.000000	3.030423
1053.000000	3.036636
1054.000000	3.046511
1055.000000	3.050164
1056.000000	3.054166
1057.000000	3.054136
1058.000000	3.070624
1059.000000	3.079777
1060.000000	3.077586
1061.000000	3.082455
1062.000000	3.096138
1063.000000	3.103252
1064.000000	3.109374
1065.000000	3.108550
1066.000000	3.125772
1067.000000	3.132368
1068.000000	3.128585
1069.000000	3.139453
1070.000000	3.151833
1071.000000	3.142956
1072.000000	3.158429
1073.000000	3.169908
1074.000000	3.168462
1075.000000	3.169668
1076.000000	3.167775
1077.000000	3.185899
1078.000000	3.198890
1079.000000	3.198831
1080.000000	3.209185
1081.000000	3.214655
1082.000000	3.202066
1083.000000	3.211454
1084.000000	3.222312
1085.000000	3.222806
1086.000000	3.250943
1087.000000	3.238135
1088.000000	3.250649
1089.000000	3.255732
1090.000000	3.265693
1091.000000	3.270622
1092.000000	3.262867
1093.000000	3.275673
1094.000000	3.269310
1095.000000	3.287918
1096.000000	3.285427
1097.000000	3.298178
1098.000000	3.297727
1099.000000	3.298690
1100.000000	3.305126
1101.000000	3.290234
1102.000000	3.296809
1103.000000	3.295545
1104.000000	3.303318
1105.000000	3.293459
1106.000000	3.308029
1107.000000	3.319769
1108.000000	3.318742
1109.000000	3.317377
1110.000000	3.313468
1111.000000	3.311764
1112.000000	3.314910
1113.000000	3.316701
1114.000000	3.322173
1115.000000	3.321448
1116.000000	3.322544
1117.000000	3.328987
1118.000000	3.322278
1119.000000	3.326346
1120.000000	3.325651
1121.000000	3.322720
1122.000000	3.309070
1123.000000	3.319584
1124.000000	3.306532
1125.000000	3.293976
1126.000000	3.289016
1127.000000	3.281915
1128.000000	3.262466
1129.000000	3.246296
1130.000000	3.218662
1131.000000	3.183381
1132.000000	3.144369
1133.000000	3.110407
1134.000000	3.067173
1135.000000	3.034269
1136.000000	2.981050
1137.000000	2.938694
1138.000000	2.911267
1139.000000	2.876331
1140.000000	2.835253
1141.000000	2.793124
1142.000000	2.760020
1143.000000	2.736864
1144.000000	2.713040
1145.000000	2.671215
1146.000000	2.662964
1147.000000	2.657707
1148.000000	2.650010
1149.000000	2.640883
1150.000000	2.641920
1151.000000	2.638504
1152.000000	2.632702
1153.000000	2.625996
1154.000000	2.613371
1155.000000	2.594752
1156.000000	2.581403
1157.000000	2.538037
1158.000000	2.502379
1159.000000	2.467791
1160.000000	2.449696
1161.000000	2.411860
1162.000000	2.378865
1163.000000	2.333712
1164.000000	2.293915
1165.000000	2.260203
1166.000000	2.240133
1167.000000	2.197507
1168.000000	2.175292
1169.000000	2.143027
1170.000000	2.107526
1171.000000	2.080861
1172.000000	2.051890
1173.000000	2.014844
1174.000000	1.977601
1175.000000	1.949018
1176.000000	1.915322
1177.000000	1.877520
1178.000000	1.852658
1179.000000	1.791233
1180.000000	1.750544
1181.000000	1.708561
1182.000000	1.661250
1183.000000	1.620154
1184.000000	1.599444
1185.000000	1.585097
1186.000000	1.569860
1187.000000	1.584463
1188.000000	1.621466
1189.000000	1.645048
1190.000000	1.684242
1191.000000	1.726427
1192.000000	1.771629
1193.000000	1.806954
1194.000000	1.831225
1195.000000	1.850540
1196.000000	1.870465
1197.000000	1.886950
1198.000000	1.887863
1199.000000	1.892302
1200.000000	1.911864
1201.000000	1.906329
1202.000000	1.903790
1203.000000	1.909537
1204.000000	1.908562
1205.000000	1.915401
1206.000000	1.922355
1207.000000	1.929865
1208.000000	1.936057
1209.000000	1.943693
1210.000000	1.953209
1211.000000	1.964985
1212.000000	1.984658
1213.000000	2.001547
1214.000000	2.017836
1215.000000	2.035903
1216.000000	2.055921
1217.000000	2.076805
1218.000000	2.086048
1219.000000	2.097945
1220.000000	2.119064
1221.000000	2.141341
1222.000000	2.161768
1223.000000	2.177863
1224.000000	2.206319
1225.000000	2.236305
1226.000000	2.251155
1227.000000	2.270399
1228.000000	2.290470
1229.000000	2.307215
1230.000000	2.334169
1231.000000	2.350243
1232.000000	2.362816
1233.000000	2.387756
1234.000000	2.402148
1235.000000	2.418105
1236.000000	2.442574
1237.000000	2.461143
1238.000000	2.478233
1239.000000	2.485261
1240.000000	2.496927
1241.000000	2.519808
1242.000000	2.530244
1243.000000	2.537492
1244.000000	2.551499
1245.000000	2.569388
1246.000000	2.581981
1247.000000	2.585069
1248.000000	2.591836
1249.000000	2.597440
1250.000000	2.603462
1251.000000	2.627775
1252.000000	2.630302
1253.000000	2.633785
1254.000000	2.648431
1255.000000	2.659083
1256.000000	2.665682
1257.000000	2.671895
1258.000000	2.679846
1259.000000	2.680734
1260.000000	2.696829
1261.000000	2.708385
1262.000000	2.709495
1263.000000	2.713270
1264.000000	2.727028
1265.000000	2.733258
1266.000000	2.734241
1267.000000	2.735040
1268.000000	2.741110
1269.000000	2.745625
1270.000000	2.748470
1271.000000	2.753374
1272.000000	2.754408
1273.000000	2.764826
1274.000000	2.771403
1275.000000	2.776222
1276.000000	2.788511
1277.000000	2.794582
1278.000000	2.799888
1279.000000	2.807642
1280.000000	2.805177
1281.000000	2.813816
1282.000000	2.820416
1283.000000	2.823984
1284.000000	2.831794
1285.000000	2.836814
1286.000000	2.839826
1287.000000	2.833691
1288.000000	2.841668
1289.000000	2.844295
1290.000000	2.858521
1291.000000	2.853271
1292.000000	2.854078
1293.000000	2.848561
1294.000000	2.839921
1295.000000	2.847867
1296.000000	2.847420
1297.000000	2.844625
1298.000000	2.850170
1299.000000	2.847114
1300.000000	2.843284
1301.000000	2.844434
1302.000000	2.837441
1303.000000	2.840271
1304.000000	2.830710
1305.000000	2.815900
1306.000000	2.827293
1307.000000	2.817708
1308.000000	2.808194
1309.000000	2.800162
1310.000000	2.796137
1311.000000	2.780181
1312.000000	2.776818
1313.000000	2.758591
1314.000000	2.742572
1315.000000	2.736179
1316.000000	2.725583
1317.000000	2.715067
1318.000000	2.710278
1319.000000	2.694668
1320.000000	2.672729
1321.000000	2.640778
1322.000000	2.627337
1323.000000	2.608232
1324.000000	2.600638
1325.000000	2.584099
1326.000000	2.563578
1327.000000	2.549694
1328.000000	2.506301
1329.000000	2.489675
1330.000000	2.475585
1331.000000	2.434707
1332.000000	2.420022
1333.000000	2.394681
1334.000000	2.382438
1335.000000	2.349690
1336.000000	2.321969
1337.000000	2.291468
1338.000000	2.263835
1339.000000	2.236452
1340.000000	2.204902
1341.000000	2.188252
1342.000000	2.160493
1343.000000	2.130781
1344.000000	2.115019
1345.000000	2.074241
1346.000000	2.046382
1347.000000	2.026232
1348.000000	1.966753
1349.000000	1.942196
1350.000000	1.892392
1351.000000	1.843399
1352.000000	1.798135
1353.000000	1.746101
1354.000000	1.720410
1355.000000	1.678905
1356.000000	1.654640
1357.000000	1.638256
1358.000000	1.635492
1359.000000	1.633190
1360.000000	1.619660
1361.000000	1.619125
1362.000000	1.589812
1363.000000	1.575909
1364.000000	1.574148
1365.000000	1.530237
1366.000000	1.510423
1367.000000	1.495047
1368.000000	1.466814
1369.000000	1.457167
1370.000000	1.412314
1371.000000	1.391523
1372.000000	1.364201
1373.000000	1.331742
1374.000000	1.313186
1375.000000	1.278392
1376.000000	1.259220
1377.000000	1.267340
1378.000000	1.264470
1379.000000	1.255850
1380.000000	1.253243
1381.000000	1.209032
1382.000000	1.171975
1383.000000	1.136472
1384.000000	1.097473
1385.000000	1.060675
1386.000000	1.035705
1387.000000	1.016326
1388.000000	0.976961
1389.000000	0.945025
1390.000000	0.956673
1391.000000	0.949536
1392.000000	0.930800
1393.000000	0.908283
1394.000000	0.906594
1395.000000	0.886583
1396.000000	0.863520
1397.000000	0.843877
1398.000000	0.846479
1399.000000	0.860990
1400.000000	0.828316
1401.000000	0.799890
1402.000000	0.784807
1403.000000	0.776061
1404.000000	0.762116
1405.000000	0.734124
1406.000000	0.723488
1407.000000	0.706720
1408.000000	0.688290
1409.000000	0.673976
1410.000000	0.666305
1411.000000	0.648312
1412.000000	0.642382
1413.000000	0.630194
1414.000000	0.618123
1415.000000	0.605159
1416.000000	0.592644
1417.000000	0.596860
1418.000000	0.579482
1419.000000	0.566039
1420.000000	0.556588
1421.000000	0.548870
1422.000000	0.542009
1423.000000	0.538989
1424.000000	0.525250
1425.000000	0.515205
1426.000000	0.518311
1427.000000	0.506735
1428.000000	0.495332
1429.000000	0.488218
1430.000000	0.482679
1431.000000	0.476318
1432.000000	0.482022
1433.000000	0.481227
1434.000000	0.466732
1435.000000	0.463834
1436.000000	0.469158
1437.000000	0.461355
1438.000000	0.448028
1439.000000	0.440619
1440.000000	0.426492
1441.000000	0.421441
1442.000000	0.436131
1443.000000	0.436452
1444.000000	0.426167
1445.000000	0.425820
1446.000000	0.418789
1447.000000	0.412415
1448.000000	0.407078
1449.000000	0.409582
1450.000000	0.410418
1451.000000	0.404005
1452.000000	0.400054
1453.000000	0.396420
1454.000000	0.392904
1455.000000	0.388002
1456.000000	0.386522
1457.000000	0.399849
1458.000000	0.397113
1459.000000	0.383095
1460.000000	0.381358
1461.000000	0.377590
1462.000000	0.371030
1463.000000	0.383095
1464.000000	0.374475
1465.000000	0.366199
1466.000000	0.362902
1467.000000	0.375209
1468.000000	0.384133
1469.000000	0.382821
1470.000000	0.376060
1471.000000	0.374386
1472.000000	0.368819
1473.000000	0.376896
1474.000000	0.381135
1475.000000	0.375457
1476.000000	0.380553
1477.000000	0.364985
1478.000000	0.367942
1479.000000	0.375945
1480.000000	0.380633
1481.000000	0.381527
1482.000000	0.371772
1483.000000	0.373314
1484.000000	0.380711
1485.000000	0.370610
1486.000000	0.375053
1487.000000	0.374978
1488.000000	0.376397
1489.000000	0.390426
1490.000000	0.386960
1491.000000	0.385632
1492.000000	0.384016
1493.000000	0.373147
1494.000000	0.368269
1495.000000	0.381889
1496.000000	0.390238
1497.000000	0.387067
1498.000000	0.383277
1499.000000	0.387820
1500.000000	0.385910
1501.000000	0.383912
1502.000000	0.384004
1503.000000	0.389241
1504.000000	0.392097
1505.000000	0.388867
1506.000000	0.393323
1507.000000	0.389521
1508.000000	0.385142
1509.000000	0.392816
1510.000000	0.399448
1511.000000	0.399369
1512.000000	0.399617
1513.000000	0.401780
1514.000000	0.396095
1515.000000	0.390880
1516.000000	0.394750
1517.000000	0.400371
1518.000000	0.397191
1519.000000	0.400677
1520.000000	0.408591
1521.000000	0.410364
1522.000000	0.415153
1523.000000	0.406516
1524.000000	0.401101
1525.000000	0.401357
1526.000000	0.398418
1527.000000	0.406993
1528.000000	0.407805
1529.000000	0.402379
1530.000000	0.399137
1531.000000	0.406506
1532.000000	0.411117
1533.000000	0.402289
1534.000000	0.402006
1535.000000	0.411440
1536.000000	0.408897
1537.000000	0.400738
1538.000000	0.394290
1539.000000	0.407877
1540.000000	0.415339
1541.000000	0.410668
1542.000000	0.400835
1543.000000	0.401386
1544.000000	0.407896
1545.000000	0.404481
1546.000000	0.399558
1547.000000	0.406933
1548.000000	0.407189
1549.000000	0.403578
1550.000000	0.402681
1551.000000	0.402511
1552.000000	0.404557
1553.000000	0.410127
1554.000000	0.411812
1555.000000	0.395683
1556.000000	0.394201
1557.000000	0.393566
1558.000000	0.390342
1559.000000	0.400152
1560.000000	0.409296
1561.000000	0.410487
1562.000000	0.402582
1563.000000	0.397265
1564.000000	0.399075
1565.000000	0.400524
1566.000000	0.408479
1567.000000	0.400220
1568.000000	0.397422
1569.000000	0.390806
1570.000000	0.391305
1571.000000	0.398859
1572.000000	0.407599
1573.000000	0.392405
1574.000000	0.394463
1575.000000	0.405736
1576.000000	0.395352
1577.000000	0.400884
1578.000000	0.407522
1579.000000	0.410985
1580.000000	0.404296
1581.000000	0.393349
1582.000000	0.406583
1583.000000	0.401141
1584.000000	0.391125
1585.000000	0.410231
1586.000000	0.403992
1587.000000	0.395347
1588.000000	0.405334
1589.000000	0.405184
1590.000000	0.406882
1591.000000	0.413004
1592.000000	0.408720
1593.000000	0.415330
1594.000000	0.407718
1595.000000	0.413004
1596.000000	0.417221
1597.000000	0.415201
1598.000000	0.411896
1599.000000	0.423378
1600.000000	0.426358
1601.000000	0.420914
1602.000000	0.419820
1603.000000	0.429009
1604.000000	0.431241
1605.000000	0.437169
1606.000000	0.435424
1607.000000	0.431790
1608.000000	0.446044
1609.000000	0.451052
1610.000000	0.438890
1611.000000	0.430190
1612.000000	0.432876
1613.000000	0.427600
1614.000000	0.462460
1615.000000	0.450436
1616.000000	0.451194
1617.000000	0.461590
1618.000000	0.460053
1619.000000	0.460663
1620.000000	0.474883
1621.000000	0.471924
1622.000000	0.468558
1623.000000	0.472346
1624.000000	0.468411
1625.000000	0.482497
1626.000000	0.487484
1627.000000	0.476779
1628.000000	0.485047
1629.000000	0.495365
1630.000000	0.495908
1631.000000	0.506312
1632.000000	0.493147
1633.000000	0.497096
1634.000000	0.500483
1635.000000	0.518508
1636.000000	0.496031
1637.000000	0.509487
1638.000000	0.527892
1639.000000	0.526798
1640.000000	0.538610
1641.000000	0.532282
1642.000000	0.525534
1643.000000	0.546121
1644.000000	0.549923
1645.000000	0.544787
1646.000000	0.538585
1647.000000	0.539446
1648.000000	0.553859
1649.000000	0.575028
1650.000000	0.549287
1651.000000	0.554704
1652.000000	0.577912
1653.000000	0.570035
1654.000000	0.574881
1655.000000	0.577005
1656.000000	0.581853
1657.000000	0.579082
1658.000000	0.595956
1659.000000	0.594750
1660.000000	0.593635
1661.000000	0.591425
1662.000000	0.582027
1663.000000	0.600998
1664.000000	0.598861
1665.000000	0.596643
1666.000000	0.595553
1667.000000	0.578703
1668.000000	0.591767
1669.000000	0.583900
1670.000000	0.581919
1671.000000	0.565749
1672.000000	0.543639
1673.000000	0.535602
1674.000000	0.540243
1675.000000	0.533987
1676.000000	0.527142
1677.000000	0.486380
1678.000000	0.458391
1679.000000	0.450593
1680.000000	0.433278
1681.000000	0.401031
1682.000000	0.393457
1683.000000	0.381630
1684.000000	0.367680
1685.000000	0.381361
1686.000000	0.363229
1687.000000	0.363895
1688.000000	0.353975
1689.000000	0.350686
1690.000000	0.354599
1691.000000	0.341423
1692.000000	0.348990
1693.000000	0.336265
1694.000000	0.325333
1695.000000	0.323443
1696.000000	0.318858
1697.000000	0.315579
1698.000000	0.326617
1699.000000	0.349157
1700.000000	0.347292
1701.000000	0.336030
1702.000000	0.337242
1703.000000	0.360241
1704.000000	0.362929
1705.000000	0.369828
1706.000000	0.374360
1707.000000	0.371689
1708.000000	0.373474
1709.000000	0.389637
1710.000000	0.385979
1711.000000	0.377458
1712.000000	0.381071
1713.000000	0.385760
1714.000000	0.390711
1715.000000	0.380069
1716.000000	0.380534
1717.000000	0.374847
1718.000000	0.384112
1719.000000	0.383968
1720.000000	0.393152
1721.000000	0.395122
1722.000000	0.392836
1723.000000	0.385187
1724.000000	0.397920
1725.000000	0.387606
1726.000000	0.391674
1727.000000	0.386664
1728.000000	0.379091
1729.000000	0.363387
1730.000000	0.374040
1731.000000	0.368227
1732.000000	0.352565
1733.000000	0.357030
1734.000000	0.344616
1735.000000	0.344410
1736.000000	0.352253
1737.000000	0.336268
1738.000000	0.342680
1739.000000	0.354208
1740.000000	0.353569
1741.000000	0.366870
1742.000000	0.375283
1743.000000	0.385837
1744.000000	0.388265
1745.000000	0.391020
1746.000000	0.396192
1747.000000	0.409542
1748.000000	0.406196
1749.000000	0.407703
1750.000000	0.410898
1751.000000	0.412064
1752.000000	0.402954
1753.000000	0.409830
1754.000000	0.424306
1755.000000	0.420240
1756.000000	0.414472
1757.000000	0.408455
1758.000000	0.402144
1759.000000	0.393799
1760.000000	0.399540
1761.000000	0.399935
1762.000000	0.391039
1763.000000	0.390997
1764.000000	0.383052
1765.000000	0.381203
1766.000000	0.394831
1767.000000	0.396939
1768.000000	0.387597
1769.000000	0.394337
1770.000000	0.403510
1771.000000	0.406071
1772.000000	0.416564
1773.000000	0.422291
1774.000000	0.423163
1775.000000	0.426119
1776.000000	0.431770
1777.000000	0.434431
1778.000000	0.437315
1779.000000	0.440696
1780.000000	0.438549
1781.000000	0.449434
1782.000000	0.447219
1783.000000	0.452520
1784.000000	0.464396
1785.000000	0.460821
1786.000000	0.455100
1787.000000	0.459929
1788.000000	0.467392
1789.000000	0.475431
1790.000000	0.475680
1791.000000	0.471021
1792.000000	0.477220
1793.000000	0.486488
1794.000000	0.495957
1795.000000	0.496760
1796.000000	0.492850
1797.000000	0.488563
1798.000000	0.490616
1799.000000	0.502164
1800.000000	0.511075
1801.000000	0.508117
1802.000000	0.498690
1803.000000	0.500579
1804.000000	0.507253
1805.000000	0.508135
1806.000000	0.514481
1807.000000	0.515638
1808.000000	0.515662
1809.000000	0.519382
1810.000000	0.520795
1811.000000	0.519471
1812.000000	0.513981
1813.000000	0.513325
1814.000000	0.521270
1815.000000	0.518720
1816.000000	0.516159
1817.000000	0.519448
1818.000000	0.529245
1819.000000	0.530014
1820.000000	0.517225
1821.000000	0.501237
1822.000000	0.512254
1823.000000	0.528697
1824.000000	0.536684
1825.000000	0.543545
1826.000000	0.536748
1827.000000	0.530687
1828.000000	0.533530
1829.000000	0.545226
1830.000000	0.539731
1831.000000	0.544296
1832.000000	0.550518
1833.000000	0.553916
1834.000000	0.559751
1835.000000	0.561158
1836.000000	0.556039
1837.000000	0.556665
1838.000000	0.558267
1839.000000	0.556712
1840.000000	0.557554
1841.000000	0.549607
1842.000000	0.544835
1843.000000	0.544242
1844.000000	0.556168
1845.000000	0.572963
1846.000000	0.566596
1847.000000	0.557414
1848.000000	0.556349
1849.000000	0.561196
1850.000000	0.568742
1851.000000	0.576072
1852.000000	0.580122
1853.000000	0.570968
1854.000000	0.560009
1855.000000	0.564757
1856.000000	0.576536
1857.000000	0.577719
1858.000000	0.573425
1859.000000	0.569768
1860.000000	0.558196
1861.000000	0.559864
1862.000000	0.553349
1863.000000	0.556736
1864.000000	0.559814
1865.000000	0.554407
1866.000000	0.557043
1867.000000	0.533268
1868.000000	0.532586
1869.000000	0.510441
1870.000000	0.475041
1871.000000	0.460633
1872.000000	0.441959
1873.000000	0.427445
1874.000000	0.430924
1875.000000	0.420419
1876.000000	0.417146
1877.000000	0.410173
1878.000000	0.394680
1879.000000	0.379981
1880.000000	0.368234
1881.000000	0.360964
1882.000000	0.340899
1883.000000	0.336998
1884.000000	0.324008
1885.000000	0.302555
1886.000000	0.280360
1887.000000	0.278808
1888.000000	0.276857
1889.000000	0.263404
1890.000000	0.242323
1891.000000	0.236910
1892.000000	0.227339
1893.000000	0.222875
1894.000000	0.229615
1895.000000	0.236240
1896.000000	0.224709
1897.000000	0.218900
1898.000000	0.203393
1899.000000	0.195452
1900.000000	0.207266
1901.000000	0.208374
1902.000000	0.195984
1903.000000	0.181644
1904.000000	0.187816
1905.000000	0.182757
1906.000000	0.189656
1907.000000	0.169048
1908.000000	0.174384
1909.000000	0.188624
1910.000000	0.183846
1911.000000	0.173061
1912.000000	0.162026
1913.000000	0.182463
1914.000000	0.153462
1915.000000	0.155820
1916.000000	0.166975
1917.000000	0.162430
1918.000000	0.162866
1919.000000	0.154600
1920.000000	0.159041
1921.000000	0.143192
1922.000000	0.161103
1923.000000	0.151748
1924.000000	0.154402
1925.000000	0.161265
1926.000000	0.160661
1927.000000	0.161049
1928.000000	0.156778
1929.000000	0.157676
1930.000000	0.147129
1931.000000	0.149339
1932.000000	0.146291
1933.000000	0.151502
1934.000000	0.158725
1935.000000	0.161892
1936.000000	0.150683
1937.000000	0.148260
1938.000000	0.150977
1939.000000	0.156582
1940.000000	0.146139
1941.000000	0.145142
1942.000000	0.147668
1943.000000	0.152588
1944.000000	0.148895
1945.000000	0.165717
1946.000000	0.156629
1947.000000	0.151660
1948.000000	0.158651
1949.000000	0.149079
1950.000000	0.144445
1951.000000	0.148018
1952.000000	0.159341
1953.000000	0.170516
1954.000000	0.156249
1955.000000	0.152847
1956.000000	0.147649
1957.000000	0.149422
1958.000000	0.149365
1959.000000	0.143502
1960.000000	0.155027
1961.000000	0.154528
1962.000000	0.149596
1963.000000	0.148328
1964.000000	0.154375
1965.000000	0.160240
1966.000000	0.163717
1967.000000	0.167316
1968.000000	0.157815
1969.000000	0.157828
1970.000000	0.153474
1971.000000	0.149991
1972.000000	0.165444
1973.000000	0.152825
1974.000000	0.166756
1975.000000	0.148913
1976.000000	0.156202
1977.000000	0.168429
1978.000000	0.170967
1979.000000	0.152887
1980.000000	0.151153
1981.000000	0.161719
1982.000000	0.160760
1983.000000	0.159066
1984.000000	0.157803
1985.000000	0.162298
1986.000000	0.166397
1987.000000	0.164438
1988.000000	0.170221
1989.000000	0.189714
1990.000000	0.166922
1991.000000	0.159589
1992.000000	0.160845
1993.000000	0.152541
1994.000000	0.176834
1995.000000	0.182882
1996.000000	0.179980
1997.000000	0.162667
1998.000000	0.167035
1999.000000	0.171504
2000.000000	0.164524
2001.000000	0.169616
2002.000000	0.170212
2003.000000	0.188431
2004.000000	0.179862
2005.000000	0.168439
2006.000000	0.168166
2007.000000	0.175280
2008.000000	0.168980
2009.000000	0.174590
2010.000000	0.170947
2011.000000	0.172769
2012.000000	0.172882
2013.000000	0.177321
2014.000000	0.183939
2015.000000	0.173779
2016.000000	0.179163
2017.000000	0.174632
2018.000000	0.171188
2019.000000	0.165299
2020.000000	0.179612
2021.000000	0.178232
2022.000000	0.175317
2023.000000	0.175153
2024.000000	0.173827
2025.000000	0.179934
2026.000000	0.167086
2027.000000	0.176397
2028.000000	0.175724
2029.000000	0.171774
2030.000000	0.180166
2031.000000	0.181756
2032.000000	0.176797
2033.000000	0.173904
2034.000000	0.167319
2035.000000	0.167711
2036.000000	0.176369
2037.000000	0.181727
2038.000000	0.182937
2039.000000	0.191867
2040.000000	0.189575
2041.000000	0.188606
2042.000000	0.186185
2043.000000	0.188778
2044.000000	0.178884
2045.000000	0.180798
2046.000000	0.186404
2047.000000	0.186939
2048.000000	0.176925
2049.000000	0.176383
2050.000000	0.178005
2051.000000	0.183424
2052.000000	0.180817
2053.000000	0.174225
2054.000000	0.164837
2055.000000	0.162376
2056.000000	0.163786
2057.000000	0.165463
2058.000000	0.158676
2059.000000	0.165210
2060.000000	0.161788
2061.000000	0.143404
2062.000000	0.131387
2063.000000	0.142083
2064.000000	0.142677
2065.000000	0.126591
2066.000000	0.132392
2067.000000	0.128706
2068.000000	0.121336
2069.000000	0.126081
2070.000000	0.135814
2071.000000	0.121342
2072.000000	0.111313
2073.000000	0.113346
2074.000000	0.114342
2075.000000	0.120171
2076.000000	0.120390
2077.000000	0.121199
2078.000000	0.126868
2079.000000	0.117349
2080.000000	0.117296
2081.000000	0.121580
2082.000000	0.123678
2083.000000	0.127725
2084.000000	0.125210
2085.000000	0.113826
2086.000000	0.123890
2087.000000	0.134479
2088.000000	0.120852
2089.000000	0.126282
2090.000000	0.128580
2091.000000	0.125566
2092.000000	0.125587
2093.000000	0.128848
2094.000000	0.135246
2095.000000	0.124113
2096.000000	0.125896
2097.000000	0.139272
2098.000000	0.139533
2099.000000	0.139112
2100.000000	0.129788
2101.000000	0.126889
2102.000000	0.131995
2103.000000	0.134119
2104.000000	0.129141
2105.000000	0.127590
2106.000000	0.135578
2107.000000	0.133251
2108.000000	0.132493
2109.000000	0.137103
2110.000000	0.146230
2111.000000	0.140317
2112.000000	0.134783
2113.000000	0.134225
2114.000000	0.141484
2115.000000	0.136949
2116.000000	0.132801
2117.000000	0.138152
2118.000000	0.135463
2119.000000	0.136294
2120.000000	0.144366
2121.000000	0.152275
2122.000000	0.142085
2123.000000	0.139855
2124.000000	0.137845
2125.000000	0.134630
2126.000000	0.143323
2127.000000	0.148902
2128.000000	0.138849
2129.000000	0.128980
2130.000000	0.133112
2131.000000	0.138219
2132.000000	0.131020
2133.000000	0.137292
2134.000000	0.150574
2135.000000	0.140247
2136.000000	0.134809
2137.000000	0.141635
2138.000000	0.136217
2139.000000	0.137609
2140.000000	0.136675
2141.000000	0.141808
2142.000000	0.140996
2143.000000	0.133582
2144.000000	0.122899
2145.000000	0.130606
2146.000000	0.127705
2147.000000	0.134560
2148.000000	0.140945
2149.000000	0.137311
2150.000000	0.139568
2151.000000	0.139563
2152.000000	0.128357
2153.000000	0.151830
2154.000000	0.142794
2155.000000	0.130552
2156.000000	0.126270
2157.000000	0.143406
2158.000000	0.149388
2159.000000	0.153163
2160.000000	0.157936
2161.000000	0.145845
2162.000000	0.147174
2163.000000	0.138478
2164.000000	0.146869
2165.000000	0.153032
2166.000000	0.153551
2167.000000	0.154725
2168.000000	0.157265
2169.000000	0.148592
2170.000000	0.144690
2171.000000	0.128801
2172.000000	0.148628
2173.000000	0.152531
2174.000000	0.154351
2175.000000	0.153502
2176.000000	0.152387
2177.000000	0.144813
2178.000000	0.149893
2179.000000	0.154126
2180.000000	0.156242
2181.000000	0.151653
2182.000000	0.150537
2183.000000	0.135235
2184.000000	0.146856
2185.000000	0.139835
2186.000000	0.159280
2187.000000	0.158264
2188.000000	0.154340
2189.000000	0.146349
2190.000000	0.149473
2191.000000	0.148950
2192.000000	0.153840
2193.000000	0.158536
2194.000000	0.149770
2195.000000	0.142905
2196.000000	0.141935
2197.000000	0.166141
2198.000000	0.147893
2199.000000	0.153239
2200.000000	0.161376
2201.000000	0.151592
2202.000000	0.134771
2203.000000	0.142117
2204.000000	0.144706
2205.000000	0.147785
2206.000000	0.143622
2207.000000	0.137832
2208.000000	0.143453
2209.000000	0.140920
2210.000000	0.138049
2211.000000	0.153185
2212.000000	0.142639
2213.000000	0.127491
2214.000000	0.146290
2215.000000	0.150451
2216.000000	0.143086
2217.000000	0.140003
2218.000000	0.149261
2219.000000	0.155003
2220.000000	0.146422
2221.000000	0.146554
2222.000000	0.146324
2223.000000	0.142738
2224.000000	0.142729
2225.000000	0.150214
2226.000000	0.143733
2227.000000	0.154847
2228.000000	0.141321
2229.000000	0.136393
2230.000000	0.130053
2231.000000	0.150621
2232.000000	0.156819
2233.000000	0.150734
2234.000000	0.148088
2235.000000	0.144797
2236.000000	0.142917
2237.000000	0.136666
2238.000000	0.143497
2239.000000	0.139822
2240.000000	0.152462
2241.000000	0.158437
2242.000000	0.138187
2243.000000	0.138815
2244.000000	0.145713
2245.000000	0.138205
2246.000000	0.139917
2247.000000	0.147059
2248.000000	0.143370
2249.000000	0.158099
2250.000000	0.152067
2251.000000	0.139804
2252.000000	0.140256
2253.000000	0.149115
2254.000000	0.142596
2255.000000	0.139604
2256.000000	0.151116
2257.000000	0.159279
2258.000000	0.139517
2259.000000	0.146766
2260.000000	0.149536
2261.000000	0.156409
2262.000000	0.134239
2263.000000	0.160120
2264.000000	0.163757
2265.000000	0.147380
2266.000000	0.149434
2267.000000	0.165470
2268.000000	0.162134
2269.000000	0.174291
2270.000000	0.177871
2271.000000	0.167951
2272.000000	0.167653
2273.000000	0.171993
2274.000000	0.167310
2275.000000	0.176953
2276.000000	0.182621
2277.000000	0.184908
2278.000000	0.192480
2279.000000	0.189520
2280.000000	0.189923
2281.000000	0.197373
2282.000000	0.196609
2283.000000	0.189331
2284.000000	0.196247
2285.000000	0.208697
2286.000000	0.208532
2287.000000	0.216509
2288.000000	0.213518
2289.000000	0.210574
2290.000000	0.204676
2291.000000	0.212055
2292.000000	0.215727
2293.000000	0.222255
2294.000000	0.222424
2295.000000	0.229054
2296.000000	0.226291
2297.000000	0.226376
2298.000000	0.229184
2299.000000	0.224981
2300.000000	0.226845
2301.000000	0.225211
2302.000000	0.228323
2303.000000	0.232847
2304.000000	0.226056
2305.000000	0.216274
2306.000000	0.223636
2307.000000	0.234252
2308.000000	0.220230
2309.000000	0.206198
2310.000000	0.220344
2311.000000	0.221125
2312.000000	0.198680
2313.000000	0.196008
2314.000000	0.203799
2315.000000	0.198385
2316.000000	0.192504
2317.000000	0.184981
2318.000000	0.180426
2319.000000	0.176621
2320.000000	0.179330
2321.000000	0.182550
2322.000000	0.183557
2323.000000	0.184032
2324.000000	0.187823
2325.000000	0.197135
2326.000000	0.188935
2327.000000	0.191287
2328.000000	0.190469
2329.000000	0.195349
2330.000000	0.194288
2331.000000	0.199745
2332.000000	0.213699
2333.000000	0.212557
2334.000000	0.207325
2335.000000	0.212804
2336.000000	0.216362
2337.000000	0.222836
2338.000000	0.233158
2339.000000	0.229449
2340.000000	0.223424
2341.000000	0.229899
2342.000000	0.224270
2343.000000	0.231638
2344.000000	0.241516
2345.000000	0.234560
2346.000000	0.223497
2347.000000	0.226160
2348.000000	0.229855
2349.000000	0.221438
2350.000000	0.222955
2351.000000	0.220953
2352.000000	0.222177
2353.000000	0.220308
2354.000000	0.215028
2355.000000	0.212976
2356.000000	0.209348
2357.000000	0.208591
2358.000000	0.218340
2359.000000	0.219422
2360.000000	0.206150
2361.000000	0.212730
2362.000000	0.209331
2363.000000	0.207766
2364.000000	0.215310
2365.000000	0.215035
2366.000000	0.217958
2367.000000	0.218049
2368.000000	0.222075
2369.000000	0.233947
2370.000000	0.232048
2371.000000	0.229115
2372.000000	0.224826
2373.000000	0.227091
2374.000000	0.236181
2375.000000	0.233320
2376.000000	0.236768
2377.000000	0.229259
2378.000000	0.228669
2379.000000	0.229306
2380.000000	0.239320
2381.000000	0.240993
2382.000000	0.239082
2383.000000	0.245650
2384.000000	0.248737
2385.000000	0.246244
2386.000000	0.245470
2387.000000	0.244298
2388.000000	0.239938
2389.000000	0.247938
2390.000000	0.265437
2391.000000	0.262688
2392.000000	0.250892
2393.000000	0.242959
2394.000000	0.254397
2395.000000	0.256665
2396.000000	0.255295
2397.000000	0.260506
2398.000000	0.275617
2399.000000	0.282455
2400.000000	0.277685
2401.000000	0.290544
2402.000000	0.286114
2403.000000	0.273775
2404.000000	0.272359
2405.000000	0.257975
2406.000000	0.267615
2407.000000	0.271976
2408.000000	0.268637
2409.000000	0.283967
2410.000000	0.289458
2411.000000	0.282498
2412.000000	0.265376
2413.000000	0.248121
2414.000000	0.251773
2415.000000	0.253836
2416.000000	0.265000
2417.000000	0.270647
2418.000000	0.272405
2419.000000	0.272061
2420.000000	0.263145
2421.000000	0.255041
2422.000000	0.240369
2423.000000	0.244295
2424.000000	0.256225
2425.000000	0.253801
2426.000000	0.242239
2427.000000	0.253950
2428.000000	0.245724
2429.000000	0.243020
2430.000000	0.243604
2431.000000	0.243996
2432.000000	0.240786
2433.000000	0.242811
2434.000000	0.263723
2435.000000	0.251376
2436.000000	0.241588
2437.000000	0.250402
2438.000000	0.242309
2439.000000	0.243551
2440.000000	0.237455
2441.000000	0.238592
2442.000000	0.240395
2443.000000	0.225320
2444.000000	0.214366
2445.000000	0.230468
2446.000000	0.225881
2447.000000	0.239492
2448.000000	0.239286
2449.000000	0.246284
2450.000000	0.232829
2451.000000	0.212332
2452.000000	0.203890
2453.000000	0.207768
2454.000000	0.220003
2455.000000	0.222415
2456.000000	0.215305
2457.000000	0.240681
2458.000000	0.213185
2459.000000	0.210856
2460.000000	0.213871
2461.000000	0.202322
2462.000000	0.190618
2463.000000	0.224478
2464.000000	0.214222
2465.000000	0.187684
2466.000000	0.199775
2467.000000	0.233953
2468.000000	0.216096
2469.000000	0.220501
2470.000000	0.211233
2471.000000	0.176530
2472.000000	0.185194
2473.000000	0.172033
2474.000000	0.192352
2475.000000	0.193638
2476.000000	0.203544
2477.000000	0.113679
2478.000000	0.217067
2479.000000	0.203501
2480.000000	0.223852
2481.000000	0.247108
2482.000000	0.182048
2483.000000	0.130097
2484.000000	0.221037
2485.000000	0.212140
2486.000000	0.133184
2487.000000	0.259528
2488.000000	0.175107
2489.000000	0.115843
2490.000000	0.172234
2491.000000	0.196413
2492.000000	0.162762
2493.000000	0.274817
2494.000000	0.222814
2495.000000	0.177337
2496.000000	0.287048
2497.000000	0.224318
2498.000000	0.215421
2499.000000	0.247921
2500.000000	0.240563
