PE UV       SUBTECH     SPECTRUM    ASCII       PEDS        4.00        
   -1
BIOUCR0015-3.Sample.ASC
24/02/19
16:09:51.00
24/02/19
16:09:51.00
Vinicio Soto Monge
P. resplendens (sin datos)
250,000000
1
Lambda 1050
1050L1511233
PerkinElmer UV WinLab 6.3.2.0749 / 2.02.05 Lambda 900 UV/VIS/NIR, Aug  7 2015 09:38:08

0
0
3350/servo 860,8/2
0
0
UV/VIS
1
1
1
DoubleDePol,CommonBeamDepol,RBeamAtt,SBeamAtt,60mm sphere, WB InGaAs Detector
0
0
0
0
Program
Program
3350/servo 860,8/2
3350/0,2 860,8/0,2
3350/0,2 860,8/0,2
0
15.00
 
 
 
0
 
860,8
319,2
860,8
Front
100
on
S:100 R:100
0
0
0
0
 
0
 
 
 
0
 
 
0
0
0
0
0
 
 
 
 
0
0


0
0
#HDR
-1
-1
#GR
nm
%R
1.0
0.0
2500,000000
-1,000000
2251
8
25,126700
1,700500
#DATA

250.000000	0.125458
251.000000	0.105046
252.000000	0.114261
253.000000	0.089528
254.000000	0.119926
255.000000	0.097091
256.000000	0.109566
257.000000	0.072766
258.000000	0.092122
259.000000	0.087016
260.000000	0.110243
261.000000	0.077889
262.000000	0.098959
263.000000	0.077775
264.000000	0.095085
265.000000	0.088262
266.000000	0.120869
267.000000	0.105238
268.000000	0.104044
269.000000	0.090354
270.000000	0.102428
271.000000	0.101831
272.000000	0.104315
273.000000	0.100881
274.000000	0.126554
275.000000	0.109929
276.000000	0.123785
277.000000	0.091803
278.000000	0.121617
279.000000	0.116098
280.000000	0.100981
281.000000	0.082305
282.000000	0.106221
283.000000	0.086631
284.000000	0.073412
285.000000	0.097083
286.000000	0.116154
287.000000	0.116931
288.000000	0.107143
289.000000	0.112940
290.000000	0.128316
291.000000	0.098117
292.000000	0.115667
293.000000	0.113148
294.000000	0.072398
295.000000	0.101996
296.000000	0.114837
297.000000	0.121726
298.000000	0.131695
299.000000	0.152104
300.000000	0.157243
301.000000	0.120861
302.000000	0.096593
303.000000	0.125906
304.000000	0.110545
305.000000	0.079346
306.000000	0.109589
307.000000	0.095650
308.000000	0.121816
309.000000	0.133153
310.000000	0.115507
311.000000	0.142747
312.000000	0.114997
313.000000	0.132784
314.000000	0.132594
315.000000	0.097281
316.000000	0.043225
317.000000	0.415836
318.000000	0.058413
319.000000	0.411781
320.000000	0.239440
321.000000	0.273894
322.000000	0.218467
323.000000	0.220653
324.000000	0.247020
325.000000	0.139901
326.000000	0.107727
327.000000	0.031367
328.000000	0.117745
329.000000	0.161029
330.000000	0.078678
331.000000	0.078483
332.000000	0.039870
333.000000	0.098921
334.000000	0.052760
335.000000	0.071812
336.000000	0.077096
337.000000	0.061597
338.000000	0.070005
339.000000	0.126582
340.000000	0.087595
341.000000	0.101628
342.000000	0.033607
343.000000	0.122140
344.000000	0.087630
345.000000	0.059724
346.000000	0.113919
347.000000	0.134686
348.000000	0.130773
349.000000	0.079257
350.000000	0.045497
351.000000	0.153882
352.000000	0.165755
353.000000	0.094268
354.000000	0.064348
355.000000	0.148104
356.000000	0.138875
357.000000	0.084833
358.000000	0.090560
359.000000	0.086953
360.000000	0.125763
361.000000	0.111875
362.000000	0.102801
363.000000	0.139602
364.000000	0.147625
365.000000	0.098367
366.000000	0.140213
367.000000	0.155007
368.000000	0.148825
369.000000	0.201911
370.000000	0.176921
371.000000	0.191894
372.000000	0.264958
373.000000	0.280489
374.000000	0.347112
375.000000	0.325344
376.000000	0.181937
377.000000	0.117091
378.000000	0.119012
379.000000	0.114092
380.000000	0.122210
381.000000	0.118309
382.000000	0.122806
383.000000	0.119364
384.000000	0.124052
385.000000	0.121728
386.000000	0.124928
387.000000	0.130445
388.000000	0.133007
389.000000	0.134663
390.000000	0.132821
391.000000	0.136446
392.000000	0.138384
393.000000	0.145812
394.000000	0.151788
395.000000	0.151685
396.000000	0.153084
397.000000	0.157929
398.000000	0.164798
399.000000	0.175210
400.000000	0.183077
401.000000	0.190131
402.000000	0.201661
403.000000	0.211127
404.000000	0.217430
405.000000	0.225433
406.000000	0.240712
407.000000	0.256534
408.000000	0.271852
409.000000	0.290763
410.000000	0.308817
411.000000	0.330094
412.000000	0.344194
413.000000	0.356788
414.000000	0.378796
415.000000	0.402139
416.000000	0.421859
417.000000	0.441032
418.000000	0.460648
419.000000	0.483961
420.000000	0.510064
421.000000	0.524441
422.000000	0.545378
423.000000	0.571526
424.000000	0.590007
425.000000	0.604380
426.000000	0.620121
427.000000	0.636768
428.000000	0.651730
429.000000	0.669491
430.000000	0.680103
431.000000	0.690291
432.000000	0.705567
433.000000	0.719417
434.000000	0.729912
435.000000	0.743671
436.000000	0.753155
437.000000	0.762035
438.000000	0.771694
439.000000	0.773348
440.000000	0.787319
441.000000	0.802230
442.000000	0.810892
443.000000	0.815878
444.000000	0.820223
445.000000	0.832141
446.000000	0.838356
447.000000	0.841792
448.000000	0.849277
449.000000	0.855471
450.000000	0.865058
451.000000	0.870824
452.000000	0.875701
453.000000	0.882194
454.000000	0.885516
455.000000	0.892699
456.000000	0.895307
457.000000	0.893935
458.000000	0.896842
459.000000	0.900947
460.000000	0.904111
461.000000	0.906863
462.000000	0.904911
463.000000	0.901503
464.000000	0.897249
465.000000	0.891351
466.000000	0.888414
467.000000	0.882151
468.000000	0.867352
469.000000	0.853686
470.000000	0.836112
471.000000	0.820581
472.000000	0.801916
473.000000	0.780057
474.000000	0.754961
475.000000	0.728572
476.000000	0.697497
477.000000	0.671665
478.000000	0.647889
479.000000	0.617105
480.000000	0.584333
481.000000	0.552196
482.000000	0.528302
483.000000	0.513797
484.000000	0.506219
485.000000	0.505054
486.000000	0.519629
487.000000	0.545952
488.000000	0.578655
489.000000	0.621306
490.000000	0.671644
491.000000	0.727932
492.000000	0.796828
493.000000	0.864852
494.000000	0.923587
495.000000	0.984138
496.000000	1.040133
497.000000	1.105829
498.000000	1.164524
499.000000	1.221836
500.000000	1.272347
501.000000	1.333461
502.000000	1.390565
503.000000	1.450661
504.000000	1.512976
505.000000	1.569255
506.000000	1.622900
507.000000	1.681953
508.000000	1.731994
509.000000	1.783920
510.000000	1.829434
511.000000	1.859972
512.000000	1.896613
513.000000	1.935640
514.000000	1.966254
515.000000	1.999582
516.000000	2.035058
517.000000	2.068468
518.000000	2.105580
519.000000	2.133951
520.000000	2.169596
521.000000	2.190399
522.000000	2.217710
523.000000	2.236159
524.000000	2.253473
525.000000	2.264612
526.000000	2.265845
527.000000	2.255768
528.000000	2.236905
529.000000	2.224217
530.000000	2.194403
531.000000	2.177035
532.000000	2.150079
533.000000	2.122520
534.000000	2.105334
535.000000	2.099426
536.000000	2.088580
537.000000	2.085352
538.000000	2.078246
539.000000	2.069640
540.000000	2.059569
541.000000	2.053785
542.000000	2.047289
543.000000	2.053951
544.000000	2.049459
545.000000	2.045314
546.000000	2.023536
547.000000	2.010211
548.000000	1.981877
549.000000	1.951472
550.000000	1.927301
551.000000	1.916769
552.000000	1.893990
553.000000	1.864970
554.000000	1.856938
555.000000	1.838266
556.000000	1.822585
557.000000	1.804944
558.000000	1.797753
559.000000	1.785203
560.000000	1.781765
561.000000	1.766672
562.000000	1.757276
563.000000	1.751144
564.000000	1.753736
565.000000	1.747352
566.000000	1.742094
567.000000	1.738084
568.000000	1.718718
569.000000	1.702264
570.000000	1.686102
571.000000	1.671581
572.000000	1.638522
573.000000	1.611308
574.000000	1.594989
575.000000	1.569752
576.000000	1.526468
577.000000	1.518224
578.000000	1.477560
579.000000	1.458786
580.000000	1.433115
581.000000	1.411437
582.000000	1.384423
583.000000	1.362434
584.000000	1.343981
585.000000	1.344224
586.000000	1.345430
587.000000	1.345410
588.000000	1.344430
589.000000	1.330900
590.000000	1.321941
591.000000	1.324284
592.000000	1.315404
593.000000	1.295875
594.000000	1.291885
595.000000	1.275255
596.000000	1.254945
597.000000	1.223645
598.000000	1.192754
599.000000	1.175127
600.000000	1.153799
601.000000	1.135333
602.000000	1.095344
603.000000	1.053430
604.000000	1.011039
605.000000	0.969760
606.000000	0.927267
607.000000	0.881167
608.000000	0.847726
609.000000	0.818028
610.000000	0.787057
611.000000	0.790311
612.000000	0.793699
613.000000	0.817966
614.000000	0.845219
615.000000	0.877286
616.000000	0.927256
617.000000	0.969593
618.000000	1.003066
619.000000	1.051302
620.000000	1.097678
621.000000	1.164055
622.000000	1.227185
623.000000	1.299205
624.000000	1.353650
625.000000	1.421203
626.000000	1.473676
627.000000	1.535672
628.000000	1.583779
629.000000	1.602751
630.000000	1.638674
631.000000	1.634322
632.000000	1.646731
633.000000	1.637328
634.000000	1.604680
635.000000	1.576534
636.000000	1.529809
637.000000	1.488486
638.000000	1.439792
639.000000	1.389398
640.000000	1.330233
641.000000	1.288328
642.000000	1.244997
643.000000	1.198213
644.000000	1.179836
645.000000	1.154046
646.000000	1.149210
647.000000	1.151146
648.000000	1.156730
649.000000	1.191685
650.000000	1.207392
651.000000	1.258277
652.000000	1.300315
653.000000	1.343173
654.000000	1.404759
655.000000	1.463350
656.000000	1.519496
657.000000	1.577446
658.000000	1.635584
659.000000	1.704562
660.000000	1.739138
661.000000	1.792029
662.000000	1.847390
663.000000	1.882006
664.000000	1.928395
665.000000	1.958267
666.000000	1.985088
667.000000	2.020646
668.000000	2.059637
669.000000	2.083891
670.000000	2.084157
671.000000	2.081307
672.000000	2.063173
673.000000	2.042884
674.000000	2.011623
675.000000	1.959546
676.000000	1.916371
677.000000	1.868806
678.000000	1.823998
679.000000	1.767759
680.000000	1.712773
681.000000	1.673103
682.000000	1.637252
683.000000	1.606088
684.000000	1.583265
685.000000	1.582699
686.000000	1.597241
687.000000	1.613269
688.000000	1.639378
689.000000	1.685456
690.000000	1.748400
691.000000	1.799716
692.000000	1.847730
693.000000	1.909359
694.000000	1.971395
695.000000	2.048566
696.000000	2.095582
697.000000	2.134008
698.000000	2.185419
699.000000	2.221174
700.000000	2.258758
701.000000	2.272745
702.000000	2.274573
703.000000	2.280221
704.000000	2.281055
705.000000	2.278231
706.000000	2.248314
707.000000	2.233868
708.000000	2.225239
709.000000	2.212156
710.000000	2.177936
711.000000	2.167334
712.000000	2.168427
713.000000	2.154811
714.000000	2.135204
715.000000	2.104916
716.000000	2.085924
717.000000	2.072220
718.000000	2.058709
719.000000	2.042901
720.000000	2.034203
721.000000	2.049180
722.000000	2.013543
723.000000	2.013727
724.000000	2.036437
725.000000	2.063642
726.000000	2.067548
727.000000	2.055437
728.000000	2.069808
729.000000	2.073198
730.000000	2.089908
731.000000	2.109306
732.000000	2.124061
733.000000	2.145446
734.000000	2.171280
735.000000	2.194254
736.000000	2.202832
737.000000	2.218745
738.000000	2.242858
739.000000	2.265589
740.000000	2.279458
741.000000	2.303766
742.000000	2.332561
743.000000	2.330600
744.000000	2.327989
745.000000	2.360800
746.000000	2.373424
747.000000	2.363770
748.000000	2.364084
749.000000	2.354114
750.000000	2.371111
751.000000	2.377171
752.000000	2.355537
753.000000	2.356320
754.000000	2.357157
755.000000	2.350740
756.000000	2.352366
757.000000	2.361159
758.000000	2.376351
759.000000	2.363042
760.000000	2.360289
761.000000	2.358014
762.000000	2.342789
763.000000	2.344496
764.000000	2.350356
765.000000	2.376219
766.000000	2.379554
767.000000	2.371900
768.000000	2.383806
769.000000	2.400683
770.000000	2.377931
771.000000	2.366052
772.000000	2.364812
773.000000	2.353509
774.000000	2.388647
775.000000	2.414163
776.000000	2.409845
777.000000	2.400574
778.000000	2.386590
779.000000	2.398666
780.000000	2.427257
781.000000	2.449783
782.000000	2.458963
783.000000	2.419638
784.000000	2.411622
785.000000	2.425398
786.000000	2.431263
787.000000	2.429817
788.000000	2.411767
789.000000	2.381022
790.000000	2.390587
791.000000	2.402016
792.000000	2.400983
793.000000	2.379786
794.000000	2.361057
795.000000	2.364802
796.000000	2.316061
797.000000	2.280421
798.000000	2.267610
799.000000	2.223017
800.000000	2.193972
801.000000	2.161826
802.000000	2.121480
803.000000	2.081150
804.000000	2.056572
805.000000	2.025757
806.000000	2.006429
807.000000	1.932870
808.000000	1.853919
809.000000	1.807946
810.000000	1.801710
811.000000	1.757116
812.000000	1.747435
813.000000	1.681656
814.000000	1.597467
815.000000	1.568490
816.000000	1.529796
817.000000	1.531766
818.000000	1.427852
819.000000	1.393819
820.000000	1.355389
821.000000	1.325226
822.000000	1.253387
823.000000	1.188059
824.000000	1.207024
825.000000	1.167326
826.000000	1.083195
827.000000	1.044867
828.000000	0.969169
829.000000	0.952649
830.000000	0.911079
831.000000	0.931710
832.000000	0.839198
833.000000	0.913606
834.000000	0.714680
835.000000	0.768698
836.000000	0.826606
837.000000	0.785663
838.000000	0.817632
839.000000	0.754572
840.000000	0.716610
841.000000	0.731678
842.000000	0.778936
843.000000	0.760271
844.000000	0.793266
845.000000	0.813811
846.000000	0.670726
847.000000	0.904820
848.000000	0.763825
849.000000	0.790357
850.000000	0.898451
851.000000	0.719619
852.000000	0.691353
853.000000	0.951906
854.000000	0.801906
855.000000	0.873744
856.000000	0.883037
857.000000	0.526584
858.000000	1.223149
859.000000	0.557042
860.000000	0.564265
861.000000	0.578016
862.000000	0.570152
863.000000	0.582582
864.000000	0.567165
865.000000	0.551667
866.000000	0.545275
867.000000	0.533337
868.000000	0.532295
869.000000	0.517335
870.000000	0.501846
871.000000	0.482578
872.000000	0.481669
873.000000	0.468521
874.000000	0.430656
875.000000	0.432144
876.000000	0.429669
877.000000	0.409911
878.000000	0.371044
879.000000	0.367182
880.000000	0.366087
881.000000	0.351419
882.000000	0.324816
883.000000	0.315255
884.000000	0.315898
885.000000	0.317719
886.000000	0.317300
887.000000	0.337117
888.000000	0.317511
889.000000	0.314805
890.000000	0.327917
891.000000	0.354626
892.000000	0.392400
893.000000	0.432281
894.000000	0.439241
895.000000	0.452236
896.000000	0.471514
897.000000	0.483730
898.000000	0.511351
899.000000	0.544128
900.000000	0.561064
901.000000	0.616785
902.000000	0.622188
903.000000	0.640531
904.000000	0.662298
905.000000	0.671649
906.000000	0.710090
907.000000	0.748322
908.000000	0.775987
909.000000	0.815068
910.000000	0.822900
911.000000	0.818266
912.000000	0.844668
913.000000	0.877449
914.000000	0.916256
915.000000	0.942660
916.000000	0.945077
917.000000	0.959450
918.000000	0.993925
919.000000	1.021537
920.000000	1.027781
921.000000	1.053160
922.000000	1.054017
923.000000	1.085604
924.000000	1.089657
925.000000	1.112015
926.000000	1.142050
927.000000	1.163881
928.000000	1.186795
929.000000	1.191295
930.000000	1.220816
931.000000	1.223163
932.000000	1.243585
933.000000	1.262444
934.000000	1.266698
935.000000	1.306694
936.000000	1.275269
937.000000	1.299730
938.000000	1.305058
939.000000	1.330352
940.000000	1.317153
941.000000	1.348056
942.000000	1.343837
943.000000	1.365118
944.000000	1.382242
945.000000	1.379774
946.000000	1.372158
947.000000	1.405165
948.000000	1.414525
949.000000	1.422065
950.000000	1.433340
951.000000	1.440230
952.000000	1.425590
953.000000	1.438124
954.000000	1.454691
955.000000	1.465527
956.000000	1.467758
957.000000	1.472782
958.000000	1.474278
959.000000	1.491729
960.000000	1.478758
961.000000	1.470697
962.000000	1.477864
963.000000	1.492840
964.000000	1.496768
965.000000	1.498049
966.000000	1.506369
967.000000	1.508056
968.000000	1.512693
969.000000	1.511983
970.000000	1.500100
971.000000	1.511422
972.000000	1.525786
973.000000	1.523657
974.000000	1.525217
975.000000	1.514852
976.000000	1.536994
977.000000	1.532675
978.000000	1.534520
979.000000	1.541404
980.000000	1.536770
981.000000	1.535614
982.000000	1.542171
983.000000	1.533374
984.000000	1.535313
985.000000	1.536340
986.000000	1.538857
987.000000	1.547060
988.000000	1.543202
989.000000	1.528139
990.000000	1.529943
991.000000	1.527168
992.000000	1.523097
993.000000	1.532858
994.000000	1.550405
995.000000	1.561831
996.000000	1.549242
997.000000	1.545493
998.000000	1.556071
999.000000	1.558980
1000.000000	1.563572
1001.000000	1.572238
1002.000000	1.577715
1003.000000	1.583029
1004.000000	1.571670
1005.000000	1.559196
1006.000000	1.566336
1007.000000	1.570277
1008.000000	1.570914
1009.000000	1.569436
1010.000000	1.554389
1011.000000	1.546775
1012.000000	1.551733
1013.000000	1.555122
1014.000000	1.543065
1015.000000	1.549404
1016.000000	1.551430
1017.000000	1.546247
1018.000000	1.551247
1019.000000	1.551202
1020.000000	1.548166
1021.000000	1.547074
1022.000000	1.553457
1023.000000	1.558269
1024.000000	1.560763
1025.000000	1.555309
1026.000000	1.557356
1027.000000	1.563468
1028.000000	1.558470
1029.000000	1.559374
1030.000000	1.549001
1031.000000	1.547671
1032.000000	1.543043
1033.000000	1.539791
1034.000000	1.540807
1035.000000	1.538376
1036.000000	1.540020
1037.000000	1.526638
1038.000000	1.531647
1039.000000	1.550333
1040.000000	1.545258
1041.000000	1.544315
1042.000000	1.549631
1043.000000	1.552871
1044.000000	1.541406
1045.000000	1.538057
1046.000000	1.547263
1047.000000	1.550750
1048.000000	1.551588
1049.000000	1.545138
1050.000000	1.544748
1051.000000	1.552170
1052.000000	1.551601
1053.000000	1.537584
1054.000000	1.537060
1055.000000	1.536884
1056.000000	1.537648
1057.000000	1.531546
1058.000000	1.536178
1059.000000	1.544536
1060.000000	1.538447
1061.000000	1.524224
1062.000000	1.509943
1063.000000	1.500136
1064.000000	1.506106
1065.000000	1.503378
1066.000000	1.501695
1067.000000	1.503928
1068.000000	1.508362
1069.000000	1.495145
1070.000000	1.492258
1071.000000	1.490918
1072.000000	1.491622
1073.000000	1.489231
1074.000000	1.479300
1075.000000	1.471788
1076.000000	1.467639
1077.000000	1.471140
1078.000000	1.473710
1079.000000	1.480608
1080.000000	1.462421
1081.000000	1.456049
1082.000000	1.468704
1083.000000	1.469775
1084.000000	1.480281
1085.000000	1.470723
1086.000000	1.467195
1087.000000	1.468185
1088.000000	1.468023
1089.000000	1.456448
1090.000000	1.460077
1091.000000	1.470362
1092.000000	1.455287
1093.000000	1.465929
1094.000000	1.452442
1095.000000	1.448581
1096.000000	1.442752
1097.000000	1.445012
1098.000000	1.437781
1099.000000	1.442155
1100.000000	1.448369
1101.000000	1.443411
1102.000000	1.437131
1103.000000	1.420175
1104.000000	1.420968
1105.000000	1.414988
1106.000000	1.413062
1107.000000	1.412279
1108.000000	1.404332
1109.000000	1.406097
1110.000000	1.394957
1111.000000	1.391243
1112.000000	1.382760
1113.000000	1.376464
1114.000000	1.364556
1115.000000	1.356100
1116.000000	1.356860
1117.000000	1.349727
1118.000000	1.345204
1119.000000	1.335339
1120.000000	1.322892
1121.000000	1.323341
1122.000000	1.308905
1123.000000	1.300329
1124.000000	1.276951
1125.000000	1.280756
1126.000000	1.276791
1127.000000	1.275060
1128.000000	1.252861
1129.000000	1.241395
1130.000000	1.219349
1131.000000	1.214969
1132.000000	1.204942
1133.000000	1.193691
1134.000000	1.187250
1135.000000	1.191093
1136.000000	1.180633
1137.000000	1.147698
1138.000000	1.150785
1139.000000	1.125147
1140.000000	1.122700
1141.000000	1.115787
1142.000000	1.109269
1143.000000	1.092903
1144.000000	1.078028
1145.000000	1.080713
1146.000000	1.074370
1147.000000	1.066598
1148.000000	1.054072
1149.000000	1.045013
1150.000000	1.045794
1151.000000	1.029505
1152.000000	1.026939
1153.000000	1.019662
1154.000000	1.023636
1155.000000	1.006372
1156.000000	1.006413
1157.000000	0.993358
1158.000000	0.972504
1159.000000	0.961432
1160.000000	0.945320
1161.000000	0.933327
1162.000000	0.924758
1163.000000	0.915604
1164.000000	0.886287
1165.000000	0.883324
1166.000000	0.873465
1167.000000	0.857917
1168.000000	0.835722
1169.000000	0.828919
1170.000000	0.815274
1171.000000	0.809713
1172.000000	0.798337
1173.000000	0.776381
1174.000000	0.772372
1175.000000	0.763838
1176.000000	0.761713
1177.000000	0.758990
1178.000000	0.745235
1179.000000	0.738012
1180.000000	0.728585
1181.000000	0.711452
1182.000000	0.722818
1183.000000	0.715682
1184.000000	0.729433
1185.000000	0.720027
1186.000000	0.718017
1187.000000	0.724161
1188.000000	0.714900
1189.000000	0.711084
1190.000000	0.719759
1191.000000	0.727055
1192.000000	0.732516
1193.000000	0.729330
1194.000000	0.734867
1195.000000	0.745250
1196.000000	0.740110
1197.000000	0.756765
1198.000000	0.758404
1199.000000	0.766572
1200.000000	0.758667
1201.000000	0.771478
1202.000000	0.784515
1203.000000	0.788919
1204.000000	0.771106
1205.000000	0.781688
1206.000000	0.802845
1207.000000	0.809754
1208.000000	0.808682
1209.000000	0.801059
1210.000000	0.803486
1211.000000	0.807997
1212.000000	0.808290
1213.000000	0.814126
1214.000000	0.807907
1215.000000	0.801887
1216.000000	0.799730
1217.000000	0.806579
1218.000000	0.798859
1219.000000	0.786018
1220.000000	0.789728
1221.000000	0.803651
1222.000000	0.803104
1223.000000	0.793882
1224.000000	0.810876
1225.000000	0.812533
1226.000000	0.811531
1227.000000	0.797446
1228.000000	0.785781
1229.000000	0.778015
1230.000000	0.780836
1231.000000	0.781291
1232.000000	0.785020
1233.000000	0.783069
1234.000000	0.794091
1235.000000	0.793588
1236.000000	0.794887
1237.000000	0.781108
1238.000000	0.777794
1239.000000	0.781980
1240.000000	0.788653
1241.000000	0.790702
1242.000000	0.775575
1243.000000	0.773333
1244.000000	0.786544
1245.000000	0.793897
1246.000000	0.793324
1247.000000	0.791315
1248.000000	0.793592
1249.000000	0.801177
1250.000000	0.792899
1251.000000	0.803417
1252.000000	0.810224
1253.000000	0.805843
1254.000000	0.800928
1255.000000	0.808731
1256.000000	0.806438
1257.000000	0.802785
1258.000000	0.800102
1259.000000	0.806710
1260.000000	0.818677
1261.000000	0.817963
1262.000000	0.815070
1263.000000	0.814795
1264.000000	0.816176
1265.000000	0.819010
1266.000000	0.813392
1267.000000	0.811420
1268.000000	0.804205
1269.000000	0.809084
1270.000000	0.812198
1271.000000	0.812252
1272.000000	0.806329
1273.000000	0.794089
1274.000000	0.800923
1275.000000	0.796943
1276.000000	0.792334
1277.000000	0.802363
1278.000000	0.788772
1279.000000	0.772022
1280.000000	0.772625
1281.000000	0.789889
1282.000000	0.796807
1283.000000	0.800684
1284.000000	0.805143
1285.000000	0.797423
1286.000000	0.799231
1287.000000	0.797986
1288.000000	0.790020
1289.000000	0.795068
1290.000000	0.791047
1291.000000	0.788684
1292.000000	0.795538
1293.000000	0.796550
1294.000000	0.791569
1295.000000	0.783221
1296.000000	0.775747
1297.000000	0.781582
1298.000000	0.792240
1299.000000	0.795675
1300.000000	0.790271
1301.000000	0.780835
1302.000000	0.783814
1303.000000	0.777477
1304.000000	0.760488
1305.000000	0.762475
1306.000000	0.759435
1307.000000	0.755337
1308.000000	0.760209
1309.000000	0.753942
1310.000000	0.747103
1311.000000	0.757436
1312.000000	0.752036
1313.000000	0.742994
1314.000000	0.753390
1315.000000	0.753422
1316.000000	0.732008
1317.000000	0.721919
1318.000000	0.722341
1319.000000	0.722492
1320.000000	0.728825
1321.000000	0.732256
1322.000000	0.733475
1323.000000	0.733810
1324.000000	0.729189
1325.000000	0.725480
1326.000000	0.719863
1327.000000	0.714717
1328.000000	0.722854
1329.000000	0.719049
1330.000000	0.714974
1331.000000	0.699065
1332.000000	0.695454
1333.000000	0.698635
1334.000000	0.697356
1335.000000	0.701384
1336.000000	0.708270
1337.000000	0.712663
1338.000000	0.700879
1339.000000	0.698712
1340.000000	0.695930
1341.000000	0.681661
1342.000000	0.672125
1343.000000	0.662319
1344.000000	0.666111
1345.000000	0.658392
1346.000000	0.654939
1347.000000	0.640122
1348.000000	0.644136
1349.000000	0.636047
1350.000000	0.623343
1351.000000	0.615801
1352.000000	0.620429
1353.000000	0.605236
1354.000000	0.598249
1355.000000	0.595442
1356.000000	0.589993
1357.000000	0.593670
1358.000000	0.585450
1359.000000	0.584572
1360.000000	0.601748
1361.000000	0.590357
1362.000000	0.598163
1363.000000	0.587700
1364.000000	0.583019
1365.000000	0.568947
1366.000000	0.574091
1367.000000	0.568343
1368.000000	0.562691
1369.000000	0.533608
1370.000000	0.543623
1371.000000	0.555583
1372.000000	0.532697
1373.000000	0.532764
1374.000000	0.517684
1375.000000	0.512489
1376.000000	0.494216
1377.000000	0.491749
1378.000000	0.490110
1379.000000	0.502429
1380.000000	0.489144
1381.000000	0.491567
1382.000000	0.489512
1383.000000	0.471473
1384.000000	0.469584
1385.000000	0.492436
1386.000000	0.475825
1387.000000	0.491329
1388.000000	0.483838
1389.000000	0.485482
1390.000000	0.501199
1391.000000	0.494978
1392.000000	0.518359
1393.000000	0.522132
1394.000000	0.528179
1395.000000	0.539083
1396.000000	0.542788
1397.000000	0.539956
1398.000000	0.552080
1399.000000	0.570353
1400.000000	0.568020
1401.000000	0.573689
1402.000000	0.603282
1403.000000	0.621184
1404.000000	0.622571
1405.000000	0.642459
1406.000000	0.640853
1407.000000	0.660400
1408.000000	0.677753
1409.000000	0.687402
1410.000000	0.699843
1411.000000	0.693442
1412.000000	0.721617
1413.000000	0.731557
1414.000000	0.742297
1415.000000	0.761617
1416.000000	0.770661
1417.000000	0.779241
1418.000000	0.795150
1419.000000	0.794824
1420.000000	0.806562
1421.000000	0.828033
1422.000000	0.819333
1423.000000	0.823731
1424.000000	0.836841
1425.000000	0.850109
1426.000000	0.851359
1427.000000	0.850422
1428.000000	0.856653
1429.000000	0.867555
1430.000000	0.862811
1431.000000	0.858781
1432.000000	0.882833
1433.000000	0.883937
1434.000000	0.882540
1435.000000	0.884467
1436.000000	0.885858
1437.000000	0.878594
1438.000000	0.890165
1439.000000	0.906416
1440.000000	0.902323
1441.000000	0.917060
1442.000000	0.907819
1443.000000	0.908038
1444.000000	0.914618
1445.000000	0.917148
1446.000000	0.919768
1447.000000	0.924817
1448.000000	0.913266
1449.000000	0.903452
1450.000000	0.926189
1451.000000	0.915003
1452.000000	0.916942
1453.000000	0.924800
1454.000000	0.913317
1455.000000	0.922467
1456.000000	0.912423
1457.000000	0.912785
1458.000000	0.919579
1459.000000	0.918404
1460.000000	0.895485
1461.000000	0.900385
1462.000000	0.912386
1463.000000	0.912469
1464.000000	0.913855
1465.000000	0.920728
1466.000000	0.903591
1467.000000	0.902548
1468.000000	0.895398
1469.000000	0.887804
1470.000000	0.883148
1471.000000	0.873483
1472.000000	0.894100
1473.000000	0.896642
1474.000000	0.902222
1475.000000	0.877865
1476.000000	0.874896
1477.000000	0.875115
1478.000000	0.874607
1479.000000	0.882808
1480.000000	0.891325
1481.000000	0.878678
1482.000000	0.879940
1483.000000	0.876229
1484.000000	0.873263
1485.000000	0.863884
1486.000000	0.863785
1487.000000	0.867720
1488.000000	0.871414
1489.000000	0.873869
1490.000000	0.866728
1491.000000	0.851422
1492.000000	0.864386
1493.000000	0.869697
1494.000000	0.854945
1495.000000	0.857629
1496.000000	0.869172
1497.000000	0.859285
1498.000000	0.854604
1499.000000	0.861234
1500.000000	0.861016
1501.000000	0.861740
1502.000000	0.868438
1503.000000	0.863367
1504.000000	0.848940
1505.000000	0.852122
1506.000000	0.856243
1507.000000	0.859835
1508.000000	0.856552
1509.000000	0.857820
1510.000000	0.860169
1511.000000	0.864054
1512.000000	0.863960
1513.000000	0.875849
1514.000000	0.874270
1515.000000	0.878102
1516.000000	0.877190
1517.000000	0.882799
1518.000000	0.890024
1519.000000	0.889302
1520.000000	0.885788
1521.000000	0.891761
1522.000000	0.894021
1523.000000	0.895080
1524.000000	0.892365
1525.000000	0.894794
1526.000000	0.908796
1527.000000	0.906939
1528.000000	0.895138
1529.000000	0.903030
1530.000000	0.909851
1531.000000	0.906994
1532.000000	0.903403
1533.000000	0.902451
1534.000000	0.899500
1535.000000	0.887973
1536.000000	0.899236
1537.000000	0.902688
1538.000000	0.899829
1539.000000	0.900460
1540.000000	0.897213
1541.000000	0.897930
1542.000000	0.894458
1543.000000	0.889812
1544.000000	0.893394
1545.000000	0.875182
1546.000000	0.869567
1547.000000	0.865222
1548.000000	0.866984
1549.000000	0.862717
1550.000000	0.850588
1551.000000	0.845363
1552.000000	0.842421
1553.000000	0.837082
1554.000000	0.839567
1555.000000	0.845612
1556.000000	0.841370
1557.000000	0.825766
1558.000000	0.812240
1559.000000	0.814876
1560.000000	0.815796
1561.000000	0.811921
1562.000000	0.816727
1563.000000	0.812452
1564.000000	0.796311
1565.000000	0.801761
1566.000000	0.799046
1567.000000	0.805234
1568.000000	0.805952
1569.000000	0.792091
1570.000000	0.788008
1571.000000	0.787320
1572.000000	0.786068
1573.000000	0.775035
1574.000000	0.769683
1575.000000	0.770955
1576.000000	0.775149
1577.000000	0.776169
1578.000000	0.756820
1579.000000	0.747154
1580.000000	0.757458
1581.000000	0.756789
1582.000000	0.745631
1583.000000	0.750902
1584.000000	0.739416
1585.000000	0.724945
1586.000000	0.732789
1587.000000	0.728705
1588.000000	0.724530
1589.000000	0.711882
1590.000000	0.708639
1591.000000	0.706168
1592.000000	0.709051
1593.000000	0.704729
1594.000000	0.692476
1595.000000	0.694043
1596.000000	0.695845
1597.000000	0.686103
1598.000000	0.688069
1599.000000	0.689466
1600.000000	0.682110
1601.000000	0.684847
1602.000000	0.684481
1603.000000	0.675275
1604.000000	0.678064
1605.000000	0.688738
1606.000000	0.680952
1607.000000	0.677901
1608.000000	0.680097
1609.000000	0.664928
1610.000000	0.668932
1611.000000	0.664387
1612.000000	0.663868
1613.000000	0.673394
1614.000000	0.665122
1615.000000	0.667493
1616.000000	0.677106
1617.000000	0.682340
1618.000000	0.674423
1619.000000	0.665425
1620.000000	0.678907
1621.000000	0.680172
1622.000000	0.675392
1623.000000	0.678304
1624.000000	0.679306
1625.000000	0.682851
1626.000000	0.677271
1627.000000	0.680117
1628.000000	0.685151
1629.000000	0.677949
1630.000000	0.690520
1631.000000	0.685484
1632.000000	0.694827
1633.000000	0.696396
1634.000000	0.700303
1635.000000	0.708366
1636.000000	0.702254
1637.000000	0.693754
1638.000000	0.685560
1639.000000	0.686139
1640.000000	0.695552
1641.000000	0.693164
1642.000000	0.699339
1643.000000	0.694150
1644.000000	0.701485
1645.000000	0.704547
1646.000000	0.697122
1647.000000	0.713413
1648.000000	0.709371
1649.000000	0.697388
1650.000000	0.699213
1651.000000	0.710268
1652.000000	0.714424
1653.000000	0.711711
1654.000000	0.703221
1655.000000	0.697751
1656.000000	0.715746
1657.000000	0.731827
1658.000000	0.732811
1659.000000	0.723817
1660.000000	0.714197
1661.000000	0.726310
1662.000000	0.717659
1663.000000	0.738592
1664.000000	0.739237
1665.000000	0.743371
1666.000000	0.753867
1667.000000	0.750510
1668.000000	0.749102
1669.000000	0.766069
1670.000000	0.765811
1671.000000	0.765082
1672.000000	0.783833
1673.000000	0.767840
1674.000000	0.765967
1675.000000	0.768790
1676.000000	0.778607
1677.000000	0.782881
1678.000000	0.781953
1679.000000	0.788437
1680.000000	0.797015
1681.000000	0.798785
1682.000000	0.789291
1683.000000	0.771535
1684.000000	0.798836
1685.000000	0.801060
1686.000000	0.790940
1687.000000	0.803704
1688.000000	0.803343
1689.000000	0.780111
1690.000000	0.772828
1691.000000	0.762181
1692.000000	0.757182
1693.000000	0.740289
1694.000000	0.727964
1695.000000	0.741951
1696.000000	0.729264
1697.000000	0.728964
1698.000000	0.712653
1699.000000	0.719686
1700.000000	0.718161
1701.000000	0.691643
1702.000000	0.695563
1703.000000	0.690749
1704.000000	0.692673
1705.000000	0.677948
1706.000000	0.693668
1707.000000	0.698342
1708.000000	0.697200
1709.000000	0.699900
1710.000000	0.709610
1711.000000	0.723278
1712.000000	0.709846
1713.000000	0.719021
1714.000000	0.720633
1715.000000	0.736552
1716.000000	0.752911
1717.000000	0.766326
1718.000000	0.781601
1719.000000	0.767295
1720.000000	0.783823
1721.000000	0.785992
1722.000000	0.785665
1723.000000	0.780509
1724.000000	0.773139
1725.000000	0.787282
1726.000000	0.779354
1727.000000	0.771928
1728.000000	0.777497
1729.000000	0.775908
1730.000000	0.780373
1731.000000	0.756395
1732.000000	0.770994
1733.000000	0.755779
1734.000000	0.772567
1735.000000	0.774382
1736.000000	0.779055
1737.000000	0.791755
1738.000000	0.777477
1739.000000	0.778417
1740.000000	0.790137
1741.000000	0.769175
1742.000000	0.760327
1743.000000	0.780505
1744.000000	0.771158
1745.000000	0.782453
1746.000000	0.775324
1747.000000	0.755102
1748.000000	0.776847
1749.000000	0.780315
1750.000000	0.775755
1751.000000	0.777475
1752.000000	0.790127
1753.000000	0.787381
1754.000000	0.791346
1755.000000	0.795715
1756.000000	0.797574
1757.000000	0.807163
1758.000000	0.815642
1759.000000	0.802477
1760.000000	0.815602
1761.000000	0.809262
1762.000000	0.797161
1763.000000	0.794425
1764.000000	0.804993
1765.000000	0.813035
1766.000000	0.807476
1767.000000	0.802365
1768.000000	0.804664
1769.000000	0.812331
1770.000000	0.812739
1771.000000	0.805185
1772.000000	0.803204
1773.000000	0.806117
1774.000000	0.807397
1775.000000	0.804901
1776.000000	0.800153
1777.000000	0.800335
1778.000000	0.795330
1779.000000	0.790366
1780.000000	0.790147
1781.000000	0.794500
1782.000000	0.788035
1783.000000	0.794791
1784.000000	0.797380
1785.000000	0.790784
1786.000000	0.786021
1787.000000	0.804488
1788.000000	0.803240
1789.000000	0.802526
1790.000000	0.798686
1791.000000	0.799435
1792.000000	0.797095
1793.000000	0.795012
1794.000000	0.795833
1795.000000	0.785657
1796.000000	0.787682
1797.000000	0.774720
1798.000000	0.776495
1799.000000	0.795556
1800.000000	0.791868
1801.000000	0.780882
1802.000000	0.768224
1803.000000	0.772783
1804.000000	0.777779
1805.000000	0.760493
1806.000000	0.752866
1807.000000	0.743809
1808.000000	0.746785
1809.000000	0.743445
1810.000000	0.744388
1811.000000	0.743501
1812.000000	0.741562
1813.000000	0.745472
1814.000000	0.739819
1815.000000	0.734859
1816.000000	0.731336
1817.000000	0.722382
1818.000000	0.714595
1819.000000	0.729221
1820.000000	0.731637
1821.000000	0.728886
1822.000000	0.725348
1823.000000	0.712923
1824.000000	0.713670
1825.000000	0.719519
1826.000000	0.704418
1827.000000	0.701313
1828.000000	0.709654
1829.000000	0.703842
1830.000000	0.703384
1831.000000	0.703124
1832.000000	0.697162
1833.000000	0.691788
1834.000000	0.692046
1835.000000	0.686581
1836.000000	0.678060
1837.000000	0.678952
1838.000000	0.682789
1839.000000	0.682479
1840.000000	0.670083
1841.000000	0.667836
1842.000000	0.661760
1843.000000	0.652540
1844.000000	0.658428
1845.000000	0.656678
1846.000000	0.652344
1847.000000	0.643816
1848.000000	0.648140
1849.000000	0.656131
1850.000000	0.656258
1851.000000	0.655936
1852.000000	0.653708
1853.000000	0.650901
1854.000000	0.658850
1855.000000	0.665526
1856.000000	0.662628
1857.000000	0.660020
1858.000000	0.665931
1859.000000	0.671525
1860.000000	0.659228
1861.000000	0.660517
1862.000000	0.665089
1863.000000	0.672615
1864.000000	0.687146
1865.000000	0.685492
1866.000000	0.688404
1867.000000	0.688549
1868.000000	0.688302
1869.000000	0.700616
1870.000000	0.703016
1871.000000	0.714912
1872.000000	0.729663
1873.000000	0.720885
1874.000000	0.742214
1875.000000	0.742422
1876.000000	0.747698
1877.000000	0.755500
1878.000000	0.760984
1879.000000	0.781509
1880.000000	0.790839
1881.000000	0.797612
1882.000000	0.808915
1883.000000	0.804892
1884.000000	0.804322
1885.000000	0.822927
1886.000000	0.835255
1887.000000	0.859601
1888.000000	0.867108
1889.000000	0.878613
1890.000000	0.899947
1891.000000	0.905611
1892.000000	0.911705
1893.000000	0.925573
1894.000000	0.939975
1895.000000	0.940352
1896.000000	0.940103
1897.000000	0.929517
1898.000000	0.942426
1899.000000	0.949509
1900.000000	0.960446
1901.000000	0.969480
1902.000000	0.960011
1903.000000	0.955425
1904.000000	0.967142
1905.000000	0.955249
1906.000000	0.968328
1907.000000	0.956455
1908.000000	0.953921
1909.000000	0.956860
1910.000000	0.939212
1911.000000	0.931847
1912.000000	0.925155
1913.000000	0.915902
1914.000000	0.929408
1915.000000	0.926104
1916.000000	0.924309
1917.000000	0.908755
1918.000000	0.906314
1919.000000	0.899972
1920.000000	0.904140
1921.000000	0.907167
1922.000000	0.890595
1923.000000	0.900260
1924.000000	0.892848
1925.000000	0.888729
1926.000000	0.892668
1927.000000	0.881860
1928.000000	0.883119
1929.000000	0.883840
1930.000000	0.887878
1931.000000	0.887274
1932.000000	0.881523
1933.000000	0.874646
1934.000000	0.881338
1935.000000	0.883643
1936.000000	0.863779
1937.000000	0.861057
1938.000000	0.869458
1939.000000	0.880849
1940.000000	0.863036
1941.000000	0.869621
1942.000000	0.872535
1943.000000	0.878177
1944.000000	0.873755
1945.000000	0.863932
1946.000000	0.872201
1947.000000	0.882805
1948.000000	0.867787
1949.000000	0.860662
1950.000000	0.864335
1951.000000	0.869800
1952.000000	0.864514
1953.000000	0.846922
1954.000000	0.869548
1955.000000	0.875306
1956.000000	0.871534
1957.000000	0.862938
1958.000000	0.869684
1959.000000	0.869658
1960.000000	0.861186
1961.000000	0.865925
1962.000000	0.855622
1963.000000	0.847722
1964.000000	0.853801
1965.000000	0.867593
1966.000000	0.859285
1967.000000	0.833499
1968.000000	0.841590
1969.000000	0.844113
1970.000000	0.838753
1971.000000	0.845715
1972.000000	0.840129
1973.000000	0.825814
1974.000000	0.828223
1975.000000	0.823994
1976.000000	0.821193
1977.000000	0.820292
1978.000000	0.821100
1979.000000	0.815932
1980.000000	0.812915
1981.000000	0.810355
1982.000000	0.817607
1983.000000	0.820502
1984.000000	0.808684
1985.000000	0.808443
1986.000000	0.792593
1987.000000	0.798217
1988.000000	0.799944
1989.000000	0.785608
1990.000000	0.785253
1991.000000	0.796943
1992.000000	0.801739
1993.000000	0.779617
1994.000000	0.771369
1995.000000	0.776779
1996.000000	0.785658
1997.000000	0.778555
1998.000000	0.768433
1999.000000	0.772776
2000.000000	0.769039
2001.000000	0.766554
2002.000000	0.770991
2003.000000	0.774703
2004.000000	0.773200
2005.000000	0.760369
2006.000000	0.761756
2007.000000	0.768193
2008.000000	0.753597
2009.000000	0.767205
2010.000000	0.768979
2011.000000	0.761535
2012.000000	0.772020
2013.000000	0.779217
2014.000000	0.767379
2015.000000	0.773075
2016.000000	0.766897
2017.000000	0.780020
2018.000000	0.789904
2019.000000	0.779735
2020.000000	0.785040
2021.000000	0.790508
2022.000000	0.789339
2023.000000	0.790962
2024.000000	0.790515
2025.000000	0.785841
2026.000000	0.803618
2027.000000	0.811734
2028.000000	0.808383
2029.000000	0.797121
2030.000000	0.800404
2031.000000	0.800352
2032.000000	0.814998
2033.000000	0.809733
2034.000000	0.808550
2035.000000	0.828494
2036.000000	0.821838
2037.000000	0.815932
2038.000000	0.834262
2039.000000	0.847693
2040.000000	0.831816
2041.000000	0.826949
2042.000000	0.827719
2043.000000	0.823095
2044.000000	0.824296
2045.000000	0.833444
2046.000000	0.832943
2047.000000	0.830735
2048.000000	0.840741
2049.000000	0.854669
2050.000000	0.839099
2051.000000	0.841469
2052.000000	0.851484
2053.000000	0.848832
2054.000000	0.841852
2055.000000	0.861211
2056.000000	0.856814
2057.000000	0.850543
2058.000000	0.863297
2059.000000	0.850620
2060.000000	0.846165
2061.000000	0.857142
2062.000000	0.864405
2063.000000	0.856623
2064.000000	0.866080
2065.000000	0.858601
2066.000000	0.864421
2067.000000	0.876911
2068.000000	0.868039
2069.000000	0.881567
2070.000000	0.893547
2071.000000	0.882510
2072.000000	0.883243
2073.000000	0.893484
2074.000000	0.894913
2075.000000	0.900027
2076.000000	0.901700
2077.000000	0.907074
2078.000000	0.901508
2079.000000	0.897475
2080.000000	0.907609
2081.000000	0.914519
2082.000000	0.916341
2083.000000	0.919714
2084.000000	0.930440
2085.000000	0.933908
2086.000000	0.922743
2087.000000	0.914804
2088.000000	0.925997
2089.000000	0.941553
2090.000000	0.945609
2091.000000	0.930745
2092.000000	0.930825
2093.000000	0.942648
2094.000000	0.942039
2095.000000	0.932579
2096.000000	0.936641
2097.000000	0.939995
2098.000000	0.938756
2099.000000	0.941074
2100.000000	0.945747
2101.000000	0.943543
2102.000000	0.937874
2103.000000	0.932990
2104.000000	0.930527
2105.000000	0.933210
2106.000000	0.929715
2107.000000	0.920772
2108.000000	0.918054
2109.000000	0.920124
2110.000000	0.920598
2111.000000	0.921900
2112.000000	0.925926
2113.000000	0.918323
2114.000000	0.928223
2115.000000	0.930302
2116.000000	0.918655
2117.000000	0.919693
2118.000000	0.925475
2119.000000	0.914205
2120.000000	0.921642
2121.000000	0.925833
2122.000000	0.907734
2123.000000	0.902450
2124.000000	0.898411
2125.000000	0.905559
2126.000000	0.912252
2127.000000	0.906426
2128.000000	0.903496
2129.000000	0.911676
2130.000000	0.917399
2131.000000	0.891903
2132.000000	0.885842
2133.000000	0.899646
2134.000000	0.903204
2135.000000	0.892550
2136.000000	0.883073
2137.000000	0.880117
2138.000000	0.877024
2139.000000	0.880804
2140.000000	0.888112
2141.000000	0.892378
2142.000000	0.895563
2143.000000	0.896459
2144.000000	0.885707
2145.000000	0.871124
2146.000000	0.872554
2147.000000	0.885636
2148.000000	0.879780
2149.000000	0.874147
2150.000000	0.866449
2151.000000	0.848083
2152.000000	0.848232
2153.000000	0.858896
2154.000000	0.848038
2155.000000	0.850898
2156.000000	0.835144
2157.000000	0.843821
2158.000000	0.848030
2159.000000	0.831121
2160.000000	0.824618
2161.000000	0.822931
2162.000000	0.812603
2163.000000	0.812910
2164.000000	0.812717
2165.000000	0.813124
2166.000000	0.813741
2167.000000	0.797940
2168.000000	0.792292
2169.000000	0.794102
2170.000000	0.795163
2171.000000	0.781366
2172.000000	0.776443
2173.000000	0.765379
2174.000000	0.766945
2175.000000	0.776497
2176.000000	0.770429
2177.000000	0.752641
2178.000000	0.754586
2179.000000	0.746973
2180.000000	0.758921
2181.000000	0.740027
2182.000000	0.731062
2183.000000	0.727958
2184.000000	0.732147
2185.000000	0.723331
2186.000000	0.723813
2187.000000	0.710695
2188.000000	0.695424
2189.000000	0.688633
2190.000000	0.675661
2191.000000	0.676019
2192.000000	0.667289
2193.000000	0.658903
2194.000000	0.635823
2195.000000	0.637504
2196.000000	0.626100
2197.000000	0.614333
2198.000000	0.605222
2199.000000	0.602131
2200.000000	0.592948
2201.000000	0.584932
2202.000000	0.567884
2203.000000	0.560600
2204.000000	0.550317
2205.000000	0.542755
2206.000000	0.529049
2207.000000	0.541448
2208.000000	0.523942
2209.000000	0.542495
2210.000000	0.545926
2211.000000	0.525628
2212.000000	0.528505
2213.000000	0.540457
2214.000000	0.535977
2215.000000	0.541603
2216.000000	0.556158
2217.000000	0.545208
2218.000000	0.531618
2219.000000	0.548416
2220.000000	0.554598
2221.000000	0.540495
2222.000000	0.554227
2223.000000	0.551667
2224.000000	0.568237
2225.000000	0.572183
2226.000000	0.570255
2227.000000	0.571449
2228.000000	0.564213
2229.000000	0.564707
2230.000000	0.559533
2231.000000	0.581472
2232.000000	0.606646
2233.000000	0.593411
2234.000000	0.593164
2235.000000	0.582937
2236.000000	0.583208
2237.000000	0.610091
2238.000000	0.602297
2239.000000	0.586945
2240.000000	0.593512
2241.000000	0.589455
2242.000000	0.624341
2243.000000	0.610266
2244.000000	0.610984
2245.000000	0.597987
2246.000000	0.608111
2247.000000	0.610929
2248.000000	0.617399
2249.000000	0.621700
2250.000000	0.625173
2251.000000	0.619871
2252.000000	0.630238
2253.000000	0.628779
2254.000000	0.629749
2255.000000	0.626224
2256.000000	0.628394
2257.000000	0.646372
2258.000000	0.637925
2259.000000	0.629274
2260.000000	0.632962
2261.000000	0.636032
2262.000000	0.646439
2263.000000	0.649136
2264.000000	0.644772
2265.000000	0.660945
2266.000000	0.660891
2267.000000	0.652081
2268.000000	0.650822
2269.000000	0.661359
2270.000000	0.675655
2271.000000	0.677043
2272.000000	0.665484
2273.000000	0.676494
2274.000000	0.672482
2275.000000	0.681667
2276.000000	0.678372
2277.000000	0.699362
2278.000000	0.706555
2279.000000	0.700384
2280.000000	0.692041
2281.000000	0.701347
2282.000000	0.704230
2283.000000	0.706473
2284.000000	0.720865
2285.000000	0.699358
2286.000000	0.726370
2287.000000	0.721517
2288.000000	0.714532
2289.000000	0.722919
2290.000000	0.731698
2291.000000	0.744851
2292.000000	0.722632
2293.000000	0.744820
2294.000000	0.759693
2295.000000	0.749068
2296.000000	0.740052
2297.000000	0.744507
2298.000000	0.745565
2299.000000	0.749382
2300.000000	0.760813
2301.000000	0.766174
2302.000000	0.754685
2303.000000	0.758137
2304.000000	0.767356
2305.000000	0.773529
2306.000000	0.779754
2307.000000	0.784853
2308.000000	0.786675
2309.000000	0.774843
2310.000000	0.778608
2311.000000	0.785325
2312.000000	0.801059
2313.000000	0.802804
2314.000000	0.807314
2315.000000	0.791645
2316.000000	0.795848
2317.000000	0.801740
2318.000000	0.804821
2319.000000	0.805437
2320.000000	0.810170
2321.000000	0.796582
2322.000000	0.802151
2323.000000	0.802892
2324.000000	0.802789
2325.000000	0.809610
2326.000000	0.807091
2327.000000	0.801318
2328.000000	0.799180
2329.000000	0.808057
2330.000000	0.813669
2331.000000	0.812038
2332.000000	0.808227
2333.000000	0.798516
2334.000000	0.799374
2335.000000	0.805349
2336.000000	0.801355
2337.000000	0.795363
2338.000000	0.797450
2339.000000	0.793780
2340.000000	0.791783
2341.000000	0.790381
2342.000000	0.784135
2343.000000	0.784172
2344.000000	0.779366
2345.000000	0.782682
2346.000000	0.785188
2347.000000	0.782712
2348.000000	0.777122
2349.000000	0.776722
2350.000000	0.775268
2351.000000	0.782089
2352.000000	0.779715
2353.000000	0.770596
2354.000000	0.764262
2355.000000	0.768911
2356.000000	0.777343
2357.000000	0.764191
2358.000000	0.760954
2359.000000	0.769771
2360.000000	0.761220
2361.000000	0.754218
2362.000000	0.750273
2363.000000	0.753400
2364.000000	0.760041
2365.000000	0.755282
2366.000000	0.757380
2367.000000	0.753948
2368.000000	0.748532
2369.000000	0.739804
2370.000000	0.734329
2371.000000	0.748455
2372.000000	0.753272
2373.000000	0.738193
2374.000000	0.735625
2375.000000	0.735607
2376.000000	0.731219
2377.000000	0.734278
2378.000000	0.730538
2379.000000	0.716423
2380.000000	0.719724
2381.000000	0.728348
2382.000000	0.723456
2383.000000	0.718147
2384.000000	0.725725
2385.000000	0.721493
2386.000000	0.713525
2387.000000	0.715722
2388.000000	0.718131
2389.000000	0.718554
2390.000000	0.706336
2391.000000	0.696331
2392.000000	0.691461
2393.000000	0.699426
2394.000000	0.702858
2395.000000	0.701923
2396.000000	0.694780
2397.000000	0.701726
2398.000000	0.705290
2399.000000	0.693944
2400.000000	0.681981
2401.000000	0.686722
2402.000000	0.690796
2403.000000	0.680572
2404.000000	0.678825
2405.000000	0.686231
2406.000000	0.674115
2407.000000	0.668121
2408.000000	0.669728
2409.000000	0.674163
2410.000000	0.667015
2411.000000	0.654661
2412.000000	0.656143
2413.000000	0.655356
2414.000000	0.653561
2415.000000	0.651043
2416.000000	0.645465
2417.000000	0.639098
2418.000000	0.641923
2419.000000	0.637041
2420.000000	0.638089
2421.000000	0.630311
2422.000000	0.623622
2423.000000	0.623976
2424.000000	0.630203
2425.000000	0.634913
2426.000000	0.614708
2427.000000	0.625306
2428.000000	0.623416
2429.000000	0.611414
2430.000000	0.605267
2431.000000	0.605817
2432.000000	0.604160
2433.000000	0.597734
2434.000000	0.589631
2435.000000	0.587181
2436.000000	0.587662
2437.000000	0.572375
2438.000000	0.579455
2439.000000	0.574615
2440.000000	0.574741
2441.000000	0.573990
2442.000000	0.573106
2443.000000	0.566838
2444.000000	0.557221
2445.000000	0.551353
2446.000000	0.559922
2447.000000	0.545400
2448.000000	0.552836
2449.000000	0.551298
2450.000000	0.540538
2451.000000	0.535827
2452.000000	0.515683
2453.000000	0.529806
2454.000000	0.529192
2455.000000	0.539156
2456.000000	0.526276
2457.000000	0.515824
2458.000000	0.528144
2459.000000	0.521644
2460.000000	0.525237
2461.000000	0.508519
2462.000000	0.514575
2463.000000	0.477541
2464.000000	0.524356
2465.000000	0.511112
2466.000000	0.501275
2467.000000	0.495680
2468.000000	0.502378
2469.000000	0.490002
2470.000000	0.509189
2471.000000	0.493877
2472.000000	0.499647
2473.000000	0.506740
2474.000000	0.507567
2475.000000	0.494024
2476.000000	0.497799
2477.000000	0.526550
2478.000000	0.458824
2479.000000	0.491617
2480.000000	0.465509
2481.000000	0.486787
2482.000000	0.494710
2483.000000	0.484394
2484.000000	0.479026
2485.000000	0.485062
2486.000000	0.449744
2487.000000	0.471943
2488.000000	0.468872
2489.000000	0.507995
2490.000000	0.540419
2491.000000	0.465849
2492.000000	0.481281
2493.000000	0.524214
2494.000000	0.480613
2495.000000	0.520440
2496.000000	0.474344
2497.000000	0.496430
2498.000000	0.514400
2499.000000	0.526911
2500.000000	0.444234
