PE UV       SUBTECH     SPECTRUM    ASCII       PEDS        4.00        
   -1
BIOUCR0028-3.Sample.ASC
24/02/20
14:55:38.00
24/02/20
14:55:38.00
Vinicio Soto Monge
P. resplendens 18 de Mayo de 1985 R.W. Volcan, Panama
250,000000
1
Lambda 1050
1050L1511233
PerkinElmer UV WinLab 6.3.2.0749 / 2.02.05 Lambda 900 UV/VIS/NIR, Aug  7 2015 09:38:08

0
0
3350/servo 860,8/2
0
0
UV/VIS
1
1
1
DoubleDePol,CommonBeamDepol,RBeamAtt,SBeamAtt,60mm sphere, WB InGaAs Detector
0
0
0
0
Program
Program
3350/servo 860,8/2
3350/0,2 860,8/0,2
3350/0,2 860,8/0,2
0
15.00
 
 
 
0
 
860,8
319,2
860,8
Front
100
on
S:100 R:100
0
0
0
0
 
0
 
 
 
0
 
 
0
0
0
0
0
 
 
 
 
0
0


0
0
#HDR
-1
-1
#GR
nm
%R
1.0
0.0
2500,000000
-1,000000
2251
8
22,424700
1,665500
#DATA

250.000000	0.123535
251.000000	0.114148
252.000000	0.110393
253.000000	0.118121
254.000000	0.104898
255.000000	0.134163
256.000000	0.131350
257.000000	0.130830
258.000000	0.117763
259.000000	0.131540
260.000000	0.112224
261.000000	0.136471
262.000000	0.098801
263.000000	0.136452
264.000000	0.108041
265.000000	0.135221
266.000000	0.146286
267.000000	0.117488
268.000000	0.110322
269.000000	0.114687
270.000000	0.115485
271.000000	0.084775
272.000000	0.105504
273.000000	0.105720
274.000000	0.113743
275.000000	0.092276
276.000000	0.109211
277.000000	0.099407
278.000000	0.109994
279.000000	0.112336
280.000000	0.098364
281.000000	0.100112
282.000000	0.102989
283.000000	0.097527
284.000000	0.090896
285.000000	0.097308
286.000000	0.105967
287.000000	0.087914
288.000000	0.103850
289.000000	0.086475
290.000000	0.088956
291.000000	0.109037
292.000000	0.099823
293.000000	0.096498
294.000000	0.097122
295.000000	0.085722
296.000000	0.086253
297.000000	0.079041
298.000000	0.083931
299.000000	0.090371
300.000000	0.084758
301.000000	0.072139
302.000000	0.081490
303.000000	0.077748
304.000000	0.103320
305.000000	0.079501
306.000000	0.077339
307.000000	0.056885
308.000000	0.062518
309.000000	0.065685
310.000000	0.060624
311.000000	0.072100
312.000000	0.085400
313.000000	0.069700
314.000000	0.053758
315.000000	0.069664
316.000000	0.065399
317.000000	0.065744
318.000000	0.004619
319.000000	0.035857
320.000000	0.068453
321.000000	0.060341
322.000000	0.049077
323.000000	0.052397
324.000000	0.036813
325.000000	0.022305
326.000000	0.007507
327.000000	0.081778
328.000000	0.048849
329.000000	0.064924
330.000000	0.050139
331.000000	0.061789
332.000000	0.067198
333.000000	0.072531
334.000000	0.037993
335.000000	0.023168
336.000000	0.031541
337.000000	0.045220
338.000000	0.066220
339.000000	0.032570
340.000000	0.040829
341.000000	0.027022
342.000000	0.040401
343.000000	0.052851
344.000000	0.063858
345.000000	0.051326
346.000000	0.022084
347.000000	0.048968
348.000000	0.050258
349.000000	0.033172
350.000000	0.022213
351.000000	0.026104
352.000000	0.046224
353.000000	0.048666
354.000000	0.080765
355.000000	0.059742
356.000000	0.041585
357.000000	0.042114
358.000000	0.049176
359.000000	0.058550
360.000000	0.047355
361.000000	0.061004
362.000000	0.059931
363.000000	0.063664
364.000000	0.050942
365.000000	0.066451
366.000000	0.058961
367.000000	0.057906
368.000000	0.072791
369.000000	0.084333
370.000000	0.089226
371.000000	0.078294
372.000000	0.063797
373.000000	0.040515
374.000000	0.085402
375.000000	0.082895
376.000000	0.071030
377.000000	0.077389
378.000000	0.075037
379.000000	0.078766
380.000000	0.090510
381.000000	0.094502
382.000000	0.099025
383.000000	0.100523
384.000000	0.114364
385.000000	0.112709
386.000000	0.117890
387.000000	0.124935
388.000000	0.132847
389.000000	0.139131
390.000000	0.146866
391.000000	0.156519
392.000000	0.162979
393.000000	0.178358
394.000000	0.187110
395.000000	0.197411
396.000000	0.208330
397.000000	0.221009
398.000000	0.231398
399.000000	0.244824
400.000000	0.258904
401.000000	0.276262
402.000000	0.286443
403.000000	0.301541
404.000000	0.309020
405.000000	0.324802
406.000000	0.338837
407.000000	0.350266
408.000000	0.363309
409.000000	0.376055
410.000000	0.392899
411.000000	0.401139
412.000000	0.411714
413.000000	0.422697
414.000000	0.433762
415.000000	0.442995
416.000000	0.452306
417.000000	0.460838
418.000000	0.462434
419.000000	0.466880
420.000000	0.468390
421.000000	0.471474
422.000000	0.479201
423.000000	0.482494
424.000000	0.484205
425.000000	0.486368
426.000000	0.488532
427.000000	0.485975
428.000000	0.486816
429.000000	0.488604
430.000000	0.486186
431.000000	0.481030
432.000000	0.475706
433.000000	0.474959
434.000000	0.470345
435.000000	0.463924
436.000000	0.457969
437.000000	0.450601
438.000000	0.449135
439.000000	0.439075
440.000000	0.423471
441.000000	0.412371
442.000000	0.403628
443.000000	0.395232
444.000000	0.382667
445.000000	0.367818
446.000000	0.353618
447.000000	0.342065
448.000000	0.329408
449.000000	0.309446
450.000000	0.292612
451.000000	0.281135
452.000000	0.264438
453.000000	0.246207
454.000000	0.232971
455.000000	0.219029
456.000000	0.202912
457.000000	0.186750
458.000000	0.168467
459.000000	0.157644
460.000000	0.149513
461.000000	0.137706
462.000000	0.135115
463.000000	0.140992
464.000000	0.153516
465.000000	0.174348
466.000000	0.202164
467.000000	0.235720
468.000000	0.271379
469.000000	0.312214
470.000000	0.353682
471.000000	0.394578
472.000000	0.438762
473.000000	0.486043
474.000000	0.533342
475.000000	0.578639
476.000000	0.623818
477.000000	0.663628
478.000000	0.704310
479.000000	0.732679
480.000000	0.754307
481.000000	0.769537
482.000000	0.787261
483.000000	0.803980
484.000000	0.814180
485.000000	0.828633
486.000000	0.839752
487.000000	0.847274
488.000000	0.849695
489.000000	0.851403
490.000000	0.856838
491.000000	0.852153
492.000000	0.853863
493.000000	0.863179
494.000000	0.873665
495.000000	0.882511
496.000000	0.898339
497.000000	0.915125
498.000000	0.942369
499.000000	0.972159
500.000000	1.001892
501.000000	1.036375
502.000000	1.068656
503.000000	1.107386
504.000000	1.158828
505.000000	1.193466
506.000000	1.223056
507.000000	1.259304
508.000000	1.307879
509.000000	1.342322
510.000000	1.380251
511.000000	1.416877
512.000000	1.440506
513.000000	1.469340
514.000000	1.489095
515.000000	1.500661
516.000000	1.512242
517.000000	1.520247
518.000000	1.504784
519.000000	1.497880
520.000000	1.475248
521.000000	1.457231
522.000000	1.437032
523.000000	1.409914
524.000000	1.389975
525.000000	1.370006
526.000000	1.353855
527.000000	1.335060
528.000000	1.307192
529.000000	1.302932
530.000000	1.298451
531.000000	1.282171
532.000000	1.269271
533.000000	1.250333
534.000000	1.239426
535.000000	1.217246
536.000000	1.196341
537.000000	1.172082
538.000000	1.140669
539.000000	1.111837
540.000000	1.081482
541.000000	1.061888
542.000000	1.042368
543.000000	1.025426
544.000000	1.002950
545.000000	0.985674
546.000000	0.976594
547.000000	0.976060
548.000000	0.961764
549.000000	0.954785
550.000000	0.961286
551.000000	0.969285
552.000000	0.955070
553.000000	0.944689
554.000000	0.929693
555.000000	0.918566
556.000000	0.908647
557.000000	0.894744
558.000000	0.852031
559.000000	0.828613
560.000000	0.806026
561.000000	0.772912
562.000000	0.743779
563.000000	0.708111
564.000000	0.673779
565.000000	0.642592
566.000000	0.626004
567.000000	0.608320
568.000000	0.585671
569.000000	0.565331
570.000000	0.554299
571.000000	0.535595
572.000000	0.534626
573.000000	0.541228
574.000000	0.545831
575.000000	0.534577
576.000000	0.528053
577.000000	0.538870
578.000000	0.538494
579.000000	0.537274
580.000000	0.525519
581.000000	0.519338
582.000000	0.504074
583.000000	0.477814
584.000000	0.440405
585.000000	0.414694
586.000000	0.368950
587.000000	0.334214
588.000000	0.306909
589.000000	0.258869
590.000000	0.231469
591.000000	0.209135
592.000000	0.186951
593.000000	0.175009
594.000000	0.168737
595.000000	0.167876
596.000000	0.158797
597.000000	0.185030
598.000000	0.204127
599.000000	0.237740
600.000000	0.278249
601.000000	0.303544
602.000000	0.348143
603.000000	0.387031
604.000000	0.422376
605.000000	0.454356
606.000000	0.454637
607.000000	0.450438
608.000000	0.458352
609.000000	0.454432
610.000000	0.450259
611.000000	0.438131
612.000000	0.424000
613.000000	0.412180
614.000000	0.414846
615.000000	0.414024
616.000000	0.430758
617.000000	0.425790
618.000000	0.457117
619.000000	0.472082
620.000000	0.491337
621.000000	0.491453
622.000000	0.425647
623.000000	0.451269
624.000000	0.477399
625.000000	0.515110
626.000000	0.561696
627.000000	0.555511
628.000000	0.602763
629.000000	0.647087
630.000000	0.665873
631.000000	0.668016
632.000000	0.687037
633.000000	0.695943
634.000000	0.705002
635.000000	0.716542
636.000000	0.721015
637.000000	0.744589
638.000000	0.744522
639.000000	0.754656
640.000000	0.752527
641.000000	0.762375
642.000000	0.769974
643.000000	0.768274
644.000000	0.763702
645.000000	0.773304
646.000000	0.773838
647.000000	0.764553
648.000000	0.758566
649.000000	0.738381
650.000000	0.725287
651.000000	0.711711
652.000000	0.714243
653.000000	0.719863
654.000000	0.708996
655.000000	0.704513
656.000000	0.691733
657.000000	0.700315
658.000000	0.718564
659.000000	0.737505
660.000000	0.752399
661.000000	0.787389
662.000000	0.834573
663.000000	0.888158
664.000000	0.911217
665.000000	0.910281
666.000000	0.933569
667.000000	0.978867
668.000000	1.021771
669.000000	1.065550
670.000000	1.106932
671.000000	1.139944
672.000000	1.156389
673.000000	1.169148
674.000000	1.185257
675.000000	1.203180
676.000000	1.240940
677.000000	1.271659
678.000000	1.248692
679.000000	1.199055
680.000000	1.140895
681.000000	1.138709
682.000000	1.128718
683.000000	1.116996
684.000000	1.101717
685.000000	1.095986
686.000000	1.078693
687.000000	1.079751
688.000000	1.128713
689.000000	1.127942
690.000000	1.134255
691.000000	1.161656
692.000000	1.152882
693.000000	1.161865
694.000000	1.199348
695.000000	1.239264
696.000000	1.290829
697.000000	1.331768
698.000000	1.366827
699.000000	1.413210
700.000000	1.458887
701.000000	1.518599
702.000000	1.570178
703.000000	1.622622
704.000000	1.652603
705.000000	1.675149
706.000000	1.702674
707.000000	1.730440
708.000000	1.751989
709.000000	1.771750
710.000000	1.790126
711.000000	1.795257
712.000000	1.786905
713.000000	1.779235
714.000000	1.773154
715.000000	1.724381
716.000000	1.677477
717.000000	1.647246
718.000000	1.607875
719.000000	1.569446
720.000000	1.531092
721.000000	1.470071
722.000000	1.433051
723.000000	1.420237
724.000000	1.373827
725.000000	1.325876
726.000000	1.277589
727.000000	1.210148
728.000000	1.185673
729.000000	1.176075
730.000000	1.147645
731.000000	1.128968
732.000000	1.099946
733.000000	1.080508
734.000000	1.096768
735.000000	1.092213
736.000000	1.077561
737.000000	1.060497
738.000000	1.035181
739.000000	1.041769
740.000000	1.058561
741.000000	1.068682
742.000000	1.075163
743.000000	1.069710
744.000000	1.057087
745.000000	1.046358
746.000000	1.053861
747.000000	1.063209
748.000000	1.059088
749.000000	1.043941
750.000000	1.051453
751.000000	1.028578
752.000000	0.986981
753.000000	0.986275
754.000000	0.983258
755.000000	0.975049
756.000000	0.971890
757.000000	0.947389
758.000000	0.946772
759.000000	0.957045
760.000000	0.963065
761.000000	0.945474
762.000000	0.921962
763.000000	0.917363
764.000000	0.920648
765.000000	0.912127
766.000000	0.922930
767.000000	0.911434
768.000000	0.888632
769.000000	0.910062
770.000000	0.931845
771.000000	0.931420
772.000000	0.926014
773.000000	0.932194
774.000000	0.957904
775.000000	0.926068
776.000000	0.896938
777.000000	0.919388
778.000000	0.888581
779.000000	0.874321
780.000000	0.921276
781.000000	0.921409
782.000000	0.905903
783.000000	0.901944
784.000000	0.872418
785.000000	0.919460
786.000000	0.912160
787.000000	0.885885
788.000000	0.892228
789.000000	0.865857
790.000000	0.841969
791.000000	0.829105
792.000000	0.823747
793.000000	0.765561
794.000000	0.742624
795.000000	0.767820
796.000000	0.760477
797.000000	0.733567
798.000000	0.704968
799.000000	0.633398
800.000000	0.610312
801.000000	0.598891
802.000000	0.563248
803.000000	0.532662
804.000000	0.503783
805.000000	0.424128
806.000000	0.417037
807.000000	0.383965
808.000000	0.344603
809.000000	0.307127
810.000000	0.223915
811.000000	0.198411
812.000000	0.188818
813.000000	0.139898
814.000000	0.154664
815.000000	0.192128
816.000000	0.213954
817.000000	0.224636
818.000000	0.267425
819.000000	0.317640
820.000000	0.319254
821.000000	0.342709
822.000000	0.379240
823.000000	0.394361
824.000000	0.400179
825.000000	0.454177
826.000000	0.459878
827.000000	0.452107
828.000000	0.523224
829.000000	0.550996
830.000000	0.494532
831.000000	0.506370
832.000000	0.507710
833.000000	0.512198
834.000000	0.507282
835.000000	0.535555
836.000000	0.544151
837.000000	0.481221
838.000000	0.474453
839.000000	0.416965
840.000000	0.416137
841.000000	0.513115
842.000000	0.477949
843.000000	0.380743
844.000000	0.327058
845.000000	0.412452
846.000000	0.397282
847.000000	0.442971
848.000000	0.383736
849.000000	0.337899
850.000000	0.368266
851.000000	0.371910
852.000000	0.211556
853.000000	0.276469
854.000000	0.305283
855.000000	0.260575
856.000000	0.320770
857.000000	0.374484
858.000000	1.033475
859.000000	0.399210
860.000000	0.410465
861.000000	0.442887
862.000000	0.427313
863.000000	0.419081
864.000000	0.416439
865.000000	0.410096
866.000000	0.395178
867.000000	0.353855
868.000000	0.346399
869.000000	0.344571
870.000000	0.321019
871.000000	0.302438
872.000000	0.272926
873.000000	0.250060
874.000000	0.229378
875.000000	0.199166
876.000000	0.174137
877.000000	0.145613
878.000000	0.126351
879.000000	0.101324
880.000000	0.061735
881.000000	0.065471
882.000000	0.085256
883.000000	0.105887
884.000000	0.135431
885.000000	0.163798
886.000000	0.179899
887.000000	0.234001
888.000000	0.258379
889.000000	0.290467
890.000000	0.296584
891.000000	0.310300
892.000000	0.336877
893.000000	0.404122
894.000000	0.427721
895.000000	0.465927
896.000000	0.461164
897.000000	0.494035
898.000000	0.515773
899.000000	0.554751
900.000000	0.565849
901.000000	0.602433
902.000000	0.619658
903.000000	0.657071
904.000000	0.646282
905.000000	0.635168
906.000000	0.652685
907.000000	0.690037
908.000000	0.712902
909.000000	0.724161
910.000000	0.712818
911.000000	0.699825
912.000000	0.728466
913.000000	0.757388
914.000000	0.763897
915.000000	0.751502
916.000000	0.762856
917.000000	0.752727
918.000000	0.783041
919.000000	0.795865
920.000000	0.783197
921.000000	0.813309
922.000000	0.822111
923.000000	0.844428
924.000000	0.856178
925.000000	0.883431
926.000000	0.880545
927.000000	0.907323
928.000000	0.919689
929.000000	0.914994
930.000000	0.933484
931.000000	0.957285
932.000000	0.958477
933.000000	0.992265
934.000000	1.007526
935.000000	1.004040
936.000000	1.015997
937.000000	1.024228
938.000000	1.052557
939.000000	1.062026
940.000000	1.072579
941.000000	1.103164
942.000000	1.104514
943.000000	1.123035
944.000000	1.135016
945.000000	1.146366
946.000000	1.153282
947.000000	1.175788
948.000000	1.185844
949.000000	1.188862
950.000000	1.208111
951.000000	1.199021
952.000000	1.222248
953.000000	1.230751
954.000000	1.228512
955.000000	1.252612
956.000000	1.255341
957.000000	1.253000
958.000000	1.258939
959.000000	1.246690
960.000000	1.258957
961.000000	1.266482
962.000000	1.284759
963.000000	1.293121
964.000000	1.291965
965.000000	1.301743
966.000000	1.302603
967.000000	1.317196
968.000000	1.331466
969.000000	1.330694
970.000000	1.345993
971.000000	1.363060
972.000000	1.367131
973.000000	1.384802
974.000000	1.381922
975.000000	1.378329
976.000000	1.383253
977.000000	1.396997
978.000000	1.409801
979.000000	1.421140
980.000000	1.425420
981.000000	1.428833
982.000000	1.429470
983.000000	1.445696
984.000000	1.453189
985.000000	1.463864
986.000000	1.469256
987.000000	1.470531
988.000000	1.467381
989.000000	1.483489
990.000000	1.495866
991.000000	1.511543
992.000000	1.517091
993.000000	1.515205
994.000000	1.521958
995.000000	1.520526
996.000000	1.522496
997.000000	1.522454
998.000000	1.516619
999.000000	1.515075
1000.000000	1.516183
1001.000000	1.518316
1002.000000	1.516063
1003.000000	1.524805
1004.000000	1.541562
1005.000000	1.537956
1006.000000	1.525012
1007.000000	1.518880
1008.000000	1.528504
1009.000000	1.535420
1010.000000	1.537517
1011.000000	1.542073
1012.000000	1.551479
1013.000000	1.559861
1014.000000	1.560616
1015.000000	1.550334
1016.000000	1.533303
1017.000000	1.527594
1018.000000	1.522878
1019.000000	1.524183
1020.000000	1.528434
1021.000000	1.528682
1022.000000	1.534358
1023.000000	1.548912
1024.000000	1.541588
1025.000000	1.528883
1026.000000	1.535654
1027.000000	1.533722
1028.000000	1.525677
1029.000000	1.521328
1030.000000	1.516277
1031.000000	1.516411
1032.000000	1.515999
1033.000000	1.518125
1034.000000	1.517743
1035.000000	1.514216
1036.000000	1.508483
1037.000000	1.504017
1038.000000	1.501881
1039.000000	1.509374
1040.000000	1.518567
1041.000000	1.521725
1042.000000	1.524534
1043.000000	1.526163
1044.000000	1.529593
1045.000000	1.532247
1046.000000	1.528819
1047.000000	1.530923
1048.000000	1.531073
1049.000000	1.537080
1050.000000	1.543945
1051.000000	1.543554
1052.000000	1.544149
1053.000000	1.549631
1054.000000	1.548898
1055.000000	1.539422
1056.000000	1.546790
1057.000000	1.545370
1058.000000	1.553962
1059.000000	1.560305
1060.000000	1.567278
1061.000000	1.563951
1062.000000	1.558682
1063.000000	1.551829
1064.000000	1.544502
1065.000000	1.546246
1066.000000	1.546117
1067.000000	1.537527
1068.000000	1.537451
1069.000000	1.529767
1070.000000	1.517285
1071.000000	1.516720
1072.000000	1.515223
1073.000000	1.508743
1074.000000	1.507926
1075.000000	1.502111
1076.000000	1.480919
1077.000000	1.477755
1078.000000	1.477090
1079.000000	1.492165
1080.000000	1.475593
1081.000000	1.476885
1082.000000	1.465491
1083.000000	1.462965
1084.000000	1.469039
1085.000000	1.461692
1086.000000	1.460338
1087.000000	1.467909
1088.000000	1.466630
1089.000000	1.455731
1090.000000	1.458685
1091.000000	1.473518
1092.000000	1.475886
1093.000000	1.477204
1094.000000	1.471013
1095.000000	1.484977
1096.000000	1.484878
1097.000000	1.486915
1098.000000	1.502089
1099.000000	1.506073
1100.000000	1.494869
1101.000000	1.499415
1102.000000	1.502736
1103.000000	1.509553
1104.000000	1.510191
1105.000000	1.512487
1106.000000	1.527011
1107.000000	1.525383
1108.000000	1.523657
1109.000000	1.517559
1110.000000	1.523714
1111.000000	1.515607
1112.000000	1.526057
1113.000000	1.525699
1114.000000	1.517363
1115.000000	1.517787
1116.000000	1.521333
1117.000000	1.508189
1118.000000	1.511128
1119.000000	1.509100
1120.000000	1.502925
1121.000000	1.497399
1122.000000	1.483880
1123.000000	1.488609
1124.000000	1.489958
1125.000000	1.489537
1126.000000	1.479490
1127.000000	1.481966
1128.000000	1.481438
1129.000000	1.483216
1130.000000	1.492778
1131.000000	1.483683
1132.000000	1.468914
1133.000000	1.456971
1134.000000	1.446031
1135.000000	1.454311
1136.000000	1.462930
1137.000000	1.459752
1138.000000	1.448620
1139.000000	1.452064
1140.000000	1.438482
1141.000000	1.447755
1142.000000	1.448574
1143.000000	1.438716
1144.000000	1.434284
1145.000000	1.430582
1146.000000	1.443740
1147.000000	1.461416
1148.000000	1.458528
1149.000000	1.453775
1150.000000	1.462680
1151.000000	1.463208
1152.000000	1.457318
1153.000000	1.474615
1154.000000	1.481965
1155.000000	1.469321
1156.000000	1.479869
1157.000000	1.474193
1158.000000	1.478908
1159.000000	1.493644
1160.000000	1.503452
1161.000000	1.495248
1162.000000	1.477570
1163.000000	1.479369
1164.000000	1.483193
1165.000000	1.492964
1166.000000	1.478155
1167.000000	1.457830
1168.000000	1.466841
1169.000000	1.469230
1170.000000	1.455918
1171.000000	1.467909
1172.000000	1.460120
1173.000000	1.451440
1174.000000	1.461879
1175.000000	1.460396
1176.000000	1.466444
1177.000000	1.453719
1178.000000	1.429693
1179.000000	1.444689
1180.000000	1.443755
1181.000000	1.443979
1182.000000	1.449552
1183.000000	1.436403
1184.000000	1.425732
1185.000000	1.433467
1186.000000	1.443212
1187.000000	1.421127
1188.000000	1.409406
1189.000000	1.408776
1190.000000	1.416776
1191.000000	1.412685
1192.000000	1.407293
1193.000000	1.429012
1194.000000	1.435479
1195.000000	1.422420
1196.000000	1.417939
1197.000000	1.433602
1198.000000	1.433309
1199.000000	1.445055
1200.000000	1.434443
1201.000000	1.444545
1202.000000	1.443109
1203.000000	1.445770
1204.000000	1.454833
1205.000000	1.459562
1206.000000	1.472031
1207.000000	1.455399
1208.000000	1.467851
1209.000000	1.479250
1210.000000	1.488985
1211.000000	1.470380
1212.000000	1.475908
1213.000000	1.477855
1214.000000	1.489633
1215.000000	1.494384
1216.000000	1.503453
1217.000000	1.510581
1218.000000	1.512862
1219.000000	1.514754
1220.000000	1.505282
1221.000000	1.512647
1222.000000	1.506019
1223.000000	1.514398
1224.000000	1.514502
1225.000000	1.513490
1226.000000	1.501696
1227.000000	1.499432
1228.000000	1.500304
1229.000000	1.493918
1230.000000	1.493697
1231.000000	1.496520
1232.000000	1.492992
1233.000000	1.476900
1234.000000	1.478810
1235.000000	1.466957
1236.000000	1.463537
1237.000000	1.464612
1238.000000	1.457727
1239.000000	1.444037
1240.000000	1.448635
1241.000000	1.432429
1242.000000	1.415164
1243.000000	1.420857
1244.000000	1.424050
1245.000000	1.423048
1246.000000	1.434513
1247.000000	1.433850
1248.000000	1.428680
1249.000000	1.423225
1250.000000	1.406132
1251.000000	1.412908
1252.000000	1.419616
1253.000000	1.419102
1254.000000	1.422705
1255.000000	1.425909
1256.000000	1.425145
1257.000000	1.420981
1258.000000	1.423053
1259.000000	1.428131
1260.000000	1.427318
1261.000000	1.429205
1262.000000	1.430388
1263.000000	1.428163
1264.000000	1.426522
1265.000000	1.422361
1266.000000	1.421227
1267.000000	1.436146
1268.000000	1.440854
1269.000000	1.455805
1270.000000	1.454272
1271.000000	1.449039
1272.000000	1.451925
1273.000000	1.445984
1274.000000	1.448891
1275.000000	1.457935
1276.000000	1.470955
1277.000000	1.469729
1278.000000	1.457724
1279.000000	1.463331
1280.000000	1.478078
1281.000000	1.474290
1282.000000	1.481711
1283.000000	1.490616
1284.000000	1.493241
1285.000000	1.499807
1286.000000	1.509121
1287.000000	1.517205
1288.000000	1.514492
1289.000000	1.515184
1290.000000	1.519095
1291.000000	1.514725
1292.000000	1.516264
1293.000000	1.512958
1294.000000	1.501126
1295.000000	1.501673
1296.000000	1.506991
1297.000000	1.504243
1298.000000	1.499716
1299.000000	1.501038
1300.000000	1.502756
1301.000000	1.499690
1302.000000	1.492719
1303.000000	1.487823
1304.000000	1.488935
1305.000000	1.480968
1306.000000	1.473014
1307.000000	1.476594
1308.000000	1.485070
1309.000000	1.488105
1310.000000	1.476212
1311.000000	1.468765
1312.000000	1.467138
1313.000000	1.460722
1314.000000	1.460577
1315.000000	1.453111
1316.000000	1.443214
1317.000000	1.445428
1318.000000	1.442444
1319.000000	1.436056
1320.000000	1.432180
1321.000000	1.437555
1322.000000	1.434406
1323.000000	1.430897
1324.000000	1.431563
1325.000000	1.416468
1326.000000	1.417109
1327.000000	1.423084
1328.000000	1.416928
1329.000000	1.422737
1330.000000	1.421594
1331.000000	1.420830
1332.000000	1.409299
1333.000000	1.411501
1334.000000	1.417567
1335.000000	1.414508
1336.000000	1.412348
1337.000000	1.401524
1338.000000	1.404802
1339.000000	1.415325
1340.000000	1.426218
1341.000000	1.430184
1342.000000	1.434805
1343.000000	1.437384
1344.000000	1.434086
1345.000000	1.435756
1346.000000	1.429651
1347.000000	1.423654
1348.000000	1.435400
1349.000000	1.453457
1350.000000	1.462962
1351.000000	1.460635
1352.000000	1.463370
1353.000000	1.451737
1354.000000	1.444513
1355.000000	1.446741
1356.000000	1.472359
1357.000000	1.470675
1358.000000	1.459623
1359.000000	1.457382
1360.000000	1.446545
1361.000000	1.440724
1362.000000	1.472167
1363.000000	1.489990
1364.000000	1.475227
1365.000000	1.470657
1366.000000	1.495357
1367.000000	1.476990
1368.000000	1.465555
1369.000000	1.495256
1370.000000	1.470154
1371.000000	1.464518
1372.000000	1.484254
1373.000000	1.494183
1374.000000	1.476262
1375.000000	1.461595
1376.000000	1.418329
1377.000000	1.401734
1378.000000	1.396615
1379.000000	1.376431
1380.000000	1.390763
1381.000000	1.365202
1382.000000	1.343472
1383.000000	1.348553
1384.000000	1.353958
1385.000000	1.357636
1386.000000	1.352894
1387.000000	1.327156
1388.000000	1.326675
1389.000000	1.344532
1390.000000	1.363888
1391.000000	1.349283
1392.000000	1.350222
1393.000000	1.356039
1394.000000	1.349285
1395.000000	1.335499
1396.000000	1.353783
1397.000000	1.382442
1398.000000	1.386906
1399.000000	1.356163
1400.000000	1.345316
1401.000000	1.362587
1402.000000	1.388100
1403.000000	1.379610
1404.000000	1.363816
1405.000000	1.378017
1406.000000	1.383653
1407.000000	1.402821
1408.000000	1.382759
1409.000000	1.368899
1410.000000	1.384342
1411.000000	1.381899
1412.000000	1.370087
1413.000000	1.368898
1414.000000	1.363236
1415.000000	1.389951
1416.000000	1.393096
1417.000000	1.391107
1418.000000	1.391689
1419.000000	1.371076
1420.000000	1.398106
1421.000000	1.401055
1422.000000	1.378144
1423.000000	1.371595
1424.000000	1.379562
1425.000000	1.385900
1426.000000	1.406987
1427.000000	1.378928
1428.000000	1.376782
1429.000000	1.386530
1430.000000	1.381311
1431.000000	1.383853
1432.000000	1.399647
1433.000000	1.393362
1434.000000	1.412654
1435.000000	1.410048
1436.000000	1.398991
1437.000000	1.403821
1438.000000	1.386573
1439.000000	1.395475
1440.000000	1.402637
1441.000000	1.410113
1442.000000	1.415584
1443.000000	1.414120
1444.000000	1.409692
1445.000000	1.411378
1446.000000	1.422547
1447.000000	1.425045
1448.000000	1.433370
1449.000000	1.427234
1450.000000	1.423670
1451.000000	1.434080
1452.000000	1.438067
1453.000000	1.438261
1454.000000	1.450399
1455.000000	1.446515
1456.000000	1.451970
1457.000000	1.452038
1458.000000	1.452838
1459.000000	1.467637
1460.000000	1.474419
1461.000000	1.462107
1462.000000	1.452089
1463.000000	1.456625
1464.000000	1.448018
1465.000000	1.438943
1466.000000	1.465062
1467.000000	1.462634
1468.000000	1.461602
1469.000000	1.473184
1470.000000	1.473037
1471.000000	1.468186
1472.000000	1.467794
1473.000000	1.469954
1474.000000	1.462655
1475.000000	1.478418
1476.000000	1.469436
1477.000000	1.460178
1478.000000	1.449425
1479.000000	1.446641
1480.000000	1.444103
1481.000000	1.443282
1482.000000	1.459419
1483.000000	1.438505
1484.000000	1.426628
1485.000000	1.436112
1486.000000	1.439713
1487.000000	1.433962
1488.000000	1.428041
1489.000000	1.399576
1490.000000	1.406652
1491.000000	1.399049
1492.000000	1.390320
1493.000000	1.382435
1494.000000	1.390330
1495.000000	1.393902
1496.000000	1.381820
1497.000000	1.383696
1498.000000	1.378601
1499.000000	1.371113
1500.000000	1.369867
1501.000000	1.357838
1502.000000	1.369219
1503.000000	1.362355
1504.000000	1.345853
1505.000000	1.333044
1506.000000	1.336285
1507.000000	1.342621
1508.000000	1.332894
1509.000000	1.337749
1510.000000	1.333470
1511.000000	1.329299
1512.000000	1.336692
1513.000000	1.334945
1514.000000	1.326590
1515.000000	1.318405
1516.000000	1.326885
1517.000000	1.331134
1518.000000	1.335431
1519.000000	1.317600
1520.000000	1.314272
1521.000000	1.326403
1522.000000	1.326429
1523.000000	1.317643
1524.000000	1.319851
1525.000000	1.322315
1526.000000	1.322315
1527.000000	1.336166
1528.000000	1.341373
1529.000000	1.340072
1530.000000	1.342585
1531.000000	1.343140
1532.000000	1.357304
1533.000000	1.368669
1534.000000	1.354896
1535.000000	1.347993
1536.000000	1.352468
1537.000000	1.362882
1538.000000	1.363624
1539.000000	1.360929
1540.000000	1.361332
1541.000000	1.371836
1542.000000	1.374855
1543.000000	1.368119
1544.000000	1.369487
1545.000000	1.381476
1546.000000	1.386119
1547.000000	1.384815
1548.000000	1.383072
1549.000000	1.390733
1550.000000	1.387909
1551.000000	1.384574
1552.000000	1.382871
1553.000000	1.380964
1554.000000	1.385988
1555.000000	1.390635
1556.000000	1.388355
1557.000000	1.390988
1558.000000	1.393968
1559.000000	1.398786
1560.000000	1.398407
1561.000000	1.394053
1562.000000	1.395520
1563.000000	1.403112
1564.000000	1.409759
1565.000000	1.401390
1566.000000	1.395302
1567.000000	1.388113
1568.000000	1.386507
1569.000000	1.393750
1570.000000	1.389799
1571.000000	1.388979
1572.000000	1.398807
1573.000000	1.400938
1574.000000	1.386103
1575.000000	1.385552
1576.000000	1.395352
1577.000000	1.388811
1578.000000	1.383790
1579.000000	1.384611
1580.000000	1.376959
1581.000000	1.367746
1582.000000	1.369416
1583.000000	1.365961
1584.000000	1.363686
1585.000000	1.359131
1586.000000	1.366147
1587.000000	1.367207
1588.000000	1.355651
1589.000000	1.349277
1590.000000	1.344688
1591.000000	1.337283
1592.000000	1.329860
1593.000000	1.335914
1594.000000	1.337828
1595.000000	1.330943
1596.000000	1.331483
1597.000000	1.325565
1598.000000	1.318514
1599.000000	1.320843
1600.000000	1.317689
1601.000000	1.327045
1602.000000	1.318669
1603.000000	1.303876
1604.000000	1.313590
1605.000000	1.321617
1606.000000	1.313887
1607.000000	1.310300
1608.000000	1.311970
1609.000000	1.307712
1610.000000	1.304549
1611.000000	1.302409
1612.000000	1.318826
1613.000000	1.310238
1614.000000	1.297079
1615.000000	1.301090
1616.000000	1.295175
1617.000000	1.294312
1618.000000	1.294031
1619.000000	1.302123
1620.000000	1.307039
1621.000000	1.304302
1622.000000	1.303302
1623.000000	1.299347
1624.000000	1.310673
1625.000000	1.324271
1626.000000	1.308593
1627.000000	1.313029
1628.000000	1.304042
1629.000000	1.311215
1630.000000	1.309583
1631.000000	1.308373
1632.000000	1.314804
1633.000000	1.326686
1634.000000	1.323161
1635.000000	1.327769
1636.000000	1.330065
1637.000000	1.332985
1638.000000	1.336865
1639.000000	1.334012
1640.000000	1.339563
1641.000000	1.351632
1642.000000	1.342430
1643.000000	1.358154
1644.000000	1.372182
1645.000000	1.364278
1646.000000	1.364994
1647.000000	1.371843
1648.000000	1.370291
1649.000000	1.368921
1650.000000	1.370973
1651.000000	1.382726
1652.000000	1.390554
1653.000000	1.386639
1654.000000	1.393678
1655.000000	1.395540
1656.000000	1.417280
1657.000000	1.404919
1658.000000	1.414020
1659.000000	1.421816
1660.000000	1.422775
1661.000000	1.414433
1662.000000	1.427947
1663.000000	1.424855
1664.000000	1.427274
1665.000000	1.422555
1666.000000	1.433889
1667.000000	1.450947
1668.000000	1.437892
1669.000000	1.419615
1670.000000	1.435541
1671.000000	1.446982
1672.000000	1.452117
1673.000000	1.439126
1674.000000	1.428620
1675.000000	1.428092
1676.000000	1.442727
1677.000000	1.441376
1678.000000	1.435283
1679.000000	1.438636
1680.000000	1.438380
1681.000000	1.438872
1682.000000	1.426332
1683.000000	1.420656
1684.000000	1.419841
1685.000000	1.415179
1686.000000	1.413064
1687.000000	1.401337
1688.000000	1.404205
1689.000000	1.378712
1690.000000	1.357603
1691.000000	1.348253
1692.000000	1.376129
1693.000000	1.360461
1694.000000	1.341670
1695.000000	1.354814
1696.000000	1.346250
1697.000000	1.336323
1698.000000	1.300303
1699.000000	1.325437
1700.000000	1.319717
1701.000000	1.321476
1702.000000	1.309874
1703.000000	1.315893
1704.000000	1.306392
1705.000000	1.291131
1706.000000	1.304937
1707.000000	1.296969
1708.000000	1.299944
1709.000000	1.316051
1710.000000	1.307044
1711.000000	1.305760
1712.000000	1.314886
1713.000000	1.313053
1714.000000	1.313195
1715.000000	1.314577
1716.000000	1.321539
1717.000000	1.309636
1718.000000	1.307995
1719.000000	1.300502
1720.000000	1.312571
1721.000000	1.314044
1722.000000	1.305735
1723.000000	1.290782
1724.000000	1.292009
1725.000000	1.269540
1726.000000	1.270228
1727.000000	1.276151
1728.000000	1.260017
1729.000000	1.251914
1730.000000	1.265345
1731.000000	1.261436
1732.000000	1.249974
1733.000000	1.259665
1734.000000	1.257476
1735.000000	1.240089
1736.000000	1.253184
1737.000000	1.262345
1738.000000	1.252955
1739.000000	1.229082
1740.000000	1.233608
1741.000000	1.231998
1742.000000	1.242939
1743.000000	1.235324
1744.000000	1.228195
1745.000000	1.233066
1746.000000	1.249163
1747.000000	1.242093
1748.000000	1.251088
1749.000000	1.246570
1750.000000	1.245369
1751.000000	1.235319
1752.000000	1.247535
1753.000000	1.242490
1754.000000	1.270029
1755.000000	1.264303
1756.000000	1.264640
1757.000000	1.268245
1758.000000	1.274292
1759.000000	1.290970
1760.000000	1.285869
1761.000000	1.283583
1762.000000	1.279764
1763.000000	1.288094
1764.000000	1.278491
1765.000000	1.289512
1766.000000	1.297008
1767.000000	1.305224
1768.000000	1.311437
1769.000000	1.318309
1770.000000	1.307562
1771.000000	1.317022
1772.000000	1.318662
1773.000000	1.323047
1774.000000	1.322294
1775.000000	1.319045
1776.000000	1.330408
1777.000000	1.330704
1778.000000	1.333503
1779.000000	1.335232
1780.000000	1.329941
1781.000000	1.335857
1782.000000	1.349877
1783.000000	1.350878
1784.000000	1.345899
1785.000000	1.344611
1786.000000	1.349779
1787.000000	1.348203
1788.000000	1.349020
1789.000000	1.355234
1790.000000	1.350748
1791.000000	1.353727
1792.000000	1.363568
1793.000000	1.359076
1794.000000	1.354892
1795.000000	1.359559
1796.000000	1.360013
1797.000000	1.364791
1798.000000	1.364883
1799.000000	1.359927
1800.000000	1.359158
1801.000000	1.354948
1802.000000	1.361594
1803.000000	1.377821
1804.000000	1.370761
1805.000000	1.359331
1806.000000	1.354780
1807.000000	1.366225
1808.000000	1.366300
1809.000000	1.355276
1810.000000	1.342242
1811.000000	1.350352
1812.000000	1.356265
1813.000000	1.348313
1814.000000	1.343035
1815.000000	1.351039
1816.000000	1.366676
1817.000000	1.361028
1818.000000	1.363978
1819.000000	1.349086
1820.000000	1.334501
1821.000000	1.342310
1822.000000	1.367364
1823.000000	1.380974
1824.000000	1.364725
1825.000000	1.352260
1826.000000	1.338543
1827.000000	1.329628
1828.000000	1.338712
1829.000000	1.342282
1830.000000	1.332269
1831.000000	1.342776
1832.000000	1.353398
1833.000000	1.335713
1834.000000	1.317980
1835.000000	1.305119
1836.000000	1.309275
1837.000000	1.319706
1838.000000	1.320479
1839.000000	1.313750
1840.000000	1.311367
1841.000000	1.314111
1842.000000	1.312980
1843.000000	1.322844
1844.000000	1.327213
1845.000000	1.311349
1846.000000	1.282174
1847.000000	1.254624
1848.000000	1.257264
1849.000000	1.296709
1850.000000	1.327629
1851.000000	1.306873
1852.000000	1.272926
1853.000000	1.260612
1854.000000	1.267762
1855.000000	1.270178
1856.000000	1.276183
1857.000000	1.272911
1858.000000	1.261585
1859.000000	1.253471
1860.000000	1.265044
1861.000000	1.275351
1862.000000	1.268118
1863.000000	1.267267
1864.000000	1.270851
1865.000000	1.240999
1866.000000	1.235617
1867.000000	1.235258
1868.000000	1.236221
1869.000000	1.231080
1870.000000	1.210928
1871.000000	1.220500
1872.000000	1.232960
1873.000000	1.244312
1874.000000	1.263161
1875.000000	1.264791
1876.000000	1.262967
1877.000000	1.262488
1878.000000	1.251993
1879.000000	1.252571
1880.000000	1.241564
1881.000000	1.224030
1882.000000	1.232307
1883.000000	1.226354
1884.000000	1.233123
1885.000000	1.239012
1886.000000	1.236808
1887.000000	1.241443
1888.000000	1.233476
1889.000000	1.225724
1890.000000	1.227518
1891.000000	1.229914
1892.000000	1.233264
1893.000000	1.247736
1894.000000	1.240758
1895.000000	1.236859
1896.000000	1.217441
1897.000000	1.195934
1898.000000	1.191259
1899.000000	1.190901
1900.000000	1.197941
1901.000000	1.187731
1902.000000	1.181542
1903.000000	1.163980
1904.000000	1.166206
1905.000000	1.160545
1906.000000	1.158342
1907.000000	1.155903
1908.000000	1.153469
1909.000000	1.136215
1910.000000	1.122928
1911.000000	1.095595
1912.000000	1.075997
1913.000000	1.077192
1914.000000	1.084528
1915.000000	1.082553
1916.000000	1.070515
1917.000000	1.058313
1918.000000	1.040441
1919.000000	1.017475
1920.000000	1.023914
1921.000000	1.017325
1922.000000	1.025296
1923.000000	1.024318
1924.000000	1.016425
1925.000000	1.008278
1926.000000	1.008751
1927.000000	0.997911
1928.000000	0.999964
1929.000000	0.990360
1930.000000	1.003449
1931.000000	1.004074
1932.000000	1.016932
1933.000000	1.000613
1934.000000	0.987708
1935.000000	1.001743
1936.000000	1.000334
1937.000000	0.992679
1938.000000	1.001085
1939.000000	1.010151
1940.000000	1.015266
1941.000000	1.016685
1942.000000	1.009482
1943.000000	1.009915
1944.000000	1.006840
1945.000000	1.022362
1946.000000	1.016998
1947.000000	1.032162
1948.000000	1.030229
1949.000000	1.042231
1950.000000	1.038158
1951.000000	1.050098
1952.000000	1.034281
1953.000000	1.037379
1954.000000	1.040111
1955.000000	1.056806
1956.000000	1.048819
1957.000000	1.051265
1958.000000	1.053217
1959.000000	1.059069
1960.000000	1.069928
1961.000000	1.064530
1962.000000	1.078951
1963.000000	1.068284
1964.000000	1.074391
1965.000000	1.078045
1966.000000	1.069741
1967.000000	1.096520
1968.000000	1.087863
1969.000000	1.079904
1970.000000	1.072219
1971.000000	1.080772
1972.000000	1.097979
1973.000000	1.093656
1974.000000	1.095189
1975.000000	1.099316
1976.000000	1.096398
1977.000000	1.084800
1978.000000	1.087340
1979.000000	1.095792
1980.000000	1.111765
1981.000000	1.092342
1982.000000	1.083627
1983.000000	1.094532
1984.000000	1.095936
1985.000000	1.087777
1986.000000	1.079905
1987.000000	1.092458
1988.000000	1.104024
1989.000000	1.094994
1990.000000	1.089485
1991.000000	1.074891
1992.000000	1.088152
1993.000000	1.087018
1994.000000	1.086970
1995.000000	1.091269
1996.000000	1.088493
1997.000000	1.094512
1998.000000	1.081404
1999.000000	1.089581
2000.000000	1.084790
2001.000000	1.074366
2002.000000	1.083340
2003.000000	1.075388
2004.000000	1.067079
2005.000000	1.070618
2006.000000	1.064431
2007.000000	1.074370
2008.000000	1.071634
2009.000000	1.074993
2010.000000	1.083252
2011.000000	1.079225
2012.000000	1.078021
2013.000000	1.090421
2014.000000	1.080160
2015.000000	1.076837
2016.000000	1.082242
2017.000000	1.062006
2018.000000	1.069226
2019.000000	1.060225
2020.000000	1.072810
2021.000000	1.084055
2022.000000	1.069136
2023.000000	1.069046
2024.000000	1.073019
2025.000000	1.057015
2026.000000	1.067887
2027.000000	1.063099
2028.000000	1.068023
2029.000000	1.054711
2030.000000	1.048116
2031.000000	1.057996
2032.000000	1.056690
2033.000000	1.062207
2034.000000	1.056855
2035.000000	1.048941
2036.000000	1.041389
2037.000000	1.057738
2038.000000	1.035791
2039.000000	1.032020
2040.000000	1.029039
2041.000000	1.022923
2042.000000	1.009371
2043.000000	1.014443
2044.000000	1.001522
2045.000000	1.002254
2046.000000	1.010560
2047.000000	1.003205
2048.000000	0.996713
2049.000000	1.002991
2050.000000	0.991799
2051.000000	0.975151
2052.000000	0.980601
2053.000000	0.977630
2054.000000	0.981494
2055.000000	0.976993
2056.000000	0.978007
2057.000000	0.980161
2058.000000	0.971836
2059.000000	0.976006
2060.000000	0.976672
2061.000000	0.976092
2062.000000	0.976279
2063.000000	0.990914
2064.000000	0.993015
2065.000000	0.983177
2066.000000	0.983476
2067.000000	0.991297
2068.000000	1.004473
2069.000000	1.010610
2070.000000	1.009721
2071.000000	1.010980
2072.000000	1.011265
2073.000000	1.004748
2074.000000	1.002434
2075.000000	1.009284
2076.000000	1.009256
2077.000000	1.008480
2078.000000	1.007552
2079.000000	1.004949
2080.000000	1.008546
2081.000000	1.013757
2082.000000	1.019907
2083.000000	1.022419
2084.000000	1.031248
2085.000000	1.026667
2086.000000	1.022518
2087.000000	1.035052
2088.000000	1.037786
2089.000000	1.039406
2090.000000	1.053950
2091.000000	1.047001
2092.000000	1.032701
2093.000000	1.037525
2094.000000	1.035912
2095.000000	1.036740
2096.000000	1.040825
2097.000000	1.035041
2098.000000	1.027301
2099.000000	1.027631
2100.000000	1.034062
2101.000000	1.034359
2102.000000	1.037164
2103.000000	1.041719
2104.000000	1.033387
2105.000000	1.027597
2106.000000	1.031818
2107.000000	1.036839
2108.000000	1.025827
2109.000000	1.023858
2110.000000	1.037294
2111.000000	1.041297
2112.000000	1.036223
2113.000000	1.033612
2114.000000	1.029997
2115.000000	1.035114
2116.000000	1.033054
2117.000000	1.022293
2118.000000	1.031591
2119.000000	1.028326
2120.000000	1.016798
2121.000000	1.020703
2122.000000	1.029272
2123.000000	1.032513
2124.000000	1.036632
2125.000000	1.029443
2126.000000	1.024119
2127.000000	1.017873
2128.000000	1.026526
2129.000000	1.033749
2130.000000	1.031080
2131.000000	1.023679
2132.000000	1.023096
2133.000000	1.024850
2134.000000	1.009571
2135.000000	1.002625
2136.000000	1.005271
2137.000000	1.010750
2138.000000	1.010766
2139.000000	1.005104
2140.000000	1.003576
2141.000000	1.003350
2142.000000	0.984272
2143.000000	0.989354
2144.000000	0.987700
2145.000000	0.974164
2146.000000	0.970388
2147.000000	0.987916
2148.000000	0.999755
2149.000000	0.997701
2150.000000	0.980551
2151.000000	0.984950
2152.000000	0.983905
2153.000000	0.974690
2154.000000	0.967957
2155.000000	0.965679
2156.000000	0.959183
2157.000000	0.954117
2158.000000	0.959560
2159.000000	0.960540
2160.000000	0.951092
2161.000000	0.945430
2162.000000	0.928667
2163.000000	0.925964
2164.000000	0.928940
2165.000000	0.930008
2166.000000	0.927831
2167.000000	0.926965
2168.000000	0.923138
2169.000000	0.907030
2170.000000	0.904860
2171.000000	0.916960
2172.000000	0.911726
2173.000000	0.905833
2174.000000	0.899374
2175.000000	0.888963
2176.000000	0.901167
2177.000000	0.895679
2178.000000	0.892588
2179.000000	0.884324
2180.000000	0.871376
2181.000000	0.876770
2182.000000	0.862646
2183.000000	0.871525
2184.000000	0.876501
2185.000000	0.859725
2186.000000	0.853832
2187.000000	0.832673
2188.000000	0.828136
2189.000000	0.821137
2190.000000	0.806340
2191.000000	0.803181
2192.000000	0.789004
2193.000000	0.790065
2194.000000	0.776174
2195.000000	0.774787
2196.000000	0.744562
2197.000000	0.720554
2198.000000	0.711087
2199.000000	0.714243
2200.000000	0.711108
2201.000000	0.688117
2202.000000	0.676912
2203.000000	0.667706
2204.000000	0.655417
2205.000000	0.642715
2206.000000	0.627814
2207.000000	0.636423
2208.000000	0.637341
2209.000000	0.631000
2210.000000	0.623063
2211.000000	0.624574
2212.000000	0.628708
2213.000000	0.612953
2214.000000	0.620127
2215.000000	0.618773
2216.000000	0.633489
2217.000000	0.636985
2218.000000	0.652962
2219.000000	0.648588
2220.000000	0.637003
2221.000000	0.653906
2222.000000	0.647633
2223.000000	0.672066
2224.000000	0.662318
2225.000000	0.666879
2226.000000	0.664594
2227.000000	0.659405
2228.000000	0.669651
2229.000000	0.681534
2230.000000	0.678664
2231.000000	0.678950
2232.000000	0.683718
2233.000000	0.665133
2234.000000	0.667359
2235.000000	0.668552
2236.000000	0.680357
2237.000000	0.700024
2238.000000	0.686501
2239.000000	0.682088
2240.000000	0.672958
2241.000000	0.674567
2242.000000	0.671021
2243.000000	0.671135
2244.000000	0.668365
2245.000000	0.676752
2246.000000	0.674366
2247.000000	0.675672
2248.000000	0.675415
2249.000000	0.666259
2250.000000	0.658051
2251.000000	0.666260
2252.000000	0.662738
2253.000000	0.658477
2254.000000	0.656370
2255.000000	0.661400
2256.000000	0.653365
2257.000000	0.661884
2258.000000	0.638150
2259.000000	0.642733
2260.000000	0.643940
2261.000000	0.628965
2262.000000	0.642253
2263.000000	0.630735
2264.000000	0.639781
2265.000000	0.642214
2266.000000	0.630175
2267.000000	0.634662
2268.000000	0.640822
2269.000000	0.641561
2270.000000	0.640231
2271.000000	0.641473
2272.000000	0.647470
2273.000000	0.647961
2274.000000	0.659079
2275.000000	0.646920
2276.000000	0.636112
2277.000000	0.643157
2278.000000	0.641520
2279.000000	0.647011
2280.000000	0.629177
2281.000000	0.634571
2282.000000	0.638899
2283.000000	0.645131
2284.000000	0.633969
2285.000000	0.635099
2286.000000	0.639484
2287.000000	0.648260
2288.000000	0.645327
2289.000000	0.647215
2290.000000	0.640190
2291.000000	0.642700
2292.000000	0.640154
2293.000000	0.644201
2294.000000	0.637253
2295.000000	0.625984
2296.000000	0.635163
2297.000000	0.636929
2298.000000	0.626354
2299.000000	0.632735
2300.000000	0.631374
2301.000000	0.645910
2302.000000	0.651411
2303.000000	0.636489
2304.000000	0.645661
2305.000000	0.640427
2306.000000	0.637989
2307.000000	0.638965
2308.000000	0.645864
2309.000000	0.650279
2310.000000	0.658315
2311.000000	0.664777
2312.000000	0.671515
2313.000000	0.674772
2314.000000	0.665546
2315.000000	0.673407
2316.000000	0.670251
2317.000000	0.660662
2318.000000	0.665047
2319.000000	0.688031
2320.000000	0.687892
2321.000000	0.678303
2322.000000	0.686455
2323.000000	0.681783
2324.000000	0.682156
2325.000000	0.688081
2326.000000	0.678613
2327.000000	0.683977
2328.000000	0.686069
2329.000000	0.685522
2330.000000	0.675123
2331.000000	0.665588
2332.000000	0.674742
2333.000000	0.666833
2334.000000	0.669833
2335.000000	0.666840
2336.000000	0.655338
2337.000000	0.659012
2338.000000	0.657020
2339.000000	0.652070
2340.000000	0.650809
2341.000000	0.651007
2342.000000	0.641252
2343.000000	0.640391
2344.000000	0.643689
2345.000000	0.641581
2346.000000	0.644106
2347.000000	0.638323
2348.000000	0.626981
2349.000000	0.639275
2350.000000	0.646196
2351.000000	0.630964
2352.000000	0.630691
2353.000000	0.637322
2354.000000	0.636970
2355.000000	0.636806
2356.000000	0.634822
2357.000000	0.632511
2358.000000	0.629847
2359.000000	0.627329
2360.000000	0.635466
2361.000000	0.627397
2362.000000	0.621431
2363.000000	0.635375
2364.000000	0.630537
2365.000000	0.624474
2366.000000	0.628534
2367.000000	0.621613
2368.000000	0.624651
2369.000000	0.617094
2370.000000	0.616607
2371.000000	0.626712
2372.000000	0.621260
2373.000000	0.616477
2374.000000	0.614478
2375.000000	0.603172
2376.000000	0.599431
2377.000000	0.610903
2378.000000	0.608237
2379.000000	0.599423
2380.000000	0.601093
2381.000000	0.604415
2382.000000	0.598549
2383.000000	0.597443
2384.000000	0.596857
2385.000000	0.595097
2386.000000	0.589652
2387.000000	0.584394
2388.000000	0.585081
2389.000000	0.579607
2390.000000	0.583406
2391.000000	0.580777
2392.000000	0.569108
2393.000000	0.567908
2394.000000	0.573650
2395.000000	0.571200
2396.000000	0.556284
2397.000000	0.551999
2398.000000	0.554260
2399.000000	0.556151
2400.000000	0.549794
2401.000000	0.548004
2402.000000	0.542827
2403.000000	0.551879
2404.000000	0.543504
2405.000000	0.528261
2406.000000	0.531415
2407.000000	0.521476
2408.000000	0.520745
2409.000000	0.516448
2410.000000	0.519781
2411.000000	0.522014
2412.000000	0.505318
2413.000000	0.501681
2414.000000	0.502934
2415.000000	0.502759
2416.000000	0.503264
2417.000000	0.497843
2418.000000	0.486145
2419.000000	0.478700
2420.000000	0.462547
2421.000000	0.468357
2422.000000	0.464676
2423.000000	0.456959
2424.000000	0.444771
2425.000000	0.449909
2426.000000	0.445386
2427.000000	0.447203
2428.000000	0.450638
2429.000000	0.437016
2430.000000	0.441502
2431.000000	0.450002
2432.000000	0.443562
2433.000000	0.437290
2434.000000	0.437273
2435.000000	0.435697
2436.000000	0.429781
2437.000000	0.434025
2438.000000	0.425997
2439.000000	0.428754
2440.000000	0.427145
2441.000000	0.416560
2442.000000	0.424799
2443.000000	0.416914
2444.000000	0.414291
2445.000000	0.406873
2446.000000	0.404869
2447.000000	0.407101
2448.000000	0.400038
2449.000000	0.380225
2450.000000	0.388976
2451.000000	0.398401
2452.000000	0.393714
2453.000000	0.390251
2454.000000	0.383968
2455.000000	0.377689
2456.000000	0.378270
2457.000000	0.357225
2458.000000	0.367406
2459.000000	0.348252
2460.000000	0.358090
2461.000000	0.376826
2462.000000	0.373510
2463.000000	0.351677
2464.000000	0.361524
2465.000000	0.341135
2466.000000	0.326629
2467.000000	0.354830
2468.000000	0.347925
2469.000000	0.339710
2470.000000	0.336224
2471.000000	0.313822
2472.000000	0.328873
2473.000000	0.316676
2474.000000	0.348586
2475.000000	0.354384
2476.000000	0.353338
2477.000000	0.348421
2478.000000	0.311025
2479.000000	0.355586
2480.000000	0.326831
2481.000000	0.330807
2482.000000	0.324119
2483.000000	0.298376
2484.000000	0.322983
2485.000000	0.338289
2486.000000	0.363203
2487.000000	0.328915
2488.000000	0.329030
2489.000000	0.351408
2490.000000	0.375569
2491.000000	0.292035
2492.000000	0.308103
2493.000000	0.316404
2494.000000	0.336706
2495.000000	0.304509
2496.000000	0.306128
2497.000000	0.264864
2498.000000	0.380752
2499.000000	0.325671
2500.000000	0.405739
