PE UV       SUBTECH     SPECTRUM    ASCII       PEDS        4.00        
   -1
BIOUCR0023-3.Sample.ASC
24/02/20
13:49:08.00
24/02/20
13:49:08.00
Vinicio Soto Monge
P. resplendens 18 de Mayo de 1985 R.W. Volcan, Panama centro cafe bajo filtro izq. Plateado bajo Filtro derecho.
250,000000
1
Lambda 1050
1050L1511233
PerkinElmer UV WinLab 6.3.2.0749 / 2.02.05 Lambda 900 UV/VIS/NIR, Aug  7 2015 09:38:08

0
0
3350/servo 860,8/2
0
0
UV/VIS
1
1
1
DoubleDePol,CommonBeamDepol,RBeamAtt,SBeamAtt,60mm sphere, WB InGaAs Detector
0
0
0
0
Program
Program
3350/servo 860,8/2
3350/0,2 860,8/0,2
3350/0,2 860,8/0,2
0
15.00
 
 
 
0
 
860,8
319,2
860,8
Front
100
on
S:100 R:100
0
0
0
0
 
0
 
 
 
0
 
 
0
0
0
0
0
 
 
 
 
0
0


0
0
#HDR
-1
-1
#GR
nm
%R
1.0
0.0
2500,000000
-1,000000
2251
8
16,599800
1,469800
#DATA

250.000000	0.280352
251.000000	0.330850
252.000000	0.317220
253.000000	0.299967
254.000000	0.287429
255.000000	0.287153
256.000000	0.283040
257.000000	0.268055
258.000000	0.306051
259.000000	0.280105
260.000000	0.263149
261.000000	0.258716
262.000000	0.271946
263.000000	0.259495
264.000000	0.264167
265.000000	0.250889
266.000000	0.275960
267.000000	0.240117
268.000000	0.236035
269.000000	0.242344
270.000000	0.249051
271.000000	0.260526
272.000000	0.242732
273.000000	0.247142
274.000000	0.252403
275.000000	0.249354
276.000000	0.222665
277.000000	0.251899
278.000000	0.230424
279.000000	0.243580
280.000000	0.258300
281.000000	0.213882
282.000000	0.221231
283.000000	0.223165
284.000000	0.202162
285.000000	0.208429
286.000000	0.205197
287.000000	0.225596
288.000000	0.237167
289.000000	0.224279
290.000000	0.205931
291.000000	0.200136
292.000000	0.182197
293.000000	0.201320
294.000000	0.213178
295.000000	0.215905
296.000000	0.194345
297.000000	0.187167
298.000000	0.216166
299.000000	0.199027
300.000000	0.156976
301.000000	0.179405
302.000000	0.209531
303.000000	0.168799
304.000000	0.177623
305.000000	0.180539
306.000000	0.181197
307.000000	0.183551
308.000000	0.179623
309.000000	0.179239
310.000000	0.203557
311.000000	0.195678
312.000000	0.193552
313.000000	0.217881
314.000000	0.167750
315.000000	0.157508
316.000000	0.230755
317.000000	0.521050
318.000000	0.459501
319.000000	0.499664
320.000000	0.229331
321.000000	0.458896
322.000000	0.299783
323.000000	0.348733
324.000000	0.301824
325.000000	0.344485
326.000000	0.318054
327.000000	0.212586
328.000000	0.131983
329.000000	0.210505
330.000000	0.208270
331.000000	0.239284
332.000000	0.235120
333.000000	0.103996
334.000000	0.163500
335.000000	0.297075
336.000000	0.196465
337.000000	0.209659
338.000000	0.280954
339.000000	0.253417
340.000000	0.231328
341.000000	0.197077
342.000000	0.168269
343.000000	0.184055
344.000000	0.221866
345.000000	0.214344
346.000000	0.172842
347.000000	0.171721
348.000000	0.171050
349.000000	0.183946
350.000000	0.164996
351.000000	0.136830
352.000000	0.157318
353.000000	0.150509
354.000000	0.158957
355.000000	0.200257
356.000000	0.185973
357.000000	0.175645
358.000000	0.132781
359.000000	0.116245
360.000000	0.150326
361.000000	0.154876
362.000000	0.129431
363.000000	0.074578
364.000000	0.107703
365.000000	0.133708
366.000000	0.131512
367.000000	0.130455
368.000000	0.149316
369.000000	0.161357
370.000000	0.132214
371.000000	0.145331
372.000000	0.156676
373.000000	0.118604
374.000000	0.051590
375.000000	0.067516
376.000000	0.137768
377.000000	0.120278
378.000000	0.123008
379.000000	0.127939
380.000000	0.127938
381.000000	0.122817
382.000000	0.124914
383.000000	0.120063
384.000000	0.122121
385.000000	0.120168
386.000000	0.126560
387.000000	0.127640
388.000000	0.124912
389.000000	0.123367
390.000000	0.123428
391.000000	0.119649
392.000000	0.122926
393.000000	0.125414
394.000000	0.128336
395.000000	0.130877
396.000000	0.134868
397.000000	0.130208
398.000000	0.128455
399.000000	0.136437
400.000000	0.138537
401.000000	0.138720
402.000000	0.139951
403.000000	0.145858
404.000000	0.150464
405.000000	0.154400
406.000000	0.165816
407.000000	0.181885
408.000000	0.190548
409.000000	0.198099
410.000000	0.216340
411.000000	0.230176
412.000000	0.247749
413.000000	0.263827
414.000000	0.285698
415.000000	0.312579
416.000000	0.340700
417.000000	0.364329
418.000000	0.387609
419.000000	0.417351
420.000000	0.448911
421.000000	0.481073
422.000000	0.516868
423.000000	0.553082
424.000000	0.585519
425.000000	0.621729
426.000000	0.658771
427.000000	0.691603
428.000000	0.719574
429.000000	0.751403
430.000000	0.779882
431.000000	0.803279
432.000000	0.826009
433.000000	0.848126
434.000000	0.870139
435.000000	0.884660
436.000000	0.892874
437.000000	0.901683
438.000000	0.915687
439.000000	0.933689
440.000000	0.944548
441.000000	0.947173
442.000000	0.943435
443.000000	0.947211
444.000000	0.957268
445.000000	0.955253
446.000000	0.950815
447.000000	0.949890
448.000000	0.947427
449.000000	0.939908
450.000000	0.935964
451.000000	0.932012
452.000000	0.922325
453.000000	0.916067
454.000000	0.908743
455.000000	0.902874
456.000000	0.897528
457.000000	0.889719
458.000000	0.881938
459.000000	0.873900
460.000000	0.863118
461.000000	0.855543
462.000000	0.846987
463.000000	0.841808
464.000000	0.836031
465.000000	0.825623
466.000000	0.814661
467.000000	0.806351
468.000000	0.794861
469.000000	0.780321
470.000000	0.774338
471.000000	0.759971
472.000000	0.737489
473.000000	0.721990
474.000000	0.705039
475.000000	0.684542
476.000000	0.669431
477.000000	0.655465
478.000000	0.636090
479.000000	0.619782
480.000000	0.609362
481.000000	0.596704
482.000000	0.589970
483.000000	0.585890
484.000000	0.580226
485.000000	0.574674
486.000000	0.572410
487.000000	0.565767
488.000000	0.561303
489.000000	0.565839
490.000000	0.568973
491.000000	0.570672
492.000000	0.581796
493.000000	0.606108
494.000000	0.652943
495.000000	0.696457
496.000000	0.744210
497.000000	0.802031
498.000000	0.864760
499.000000	0.919241
500.000000	0.984913
501.000000	1.048009
502.000000	1.098864
503.000000	1.153148
504.000000	1.190210
505.000000	1.219815
506.000000	1.229279
507.000000	1.230420
508.000000	1.230380
509.000000	1.237451
510.000000	1.235800
511.000000	1.226920
512.000000	1.219459
513.000000	1.214624
514.000000	1.202876
515.000000	1.198377
516.000000	1.205761
517.000000	1.217427
518.000000	1.222437
519.000000	1.228595
520.000000	1.246685
521.000000	1.278302
522.000000	1.318950
523.000000	1.362511
524.000000	1.422452
525.000000	1.485238
526.000000	1.564752
527.000000	1.639302
528.000000	1.726219
529.000000	1.825227
530.000000	1.929839
531.000000	2.043636
532.000000	2.159051
533.000000	2.266041
534.000000	2.358331
535.000000	2.446122
536.000000	2.510835
537.000000	2.566756
538.000000	2.623482
539.000000	2.638667
540.000000	2.638220
541.000000	2.621766
542.000000	2.608541
543.000000	2.557708
544.000000	2.516402
545.000000	2.460624
546.000000	2.412196
547.000000	2.355889
548.000000	2.307705
549.000000	2.276575
550.000000	2.243195
551.000000	2.201944
552.000000	2.140313
553.000000	2.112513
554.000000	2.075783
555.000000	2.045329
556.000000	2.007190
557.000000	1.993476
558.000000	1.956959
559.000000	1.932276
560.000000	1.818422
561.000000	1.796009
562.000000	1.770835
563.000000	1.776539
564.000000	1.773464
565.000000	1.773655
566.000000	1.762577
567.000000	1.788530
568.000000	1.815203
569.000000	1.827232
570.000000	1.851074
571.000000	1.871594
572.000000	1.869775
573.000000	1.887367
574.000000	1.906581
575.000000	1.905465
576.000000	1.920167
577.000000	1.924209
578.000000	1.914322
579.000000	1.908680
580.000000	1.900597
581.000000	1.882869
582.000000	1.858830
583.000000	1.834725
584.000000	1.820667
585.000000	1.808507
586.000000	1.774176
587.000000	1.753152
588.000000	1.728689
589.000000	1.705297
590.000000	1.691237
591.000000	1.685695
592.000000	1.685544
593.000000	1.683434
594.000000	1.673370
595.000000	1.703534
596.000000	1.708556
597.000000	1.731405
598.000000	1.726736
599.000000	1.740139
600.000000	1.738419
601.000000	1.724607
602.000000	1.711883
603.000000	1.721628
604.000000	1.702768
605.000000	1.667314
606.000000	1.635187
607.000000	1.582782
608.000000	1.549797
609.000000	1.532458
610.000000	1.487334
611.000000	1.471524
612.000000	1.447444
613.000000	1.435232
614.000000	1.448205
615.000000	1.431725
616.000000	1.440864
617.000000	1.451320
618.000000	1.451748
619.000000	1.466846
620.000000	1.462362
621.000000	1.471526
622.000000	1.467548
623.000000	1.462640
624.000000	1.457412
625.000000	1.449199
626.000000	1.441028
627.000000	1.427197
628.000000	1.424859
629.000000	1.404463
630.000000	1.408430
631.000000	1.418656
632.000000	1.438585
633.000000	1.441204
634.000000	1.431756
635.000000	1.429114
636.000000	1.406440
637.000000	1.369415
638.000000	1.312428
639.000000	1.241931
640.000000	1.186104
641.000000	1.090139
642.000000	0.999819
643.000000	0.926732
644.000000	0.882175
645.000000	0.859711
646.000000	0.876800
647.000000	0.945994
648.000000	1.032568
649.000000	1.130303
650.000000	1.213366
651.000000	1.281385
652.000000	1.350154
653.000000	1.401191
654.000000	1.443140
655.000000	1.450285
656.000000	1.469683
657.000000	1.481704
658.000000	1.477916
659.000000	1.478158
660.000000	1.469080
661.000000	1.469974
662.000000	1.478352
663.000000	1.466890
664.000000	1.476353
665.000000	1.486453
666.000000	1.490225
667.000000	1.483292
668.000000	1.499416
669.000000	1.514401
670.000000	1.510669
671.000000	1.518757
672.000000	1.533127
673.000000	1.537221
674.000000	1.503880
675.000000	1.484716
676.000000	1.465381
677.000000	1.446866
678.000000	1.428523
679.000000	1.416194
680.000000	1.379994
681.000000	1.365743
682.000000	1.351288
683.000000	1.335791
684.000000	1.321384
685.000000	1.300337
686.000000	1.280791
687.000000	1.270462
688.000000	1.251135
689.000000	1.231530
690.000000	1.200731
691.000000	1.196680
692.000000	1.207936
693.000000	1.213117
694.000000	1.218231
695.000000	1.227369
696.000000	1.233639
697.000000	1.228791
698.000000	1.228796
699.000000	1.250812
700.000000	1.250492
701.000000	1.251146
702.000000	1.257190
703.000000	1.251924
704.000000	1.261468
705.000000	1.267701
706.000000	1.276588
707.000000	1.256075
708.000000	1.257089
709.000000	1.264680
710.000000	1.255514
711.000000	1.266485
712.000000	1.275278
713.000000	1.296389
714.000000	1.304162
715.000000	1.311791
716.000000	1.304339
717.000000	1.300278
718.000000	1.308863
719.000000	1.316153
720.000000	1.323457
721.000000	1.313551
722.000000	1.321262
723.000000	1.304385
724.000000	1.283142
725.000000	1.279623
726.000000	1.275415
727.000000	1.259387
728.000000	1.257162
729.000000	1.241912
730.000000	1.239528
731.000000	1.255296
732.000000	1.241997
733.000000	1.239604
734.000000	1.239625
735.000000	1.234654
736.000000	1.221308
737.000000	1.204220
738.000000	1.204335
739.000000	1.180740
740.000000	1.170677
741.000000	1.155643
742.000000	1.145767
743.000000	1.134613
744.000000	1.113726
745.000000	1.104548
746.000000	1.095956
747.000000	1.100874
748.000000	1.090847
749.000000	1.082997
750.000000	1.077787
751.000000	1.030611
752.000000	1.019574
753.000000	1.011235
754.000000	0.982305
755.000000	0.996740
756.000000	1.036018
757.000000	1.037392
758.000000	1.020231
759.000000	1.037571
760.000000	1.054285
761.000000	1.037360
762.000000	1.028632
763.000000	1.029391
764.000000	1.028028
765.000000	1.037989
766.000000	1.040187
767.000000	1.012148
768.000000	0.977005
769.000000	0.983260
770.000000	0.984236
771.000000	0.983432
772.000000	0.971680
773.000000	0.955077
774.000000	0.972656
775.000000	0.996210
776.000000	0.988585
777.000000	0.980579
778.000000	0.976542
779.000000	0.966508
780.000000	0.949610
781.000000	0.934049
782.000000	0.939648
783.000000	0.909531
784.000000	0.920418
785.000000	0.941977
786.000000	0.923471
787.000000	0.901394
788.000000	0.907475
789.000000	0.880163
790.000000	0.877616
791.000000	0.847374
792.000000	0.845294
793.000000	0.882168
794.000000	0.897827
795.000000	0.903127
796.000000	0.904304
797.000000	0.898938
798.000000	0.919020
799.000000	0.955854
800.000000	0.972835
801.000000	0.941536
802.000000	0.967482
803.000000	0.988645
804.000000	1.018478
805.000000	0.989713
806.000000	0.939209
807.000000	0.975121
808.000000	0.967476
809.000000	0.961796
810.000000	0.968709
811.000000	0.940084
812.000000	0.962893
813.000000	0.968866
814.000000	0.960864
815.000000	0.981805
816.000000	1.033956
817.000000	1.023841
818.000000	1.015462
819.000000	1.033484
820.000000	0.989407
821.000000	0.969616
822.000000	0.975836
823.000000	0.996162
824.000000	1.017496
825.000000	0.967827
826.000000	0.978349
827.000000	1.014910
828.000000	0.955899
829.000000	0.893377
830.000000	0.926112
831.000000	0.991264
832.000000	0.969622
833.000000	0.879146
834.000000	0.912400
835.000000	0.974459
836.000000	0.940245
837.000000	0.909335
838.000000	0.920157
839.000000	0.909075
840.000000	0.906790
841.000000	0.965787
842.000000	0.880406
843.000000	0.961503
844.000000	0.887635
845.000000	0.920721
846.000000	0.803490
847.000000	0.905030
848.000000	0.951593
849.000000	0.882320
850.000000	0.981568
851.000000	1.022834
852.000000	0.988891
853.000000	1.014223
854.000000	0.869015
855.000000	0.806251
856.000000	1.081829
857.000000	0.925670
858.000000	1.290371
859.000000	0.916776
860.000000	0.914088
861.000000	0.908006
862.000000	0.915130
863.000000	0.925646
864.000000	0.957320
865.000000	1.006575
866.000000	1.025395
867.000000	1.040372
868.000000	1.079133
869.000000	1.098947
870.000000	1.119649
871.000000	1.132347
872.000000	1.169188
873.000000	1.188896
874.000000	1.222372
875.000000	1.227171
876.000000	1.245268
877.000000	1.252089
878.000000	1.274985
879.000000	1.299587
880.000000	1.309821
881.000000	1.329148
882.000000	1.328679
883.000000	1.336345
884.000000	1.352098
885.000000	1.367849
886.000000	1.376386
887.000000	1.410575
888.000000	1.412035
889.000000	1.435316
890.000000	1.426674
891.000000	1.454830
892.000000	1.467276
893.000000	1.485284
894.000000	1.497503
895.000000	1.538167
896.000000	1.535954
897.000000	1.540670
898.000000	1.545039
899.000000	1.569503
900.000000	1.594038
901.000000	1.616546
902.000000	1.645178
903.000000	1.645451
904.000000	1.664324
905.000000	1.670823
906.000000	1.695666
907.000000	1.708190
908.000000	1.711427
909.000000	1.732908
910.000000	1.727520
911.000000	1.762890
912.000000	1.759160
913.000000	1.783051
914.000000	1.781397
915.000000	1.782276
916.000000	1.804714
917.000000	1.812068
918.000000	1.829965
919.000000	1.819928
920.000000	1.818123
921.000000	1.824545
922.000000	1.817575
923.000000	1.816106
924.000000	1.819132
925.000000	1.823672
926.000000	1.828375
927.000000	1.814899
928.000000	1.813167
929.000000	1.842382
930.000000	1.824691
931.000000	1.821366
932.000000	1.819921
933.000000	1.828926
934.000000	1.807707
935.000000	1.802397
936.000000	1.793444
937.000000	1.817557
938.000000	1.807435
939.000000	1.813438
940.000000	1.779924
941.000000	1.777617
942.000000	1.771880
943.000000	1.773764
944.000000	1.749745
945.000000	1.750714
946.000000	1.734736
947.000000	1.741554
948.000000	1.737855
949.000000	1.728257
950.000000	1.732186
951.000000	1.727654
952.000000	1.716436
953.000000	1.698684
954.000000	1.700496
955.000000	1.695666
956.000000	1.696668
957.000000	1.696267
958.000000	1.683758
959.000000	1.691883
960.000000	1.682304
961.000000	1.671834
962.000000	1.669578
963.000000	1.673921
964.000000	1.674061
965.000000	1.666297
966.000000	1.667129
967.000000	1.674884
968.000000	1.670088
969.000000	1.672399
970.000000	1.668627
971.000000	1.674090
972.000000	1.655891
973.000000	1.655076
974.000000	1.645335
975.000000	1.649636
976.000000	1.651708
977.000000	1.636235
978.000000	1.645173
979.000000	1.645356
980.000000	1.643119
981.000000	1.637397
982.000000	1.642217
983.000000	1.645333
984.000000	1.633662
985.000000	1.625459
986.000000	1.626378
987.000000	1.628304
988.000000	1.621983
989.000000	1.606711
990.000000	1.608585
991.000000	1.600238
992.000000	1.588822
993.000000	1.577027
994.000000	1.568750
995.000000	1.570608
996.000000	1.572461
997.000000	1.565227
998.000000	1.566118
999.000000	1.568976
1000.000000	1.565045
1001.000000	1.561793
1002.000000	1.556406
1003.000000	1.549262
1004.000000	1.540665
1005.000000	1.548368
1006.000000	1.542173
1007.000000	1.537294
1008.000000	1.533134
1009.000000	1.524871
1010.000000	1.522212
1011.000000	1.515962
1012.000000	1.526792
1013.000000	1.533067
1014.000000	1.522918
1015.000000	1.511136
1016.000000	1.507282
1017.000000	1.508315
1018.000000	1.515844
1019.000000	1.513030
1020.000000	1.516106
1021.000000	1.527878
1022.000000	1.525308
1023.000000	1.527562
1024.000000	1.523317
1025.000000	1.516667
1026.000000	1.521932
1027.000000	1.540696
1028.000000	1.543041
1029.000000	1.534730
1030.000000	1.542157
1031.000000	1.545022
1032.000000	1.545714
1033.000000	1.548239
1034.000000	1.543944
1035.000000	1.542215
1036.000000	1.549788
1037.000000	1.546350
1038.000000	1.551282
1039.000000	1.569984
1040.000000	1.568041
1041.000000	1.567969
1042.000000	1.570778
1043.000000	1.570945
1044.000000	1.575551
1045.000000	1.580771
1046.000000	1.585291
1047.000000	1.595697
1048.000000	1.600522
1049.000000	1.597878
1050.000000	1.597589
1051.000000	1.603275
1052.000000	1.607105
1053.000000	1.599448
1054.000000	1.596625
1055.000000	1.605195
1056.000000	1.603130
1057.000000	1.593673
1058.000000	1.598631
1059.000000	1.602230
1060.000000	1.604626
1061.000000	1.610309
1062.000000	1.607918
1063.000000	1.606221
1064.000000	1.607234
1065.000000	1.624169
1066.000000	1.629289
1067.000000	1.630311
1068.000000	1.628151
1069.000000	1.614234
1070.000000	1.613439
1071.000000	1.614517
1072.000000	1.618474
1073.000000	1.610995
1074.000000	1.612555
1075.000000	1.611394
1076.000000	1.627138
1077.000000	1.628559
1078.000000	1.619669
1079.000000	1.614514
1080.000000	1.614920
1081.000000	1.610425
1082.000000	1.625465
1083.000000	1.628603
1084.000000	1.624962
1085.000000	1.617080
1086.000000	1.609089
1087.000000	1.617881
1088.000000	1.620006
1089.000000	1.601091
1090.000000	1.606545
1091.000000	1.611901
1092.000000	1.607376
1093.000000	1.605340
1094.000000	1.603959
1095.000000	1.616102
1096.000000	1.619608
1097.000000	1.614760
1098.000000	1.616363
1099.000000	1.619896
1100.000000	1.625547
1101.000000	1.618797
1102.000000	1.620896
1103.000000	1.626695
1104.000000	1.612632
1105.000000	1.621301
1106.000000	1.629158
1107.000000	1.627405
1108.000000	1.633762
1109.000000	1.633028
1110.000000	1.635602
1111.000000	1.632606
1112.000000	1.628848
1113.000000	1.636277
1114.000000	1.641862
1115.000000	1.653242
1116.000000	1.647197
1117.000000	1.649006
1118.000000	1.649656
1119.000000	1.636391
1120.000000	1.650954
1121.000000	1.656485
1122.000000	1.669800
1123.000000	1.653529
1124.000000	1.658343
1125.000000	1.657990
1126.000000	1.666220
1127.000000	1.663537
1128.000000	1.669312
1129.000000	1.689658
1130.000000	1.661817
1131.000000	1.658911
1132.000000	1.666795
1133.000000	1.689913
1134.000000	1.699756
1135.000000	1.695784
1136.000000	1.684865
1137.000000	1.663953
1138.000000	1.689439
1139.000000	1.705310
1140.000000	1.693101
1141.000000	1.693162
1142.000000	1.696631
1143.000000	1.693888
1144.000000	1.692371
1145.000000	1.703684
1146.000000	1.701283
1147.000000	1.702693
1148.000000	1.704197
1149.000000	1.720331
1150.000000	1.707369
1151.000000	1.702727
1152.000000	1.705241
1153.000000	1.688470
1154.000000	1.692216
1155.000000	1.681921
1156.000000	1.682693
1157.000000	1.676006
1158.000000	1.679989
1159.000000	1.670599
1160.000000	1.674261
1161.000000	1.651394
1162.000000	1.656107
1163.000000	1.642624
1164.000000	1.646196
1165.000000	1.681922
1166.000000	1.651923
1167.000000	1.653882
1168.000000	1.639121
1169.000000	1.636615
1170.000000	1.623513
1171.000000	1.621588
1172.000000	1.626679
1173.000000	1.623847
1174.000000	1.613769
1175.000000	1.609859
1176.000000	1.603228
1177.000000	1.611765
1178.000000	1.602226
1179.000000	1.586841
1180.000000	1.588290
1181.000000	1.597001
1182.000000	1.613023
1183.000000	1.607305
1184.000000	1.595053
1185.000000	1.605304
1186.000000	1.591852
1187.000000	1.589443
1188.000000	1.573574
1189.000000	1.584356
1190.000000	1.598344
1191.000000	1.599730
1192.000000	1.592191
1193.000000	1.589267
1194.000000	1.590283
1195.000000	1.591879
1196.000000	1.592469
1197.000000	1.599356
1198.000000	1.598928
1199.000000	1.611279
1200.000000	1.604590
1201.000000	1.605200
1202.000000	1.592671
1203.000000	1.609629
1204.000000	1.615586
1205.000000	1.622928
1206.000000	1.620155
1207.000000	1.612531
1208.000000	1.620742
1209.000000	1.633038
1210.000000	1.641113
1211.000000	1.643992
1212.000000	1.648776
1213.000000	1.649222
1214.000000	1.649570
1215.000000	1.637782
1216.000000	1.642174
1217.000000	1.646454
1218.000000	1.643928
1219.000000	1.655777
1220.000000	1.660995
1221.000000	1.657497
1222.000000	1.668018
1223.000000	1.670381
1224.000000	1.671587
1225.000000	1.676383
1226.000000	1.683937
1227.000000	1.689971
1228.000000	1.687527
1229.000000	1.695749
1230.000000	1.704652
1231.000000	1.707239
1232.000000	1.703345
1233.000000	1.698017
1234.000000	1.700389
1235.000000	1.693056
1236.000000	1.697084
1237.000000	1.715268
1238.000000	1.712977
1239.000000	1.696145
1240.000000	1.699448
1241.000000	1.707038
1242.000000	1.717408
1243.000000	1.709221
1244.000000	1.706743
1245.000000	1.720731
1246.000000	1.704475
1247.000000	1.707783
1248.000000	1.707101
1249.000000	1.708809
1250.000000	1.705929
1251.000000	1.720315
1252.000000	1.712750
1253.000000	1.702731
1254.000000	1.701903
1255.000000	1.708733
1256.000000	1.714561
1257.000000	1.725657
1258.000000	1.733080
1259.000000	1.736841
1260.000000	1.730447
1261.000000	1.728505
1262.000000	1.728048
1263.000000	1.723410
1264.000000	1.721859
1265.000000	1.710283
1266.000000	1.699530
1267.000000	1.708979
1268.000000	1.715665
1269.000000	1.707990
1270.000000	1.708198
1271.000000	1.719128
1272.000000	1.706956
1273.000000	1.694862
1274.000000	1.693240
1275.000000	1.700544
1276.000000	1.684014
1277.000000	1.679997
1278.000000	1.679683
1279.000000	1.676621
1280.000000	1.674261
1281.000000	1.680020
1282.000000	1.682747
1283.000000	1.672920
1284.000000	1.665145
1285.000000	1.664969
1286.000000	1.659459
1287.000000	1.658802
1288.000000	1.663430
1289.000000	1.667079
1290.000000	1.667223
1291.000000	1.661292
1292.000000	1.664775
1293.000000	1.669220
1294.000000	1.659135
1295.000000	1.651075
1296.000000	1.660222
1297.000000	1.665936
1298.000000	1.663026
1299.000000	1.661983
1300.000000	1.664073
1301.000000	1.664900
1302.000000	1.664642
1303.000000	1.662843
1304.000000	1.665647
1305.000000	1.655523
1306.000000	1.643893
1307.000000	1.642559
1308.000000	1.647134
1309.000000	1.650820
1310.000000	1.655024
1311.000000	1.651494
1312.000000	1.639945
1313.000000	1.639496
1314.000000	1.637237
1315.000000	1.642048
1316.000000	1.643943
1317.000000	1.641414
1318.000000	1.643565
1319.000000	1.645595
1320.000000	1.644637
1321.000000	1.643398
1322.000000	1.638982
1323.000000	1.634408
1324.000000	1.631387
1325.000000	1.633665
1326.000000	1.648399
1327.000000	1.647532
1328.000000	1.633321
1329.000000	1.624639
1330.000000	1.623510
1331.000000	1.625569
1332.000000	1.619751
1333.000000	1.613212
1334.000000	1.615245
1335.000000	1.609616
1336.000000	1.601634
1337.000000	1.607423
1338.000000	1.599092
1339.000000	1.589923
1340.000000	1.594974
1341.000000	1.605393
1342.000000	1.619984
1343.000000	1.623697
1344.000000	1.617263
1345.000000	1.612963
1346.000000	1.607862
1347.000000	1.606384
1348.000000	1.591212
1349.000000	1.578229
1350.000000	1.567472
1351.000000	1.574826
1352.000000	1.568281
1353.000000	1.582454
1354.000000	1.596507
1355.000000	1.581248
1356.000000	1.553187
1357.000000	1.552980
1358.000000	1.551651
1359.000000	1.556701
1360.000000	1.578017
1361.000000	1.607354
1362.000000	1.549117
1363.000000	1.508755
1364.000000	1.535856
1365.000000	1.543806
1366.000000	1.516676
1367.000000	1.536892
1368.000000	1.554651
1369.000000	1.505166
1370.000000	1.506446
1371.000000	1.506655
1372.000000	1.468972
1373.000000	1.448667
1374.000000	1.444968
1375.000000	1.442871
1376.000000	1.435031
1377.000000	1.418254
1378.000000	1.402647
1379.000000	1.399326
1380.000000	1.401667
1381.000000	1.394775
1382.000000	1.393265
1383.000000	1.359206
1384.000000	1.316371
1385.000000	1.331753
1386.000000	1.314006
1387.000000	1.339598
1388.000000	1.351733
1389.000000	1.320130
1390.000000	1.304097
1391.000000	1.365256
1392.000000	1.361260
1393.000000	1.325405
1394.000000	1.328172
1395.000000	1.392375
1396.000000	1.356860
1397.000000	1.290116
1398.000000	1.275606
1399.000000	1.342098
1400.000000	1.358005
1401.000000	1.297806
1402.000000	1.256548
1403.000000	1.283443
1404.000000	1.359379
1405.000000	1.323885
1406.000000	1.290916
1407.000000	1.272626
1408.000000	1.296496
1409.000000	1.297440
1410.000000	1.274939
1411.000000	1.256598
1412.000000	1.263038
1413.000000	1.267246
1414.000000	1.280806
1415.000000	1.248872
1416.000000	1.212221
1417.000000	1.232758
1418.000000	1.243346
1419.000000	1.240040
1420.000000	1.211802
1421.000000	1.190393
1422.000000	1.225796
1423.000000	1.216060
1424.000000	1.213358
1425.000000	1.189414
1426.000000	1.185625
1427.000000	1.188387
1428.000000	1.192072
1429.000000	1.177243
1430.000000	1.194890
1431.000000	1.191017
1432.000000	1.162970
1433.000000	1.175688
1434.000000	1.187571
1435.000000	1.155282
1436.000000	1.169094
1437.000000	1.157064
1438.000000	1.148424
1439.000000	1.146988
1440.000000	1.140277
1441.000000	1.152984
1442.000000	1.145714
1443.000000	1.133588
1444.000000	1.143904
1445.000000	1.154491
1446.000000	1.149892
1447.000000	1.142945
1448.000000	1.124809
1449.000000	1.145511
1450.000000	1.146643
1451.000000	1.146424
1452.000000	1.116766
1453.000000	1.129930
1454.000000	1.129387
1455.000000	1.135111
1456.000000	1.121619
1457.000000	1.129682
1458.000000	1.129604
1459.000000	1.126240
1460.000000	1.128176
1461.000000	1.125116
1462.000000	1.133813
1463.000000	1.126648
1464.000000	1.125702
1465.000000	1.133332
1466.000000	1.127091
1467.000000	1.122666
1468.000000	1.124235
1469.000000	1.130204
1470.000000	1.124500
1471.000000	1.129021
1472.000000	1.137331
1473.000000	1.123204
1474.000000	1.115978
1475.000000	1.124509
1476.000000	1.123713
1477.000000	1.121261
1478.000000	1.122688
1479.000000	1.129589
1480.000000	1.135456
1481.000000	1.141866
1482.000000	1.131751
1483.000000	1.143189
1484.000000	1.141101
1485.000000	1.152110
1486.000000	1.159130
1487.000000	1.147063
1488.000000	1.140400
1489.000000	1.134396
1490.000000	1.136320
1491.000000	1.143832
1492.000000	1.135738
1493.000000	1.139007
1494.000000	1.151009
1495.000000	1.145217
1496.000000	1.141996
1497.000000	1.142101
1498.000000	1.145379
1499.000000	1.139858
1500.000000	1.141779
1501.000000	1.147979
1502.000000	1.158044
1503.000000	1.155849
1504.000000	1.156928
1505.000000	1.157301
1506.000000	1.156404
1507.000000	1.152190
1508.000000	1.153258
1509.000000	1.154512
1510.000000	1.149629
1511.000000	1.148159
1512.000000	1.157559
1513.000000	1.161345
1514.000000	1.155550
1515.000000	1.157239
1516.000000	1.151571
1517.000000	1.152750
1518.000000	1.149399
1519.000000	1.169777
1520.000000	1.172181
1521.000000	1.164847
1522.000000	1.170348
1523.000000	1.166568
1524.000000	1.156952
1525.000000	1.157415
1526.000000	1.163477
1527.000000	1.165999
1528.000000	1.170808
1529.000000	1.168994
1530.000000	1.172980
1531.000000	1.171940
1532.000000	1.176362
1533.000000	1.168337
1534.000000	1.173027
1535.000000	1.179943
1536.000000	1.174392
1537.000000	1.165945
1538.000000	1.159623
1539.000000	1.166683
1540.000000	1.172089
1541.000000	1.174945
1542.000000	1.186003
1543.000000	1.189902
1544.000000	1.170625
1545.000000	1.160102
1546.000000	1.174248
1547.000000	1.187363
1548.000000	1.188494
1549.000000	1.178723
1550.000000	1.169613
1551.000000	1.176001
1552.000000	1.181703
1553.000000	1.178076
1554.000000	1.179054
1555.000000	1.178475
1556.000000	1.180484
1557.000000	1.187143
1558.000000	1.186718
1559.000000	1.182580
1560.000000	1.177787
1561.000000	1.175692
1562.000000	1.171307
1563.000000	1.165575
1564.000000	1.170566
1565.000000	1.173889
1566.000000	1.167382
1567.000000	1.168525
1568.000000	1.167783
1569.000000	1.161922
1570.000000	1.160372
1571.000000	1.161930
1572.000000	1.160319
1573.000000	1.158364
1574.000000	1.157746
1575.000000	1.161806
1576.000000	1.155481
1577.000000	1.152088
1578.000000	1.150060
1579.000000	1.146359
1580.000000	1.150925
1581.000000	1.154970
1582.000000	1.153510
1583.000000	1.155026
1584.000000	1.149344
1585.000000	1.141587
1586.000000	1.151180
1587.000000	1.158475
1588.000000	1.156400
1589.000000	1.150085
1590.000000	1.142656
1591.000000	1.139780
1592.000000	1.147933
1593.000000	1.157670
1594.000000	1.147831
1595.000000	1.144868
1596.000000	1.139820
1597.000000	1.122555
1598.000000	1.110454
1599.000000	1.126551
1600.000000	1.134668
1601.000000	1.130297
1602.000000	1.140315
1603.000000	1.147030
1604.000000	1.140680
1605.000000	1.131326
1606.000000	1.134305
1607.000000	1.127212
1608.000000	1.121271
1609.000000	1.107751
1610.000000	1.113776
1611.000000	1.132153
1612.000000	1.127424
1613.000000	1.127064
1614.000000	1.124615
1615.000000	1.128410
1616.000000	1.134880
1617.000000	1.125682
1618.000000	1.127911
1619.000000	1.122377
1620.000000	1.127107
1621.000000	1.121316
1622.000000	1.124433
1623.000000	1.117441
1624.000000	1.113424
1625.000000	1.116970
1626.000000	1.122685
1627.000000	1.123104
1628.000000	1.125546
1629.000000	1.124218
1630.000000	1.118205
1631.000000	1.129366
1632.000000	1.115216
1633.000000	1.119124
1634.000000	1.126961
1635.000000	1.118963
1636.000000	1.124648
1637.000000	1.127041
1638.000000	1.125494
1639.000000	1.140822
1640.000000	1.125745
1641.000000	1.134867
1642.000000	1.128996
1643.000000	1.126066
1644.000000	1.128830
1645.000000	1.131012
1646.000000	1.127510
1647.000000	1.136669
1648.000000	1.139118
1649.000000	1.145672
1650.000000	1.137208
1651.000000	1.146231
1652.000000	1.140888
1653.000000	1.161937
1654.000000	1.165093
1655.000000	1.151752
1656.000000	1.158039
1657.000000	1.147286
1658.000000	1.154875
1659.000000	1.164695
1660.000000	1.154139
1661.000000	1.163876
1662.000000	1.165948
1663.000000	1.161975
1664.000000	1.147356
1665.000000	1.155386
1666.000000	1.147535
1667.000000	1.154145
1668.000000	1.153730
1669.000000	1.147310
1670.000000	1.129801
1671.000000	1.146141
1672.000000	1.146571
1673.000000	1.135966
1674.000000	1.128607
1675.000000	1.128591
1676.000000	1.120958
1677.000000	1.129632
1678.000000	1.124370
1679.000000	1.107747
1680.000000	1.118772
1681.000000	1.104995
1682.000000	1.101858
1683.000000	1.109771
1684.000000	1.090222
1685.000000	1.101171
1686.000000	1.093441
1687.000000	1.118498
1688.000000	1.101977
1689.000000	1.105426
1690.000000	1.095097
1691.000000	1.105767
1692.000000	1.101182
1693.000000	1.107274
1694.000000	1.098349
1695.000000	1.108240
1696.000000	1.098600
1697.000000	1.103833
1698.000000	1.099998
1699.000000	1.103750
1700.000000	1.105388
1701.000000	1.108592
1702.000000	1.097827
1703.000000	1.105295
1704.000000	1.105157
1705.000000	1.091021
1706.000000	1.094191
1707.000000	1.096002
1708.000000	1.092373
1709.000000	1.084039
1710.000000	1.092184
1711.000000	1.094698
1712.000000	1.108526
1713.000000	1.089565
1714.000000	1.105759
1715.000000	1.091477
1716.000000	1.104728
1717.000000	1.104735
1718.000000	1.117231
1719.000000	1.112278
1720.000000	1.099514
1721.000000	1.107425
1722.000000	1.102639
1723.000000	1.100855
1724.000000	1.100966
1725.000000	1.113161
1726.000000	1.113397
1727.000000	1.097478
1728.000000	1.107194
1729.000000	1.103854
1730.000000	1.101870
1731.000000	1.104569
1732.000000	1.108356
1733.000000	1.092289
1734.000000	1.095440
1735.000000	1.098931
1736.000000	1.116408
1737.000000	1.106257
1738.000000	1.100604
1739.000000	1.095931
1740.000000	1.100371
1741.000000	1.109136
1742.000000	1.103997
1743.000000	1.102679
1744.000000	1.096776
1745.000000	1.105601
1746.000000	1.095363
1747.000000	1.099800
1748.000000	1.097305
1749.000000	1.108482
1750.000000	1.100896
1751.000000	1.103533
1752.000000	1.096546
1753.000000	1.106767
1754.000000	1.093762
1755.000000	1.097704
1756.000000	1.093742
1757.000000	1.105304
1758.000000	1.084783
1759.000000	1.088702
1760.000000	1.089678
1761.000000	1.091417
1762.000000	1.084671
1763.000000	1.079632
1764.000000	1.085673
1765.000000	1.084897
1766.000000	1.083984
1767.000000	1.091337
1768.000000	1.089915
1769.000000	1.079509
1770.000000	1.076132
1771.000000	1.083645
1772.000000	1.091320
1773.000000	1.094619
1774.000000	1.084155
1775.000000	1.085616
1776.000000	1.095159
1777.000000	1.088395
1778.000000	1.080231
1779.000000	1.082925
1780.000000	1.077476
1781.000000	1.070556
1782.000000	1.072605
1783.000000	1.072903
1784.000000	1.057856
1785.000000	1.054108
1786.000000	1.057307
1787.000000	1.052774
1788.000000	1.048568
1789.000000	1.056661
1790.000000	1.063878
1791.000000	1.066654
1792.000000	1.060621
1793.000000	1.045246
1794.000000	1.045370
1795.000000	1.051303
1796.000000	1.045027
1797.000000	1.047823
1798.000000	1.047997
1799.000000	1.046397
1800.000000	1.047439
1801.000000	1.048908
1802.000000	1.035555
1803.000000	1.031647
1804.000000	1.040542
1805.000000	1.047380
1806.000000	1.057754
1807.000000	1.039009
1808.000000	1.020342
1809.000000	1.015682
1810.000000	1.026514
1811.000000	1.040243
1812.000000	1.042171
1813.000000	1.035174
1814.000000	1.027698
1815.000000	1.030519
1816.000000	1.027491
1817.000000	1.017067
1818.000000	1.009444
1819.000000	1.038308
1820.000000	1.055588
1821.000000	1.030797
1822.000000	0.993324
1823.000000	0.985613
1824.000000	1.013008
1825.000000	1.041198
1826.000000	1.053725
1827.000000	1.050239
1828.000000	1.034819
1829.000000	1.022343
1830.000000	1.023492
1831.000000	1.014786
1832.000000	0.994205
1833.000000	1.011406
1834.000000	1.037340
1835.000000	1.043018
1836.000000	1.036954
1837.000000	1.023493
1838.000000	1.013320
1839.000000	1.019974
1840.000000	1.025798
1841.000000	1.023265
1842.000000	1.012331
1843.000000	0.976722
1844.000000	0.970590
1845.000000	1.005054
1846.000000	1.049779
1847.000000	1.066391
1848.000000	1.032216
1849.000000	0.978905
1850.000000	0.951957
1851.000000	0.976883
1852.000000	1.010930
1853.000000	1.025177
1854.000000	1.018571
1855.000000	1.008817
1856.000000	0.980632
1857.000000	0.982785
1858.000000	0.999218
1859.000000	0.999895
1860.000000	0.994020
1861.000000	0.979492
1862.000000	0.973707
1863.000000	0.973038
1864.000000	0.982280
1865.000000	0.995412
1866.000000	0.991955
1867.000000	0.994941
1868.000000	1.002271
1869.000000	1.003486
1870.000000	0.988328
1871.000000	0.956669
1872.000000	0.931383
1873.000000	0.913827
1874.000000	0.908217
1875.000000	0.918834
1876.000000	0.919210
1877.000000	0.900518
1878.000000	0.904170
1879.000000	0.904056
1880.000000	0.913034
1881.000000	0.914458
1882.000000	0.919013
1883.000000	0.929315
1884.000000	0.921171
1885.000000	0.899579
1886.000000	0.889556
1887.000000	0.887658
1888.000000	0.881457
1889.000000	0.883784
1890.000000	0.884843
1891.000000	0.880614
1892.000000	0.877672
1893.000000	0.868879
1894.000000	0.851688
1895.000000	0.842857
1896.000000	0.846863
1897.000000	0.867509
1898.000000	0.858113
1899.000000	0.853240
1900.000000	0.851168
1901.000000	0.825862
1902.000000	0.814958
1903.000000	0.811421
1904.000000	0.819161
1905.000000	0.821998
1906.000000	0.816192
1907.000000	0.785929
1908.000000	0.792012
1909.000000	0.793474
1910.000000	0.806209
1911.000000	0.821046
1912.000000	0.814618
1913.000000	0.819139
1914.000000	0.800333
1915.000000	0.783512
1916.000000	0.780651
1917.000000	0.780831
1918.000000	0.783424
1919.000000	0.790899
1920.000000	0.800292
1921.000000	0.780262
1922.000000	0.758167
1923.000000	0.761769
1924.000000	0.765460
1925.000000	0.775394
1926.000000	0.776137
1927.000000	0.786874
1928.000000	0.782805
1929.000000	0.777798
1930.000000	0.771941
1931.000000	0.773627
1932.000000	0.778439
1933.000000	0.779007
1934.000000	0.769759
1935.000000	0.778567
1936.000000	0.781358
1937.000000	0.772792
1938.000000	0.790267
1939.000000	0.777914
1940.000000	0.780118
1941.000000	0.782355
1942.000000	0.806256
1943.000000	0.811434
1944.000000	0.802016
1945.000000	0.814992
1946.000000	0.804636
1947.000000	0.807403
1948.000000	0.800302
1949.000000	0.803281
1950.000000	0.796657
1951.000000	0.801247
1952.000000	0.804286
1953.000000	0.812144
1954.000000	0.808528
1955.000000	0.810161
1956.000000	0.793310
1957.000000	0.803495
1958.000000	0.813938
1959.000000	0.794534
1960.000000	0.804398
1961.000000	0.816778
1962.000000	0.802842
1963.000000	0.808558
1964.000000	0.809074
1965.000000	0.801861
1966.000000	0.795845
1967.000000	0.791912
1968.000000	0.804793
1969.000000	0.820642
1970.000000	0.811944
1971.000000	0.797286
1972.000000	0.819267
1973.000000	0.809745
1974.000000	0.809534
1975.000000	0.812365
1976.000000	0.820889
1977.000000	0.799436
1978.000000	0.794207
1979.000000	0.814033
1980.000000	0.788626
1981.000000	0.795219
1982.000000	0.785528
1983.000000	0.792715
1984.000000	0.781233
1985.000000	0.802486
1986.000000	0.784791
1987.000000	0.801540
1988.000000	0.793194
1989.000000	0.794471
1990.000000	0.782982
1991.000000	0.777809
1992.000000	0.774252
1993.000000	0.785733
1994.000000	0.782284
1995.000000	0.777836
1996.000000	0.767951
1997.000000	0.776685
1998.000000	0.781396
1999.000000	0.772319
2000.000000	0.777962
2001.000000	0.768814
2002.000000	0.768719
2003.000000	0.767799
2004.000000	0.759723
2005.000000	0.765143
2006.000000	0.762715
2007.000000	0.770719
2008.000000	0.758691
2009.000000	0.770652
2010.000000	0.759879
2011.000000	0.763779
2012.000000	0.749633
2013.000000	0.745989
2014.000000	0.740945
2015.000000	0.754155
2016.000000	0.740621
2017.000000	0.746961
2018.000000	0.741875
2019.000000	0.736002
2020.000000	0.735559
2021.000000	0.739235
2022.000000	0.724468
2023.000000	0.737774
2024.000000	0.726419
2025.000000	0.727461
2026.000000	0.719200
2027.000000	0.717363
2028.000000	0.726164
2029.000000	0.721579
2030.000000	0.728648
2031.000000	0.733715
2032.000000	0.724219
2033.000000	0.732553
2034.000000	0.730549
2035.000000	0.717926
2036.000000	0.708735
2037.000000	0.707078
2038.000000	0.709869
2039.000000	0.714799
2040.000000	0.705549
2041.000000	0.703154
2042.000000	0.694851
2043.000000	0.693433
2044.000000	0.691811
2045.000000	0.691712
2046.000000	0.688615
2047.000000	0.692321
2048.000000	0.691855
2049.000000	0.679863
2050.000000	0.687213
2051.000000	0.677461
2052.000000	0.673749
2053.000000	0.672515
2054.000000	0.671535
2055.000000	0.665965
2056.000000	0.668888
2057.000000	0.662057
2058.000000	0.664648
2059.000000	0.662152
2060.000000	0.655250
2061.000000	0.648868
2062.000000	0.656793
2063.000000	0.657363
2064.000000	0.641611
2065.000000	0.641995
2066.000000	0.648934
2067.000000	0.649647
2068.000000	0.642036
2069.000000	0.637803
2070.000000	0.640988
2071.000000	0.635033
2072.000000	0.629271
2073.000000	0.623589
2074.000000	0.626747
2075.000000	0.620988
2076.000000	0.625984
2077.000000	0.626133
2078.000000	0.616490
2079.000000	0.615285
2080.000000	0.618628
2081.000000	0.616088
2082.000000	0.610478
2083.000000	0.602137
2084.000000	0.597900
2085.000000	0.604458
2086.000000	0.606251
2087.000000	0.599784
2088.000000	0.596270
2089.000000	0.605650
2090.000000	0.600471
2091.000000	0.589025
2092.000000	0.590108
2093.000000	0.583274
2094.000000	0.576211
2095.000000	0.586974
2096.000000	0.577967
2097.000000	0.566104
2098.000000	0.574011
2099.000000	0.571017
2100.000000	0.558488
2101.000000	0.556895
2102.000000	0.557539
2103.000000	0.555874
2104.000000	0.550494
2105.000000	0.541188
2106.000000	0.542420
2107.000000	0.546437
2108.000000	0.540213
2109.000000	0.543110
2110.000000	0.546894
2111.000000	0.544045
2112.000000	0.534639
2113.000000	0.530113
2114.000000	0.534539
2115.000000	0.528311
2116.000000	0.521724
2117.000000	0.515350
2118.000000	0.506811
2119.000000	0.500888
2120.000000	0.506142
2121.000000	0.498539
2122.000000	0.487975
2123.000000	0.483616
2124.000000	0.483561
2125.000000	0.485751
2126.000000	0.485004
2127.000000	0.495416
2128.000000	0.487496
2129.000000	0.471107
2130.000000	0.464786
2131.000000	0.474566
2132.000000	0.480144
2133.000000	0.462182
2134.000000	0.453983
2135.000000	0.453438
2136.000000	0.446301
2137.000000	0.446296
2138.000000	0.452987
2139.000000	0.452764
2140.000000	0.436713
2141.000000	0.423148
2142.000000	0.435192
2143.000000	0.435675
2144.000000	0.432755
2145.000000	0.427590
2146.000000	0.425295
2147.000000	0.424449
2148.000000	0.423438
2149.000000	0.411434
2150.000000	0.409736
2151.000000	0.417472
2152.000000	0.425891
2153.000000	0.421668
2154.000000	0.416517
2155.000000	0.418670
2156.000000	0.415134
2157.000000	0.421288
2158.000000	0.413495
2159.000000	0.416441
2160.000000	0.430350
2161.000000	0.426697
2162.000000	0.423976
2163.000000	0.420018
2164.000000	0.423669
2165.000000	0.425709
2166.000000	0.418225
2167.000000	0.422456
2168.000000	0.426724
2169.000000	0.420250
2170.000000	0.405018
2171.000000	0.419962
2172.000000	0.431140
2173.000000	0.427401
2174.000000	0.414241
2175.000000	0.405687
2176.000000	0.412308
2177.000000	0.413448
2178.000000	0.412091
2179.000000	0.416615
2180.000000	0.423460
2181.000000	0.410130
2182.000000	0.396767
2183.000000	0.396072
2184.000000	0.403149
2185.000000	0.398857
2186.000000	0.390199
2187.000000	0.388852
2188.000000	0.382849
2189.000000	0.383709
2190.000000	0.384036
2191.000000	0.371454
2192.000000	0.381420
2193.000000	0.378084
2194.000000	0.372866
2195.000000	0.364089
2196.000000	0.364095
2197.000000	0.342056
2198.000000	0.350241
2199.000000	0.337787
2200.000000	0.329389
2201.000000	0.318664
2202.000000	0.313640
2203.000000	0.321724
2204.000000	0.313282
2205.000000	0.302427
2206.000000	0.300390
2207.000000	0.293223
2208.000000	0.295348
2209.000000	0.284928
2210.000000	0.286027
2211.000000	0.291552
2212.000000	0.293403
2213.000000	0.284546
2214.000000	0.292740
2215.000000	0.300149
2216.000000	0.308714
2217.000000	0.300058
2218.000000	0.297336
2219.000000	0.295227
2220.000000	0.315677
2221.000000	0.308078
2222.000000	0.309456
2223.000000	0.292785
2224.000000	0.289540
2225.000000	0.315072
2226.000000	0.312292
2227.000000	0.294600
2228.000000	0.313742
2229.000000	0.315276
2230.000000	0.306139
2231.000000	0.302756
2232.000000	0.288473
2233.000000	0.310050
2234.000000	0.309615
2235.000000	0.311395
2236.000000	0.319170
2237.000000	0.292999
2238.000000	0.304508
2239.000000	0.308589
2240.000000	0.312872
2241.000000	0.314984
2242.000000	0.289312
2243.000000	0.298922
2244.000000	0.282726
2245.000000	0.307475
2246.000000	0.306877
2247.000000	0.284037
2248.000000	0.284848
2249.000000	0.307161
2250.000000	0.300764
2251.000000	0.296199
2252.000000	0.300361
2253.000000	0.307015
2254.000000	0.300066
2255.000000	0.298660
2256.000000	0.301076
2257.000000	0.298565
2258.000000	0.312912
2259.000000	0.304937
2260.000000	0.315777
2261.000000	0.309229
2262.000000	0.299766
2263.000000	0.297839
2264.000000	0.302334
2265.000000	0.319627
2266.000000	0.310599
2267.000000	0.314439
2268.000000	0.312370
2269.000000	0.318280
2270.000000	0.299065
2271.000000	0.302288
2272.000000	0.318344
2273.000000	0.303403
2274.000000	0.299388
2275.000000	0.303250
2276.000000	0.305114
2277.000000	0.307065
2278.000000	0.305254
2279.000000	0.309804
2280.000000	0.311338
2281.000000	0.312574
2282.000000	0.299931
2283.000000	0.306258
2284.000000	0.300128
2285.000000	0.299342
2286.000000	0.293442
2287.000000	0.296951
2288.000000	0.296639
2289.000000	0.310083
2290.000000	0.304840
2291.000000	0.302685
2292.000000	0.300783
2293.000000	0.300454
2294.000000	0.288102
2295.000000	0.288733
2296.000000	0.302954
2297.000000	0.285399
2298.000000	0.294033
2299.000000	0.291109
2300.000000	0.288020
2301.000000	0.295763
2302.000000	0.298361
2303.000000	0.303542
2304.000000	0.284171
2305.000000	0.281214
2306.000000	0.282669
2307.000000	0.274635
2308.000000	0.279531
2309.000000	0.273270
2310.000000	0.272610
2311.000000	0.272540
2312.000000	0.282453
2313.000000	0.276234
2314.000000	0.274877
2315.000000	0.271900
2316.000000	0.270266
2317.000000	0.266763
2318.000000	0.262562
2319.000000	0.267967
2320.000000	0.267892
2321.000000	0.255885
2322.000000	0.252756
2323.000000	0.255692
2324.000000	0.256648
2325.000000	0.263036
2326.000000	0.265183
2327.000000	0.250601
2328.000000	0.252625
2329.000000	0.248680
2330.000000	0.231504
2331.000000	0.234372
2332.000000	0.237493
2333.000000	0.234318
2334.000000	0.236244
2335.000000	0.224934
2336.000000	0.239105
2337.000000	0.250837
2338.000000	0.232190
2339.000000	0.223892
2340.000000	0.223725
2341.000000	0.230114
2342.000000	0.221355
2343.000000	0.213868
2344.000000	0.211655
2345.000000	0.212920
2346.000000	0.212816
2347.000000	0.205594
2348.000000	0.209883
2349.000000	0.207924
2350.000000	0.197345
2351.000000	0.193066
2352.000000	0.191374
2353.000000	0.187052
2354.000000	0.197050
2355.000000	0.198659
2356.000000	0.187066
2357.000000	0.185763
2358.000000	0.184136
2359.000000	0.178688
2360.000000	0.180691
2361.000000	0.181298
2362.000000	0.185420
2363.000000	0.187778
2364.000000	0.176024
2365.000000	0.163952
2366.000000	0.164126
2367.000000	0.168519
2368.000000	0.163100
2369.000000	0.167518
2370.000000	0.163065
2371.000000	0.160201
2372.000000	0.163901
2373.000000	0.150008
2374.000000	0.144764
2375.000000	0.149861
2376.000000	0.147051
2377.000000	0.139843
2378.000000	0.140144
2379.000000	0.147921
2380.000000	0.153298
2381.000000	0.143149
2382.000000	0.142404
2383.000000	0.141722
2384.000000	0.136265
2385.000000	0.134692
2386.000000	0.135787
2387.000000	0.130389
2388.000000	0.130565
2389.000000	0.130387
2390.000000	0.114523
2391.000000	0.113470
2392.000000	0.119420
2393.000000	0.118172
2394.000000	0.119112
2395.000000	0.107303
2396.000000	0.106711
2397.000000	0.103693
2398.000000	0.101065
2399.000000	0.101332
2400.000000	0.108207
2401.000000	0.106096
2402.000000	0.091597
2403.000000	0.080911
2404.000000	0.077219
2405.000000	0.078920
2406.000000	0.080311
2407.000000	0.075999
2408.000000	0.073602
2409.000000	0.075523
2410.000000	0.068826
2411.000000	0.065821
2412.000000	0.069680
2413.000000	0.056471
2414.000000	0.062206
2415.000000	0.055433
2416.000000	0.048437
2417.000000	0.053520
2418.000000	0.041034
2419.000000	0.034861
2420.000000	0.042928
2421.000000	0.043477
2422.000000	0.034167
2423.000000	0.041920
2424.000000	0.047858
2425.000000	0.044734
2426.000000	0.048846
2427.000000	0.050425
2428.000000	0.054547
2429.000000	0.055963
2430.000000	0.054750
2431.000000	0.069654
2432.000000	0.068827
2433.000000	0.053439
2434.000000	0.055214
2435.000000	0.062844
2436.000000	0.071104
2437.000000	0.048343
2438.000000	0.055005
2439.000000	0.067062
2440.000000	0.066967
2441.000000	0.044248
2442.000000	0.051632
2443.000000	0.075723
2444.000000	0.073972
2445.000000	0.060308
2446.000000	0.066148
2447.000000	0.062307
2448.000000	0.066018
2449.000000	0.066240
2450.000000	0.074716
2451.000000	0.090239
2452.000000	0.081741
2453.000000	0.072530
2454.000000	0.074120
2455.000000	0.074012
2456.000000	0.072963
2457.000000	0.052433
2458.000000	0.061389
2459.000000	0.076203
2460.000000	0.077049
2461.000000	0.102693
2462.000000	0.093620
2463.000000	0.071713
2464.000000	0.058936
2465.000000	0.080298
2466.000000	0.062844
2467.000000	0.083498
2468.000000	0.086521
2469.000000	0.089432
2470.000000	0.077555
2471.000000	0.068310
2472.000000	0.080651
2473.000000	0.048735
2474.000000	0.075654
2475.000000	0.061959
2476.000000	0.043258
2477.000000	0.110099
2478.000000	0.097887
2479.000000	0.052237
2480.000000	0.069793
2481.000000	0.103049
2482.000000	0.076036
2483.000000	0.052066
2484.000000	0.099151
2485.000000	0.088580
2486.000000	0.080856
2487.000000	0.112242
2488.000000	0.110998
2489.000000	0.067041
2490.000000	0.099409
2491.000000	0.080998
2492.000000	0.144227
2493.000000	0.043111
2494.000000	0.041263
2495.000000	0.135019
2496.000000	0.132728
2497.000000	0.055099
2498.000000	0.080471
2499.000000	0.062354
2500.000000	0.037558
