PE UV       SUBTECH     SPECTRUM    ASCII       PEDS        4.00        
   -1
BIOUCR0027-3.Sample.ASC
24/02/20
14:41:36.00
24/02/20
14:41:36.00
Vinicio Soto Monge
P. resplendens 18 de Mayo de 1985 R.W. Volcan, Panama
250,000000
1
Lambda 1050
1050L1511233
PerkinElmer UV WinLab 6.3.2.0749 / 2.02.05 Lambda 900 UV/VIS/NIR, Aug  7 2015 09:38:08

0
0
3350/servo 860,8/2
0
0
UV/VIS
1
1
1
DoubleDePol,CommonBeamDepol,RBeamAtt,SBeamAtt,60mm sphere, WB InGaAs Detector
0
0
0
0
Program
Program
3350/servo 860,8/2
3350/0,2 860,8/0,2
3350/0,2 860,8/0,2
0
15.00
 
 
 
0
 
860,8
319,2
860,8
Front
100
on
S:100 R:100
0
0
0
0
 
0
 
 
 
0
 
 
0
0
0
0
0
 
 
 
 
0
0


0
0
#HDR
-1
-1
#GR
nm
%R
1.0
0.0
2500,000000
-1,000000
2251
8
22,902800
1,637000
#DATA

250.000000	0.121359
251.000000	0.116649
252.000000	0.100960
253.000000	0.094591
254.000000	0.116769
255.000000	0.101993
256.000000	0.115361
257.000000	0.097439
258.000000	0.102904
259.000000	0.101121
260.000000	0.058308
261.000000	0.097501
262.000000	0.068111
263.000000	0.068977
264.000000	0.076504
265.000000	0.080851
266.000000	0.077940
267.000000	0.087294
268.000000	0.084157
269.000000	0.082468
270.000000	0.087088
271.000000	0.066611
272.000000	0.096886
273.000000	0.093863
274.000000	0.069069
275.000000	0.105796
276.000000	0.096438
277.000000	0.075812
278.000000	0.063757
279.000000	0.043147
280.000000	0.089161
281.000000	0.067073
282.000000	0.080959
283.000000	0.069978
284.000000	0.091320
285.000000	0.078254
286.000000	0.093316
287.000000	0.071612
288.000000	0.092318
289.000000	0.068328
290.000000	0.112003
291.000000	0.079513
292.000000	0.073083
293.000000	0.104228
294.000000	0.096151
295.000000	0.077689
296.000000	0.066380
297.000000	0.076606
298.000000	0.103860
299.000000	0.116313
300.000000	0.059134
301.000000	0.071144
302.000000	0.091365
303.000000	0.065698
304.000000	0.059636
305.000000	0.079364
306.000000	0.098326
307.000000	0.089080
308.000000	0.112707
309.000000	0.069080
310.000000	0.092187
311.000000	0.067933
312.000000	0.104362
313.000000	0.095609
314.000000	0.122561
315.000000	0.117761
316.000000	0.060894
317.000000	0.253782
318.000000	0.383532
319.000000	0.349683
320.000000	0.333469
321.000000	0.178003
322.000000	0.273408
323.000000	0.181089
324.000000	0.224047
325.000000	0.160572
326.000000	0.147494
327.000000	0.047002
328.000000	0.017641
329.000000	0.048946
330.000000	0.168843
331.000000	0.055138
332.000000	0.053546
333.000000	0.090638
334.000000	0.112163
335.000000	0.081645
336.000000	0.061053
337.000000	0.058683
338.000000	0.149072
339.000000	0.070199
340.000000	0.100567
341.000000	0.106261
342.000000	0.101982
343.000000	0.125652
344.000000	0.104622
345.000000	0.111077
346.000000	0.114425
347.000000	0.089828
348.000000	0.139924
349.000000	0.157525
350.000000	0.124658
351.000000	0.135574
352.000000	0.125532
353.000000	0.162935
354.000000	0.156228
355.000000	0.142029
356.000000	0.177559
357.000000	0.180547
358.000000	0.183270
359.000000	0.187844
360.000000	0.187830
361.000000	0.234249
362.000000	0.218198
363.000000	0.233313
364.000000	0.244371
365.000000	0.215140
366.000000	0.223653
367.000000	0.277404
368.000000	0.284809
369.000000	0.263747
370.000000	0.260046
371.000000	0.320127
372.000000	0.397742
373.000000	0.382460
374.000000	0.384519
375.000000	0.374442
376.000000	0.260221
377.000000	0.245804
378.000000	0.246784
379.000000	0.253647
380.000000	0.253207
381.000000	0.253610
382.000000	0.263561
383.000000	0.259749
384.000000	0.268645
385.000000	0.271313
386.000000	0.269930
387.000000	0.278855
388.000000	0.276888
389.000000	0.274151
390.000000	0.277372
391.000000	0.280950
392.000000	0.275010
393.000000	0.270979
394.000000	0.271273
395.000000	0.268105
396.000000	0.278329
397.000000	0.280464
398.000000	0.282015
399.000000	0.288249
400.000000	0.288014
401.000000	0.286237
402.000000	0.287787
403.000000	0.287307
404.000000	0.291566
405.000000	0.281937
406.000000	0.286891
407.000000	0.289360
408.000000	0.294202
409.000000	0.293680
410.000000	0.289133
411.000000	0.292944
412.000000	0.298092
413.000000	0.296815
414.000000	0.296562
415.000000	0.297778
416.000000	0.301858
417.000000	0.298916
418.000000	0.299381
419.000000	0.303439
420.000000	0.308232
421.000000	0.307474
422.000000	0.309483
423.000000	0.312112
424.000000	0.313968
425.000000	0.317448
426.000000	0.320234
427.000000	0.318331
428.000000	0.317734
429.000000	0.325286
430.000000	0.328255
431.000000	0.328277
432.000000	0.336137
433.000000	0.339327
434.000000	0.339053
435.000000	0.343684
436.000000	0.348315
437.000000	0.355310
438.000000	0.359780
439.000000	0.360542
440.000000	0.368765
441.000000	0.380891
442.000000	0.385853
443.000000	0.384324
444.000000	0.385938
445.000000	0.388604
446.000000	0.397462
447.000000	0.396649
448.000000	0.388653
449.000000	0.393963
450.000000	0.401045
451.000000	0.399969
452.000000	0.398632
453.000000	0.390521
454.000000	0.387117
455.000000	0.385173
456.000000	0.381992
457.000000	0.377348
458.000000	0.369676
459.000000	0.365890
460.000000	0.359528
461.000000	0.352339
462.000000	0.340810
463.000000	0.331466
464.000000	0.317178
465.000000	0.307903
466.000000	0.302369
467.000000	0.294211
468.000000	0.281655
469.000000	0.269586
470.000000	0.258936
471.000000	0.248603
472.000000	0.238151
473.000000	0.228040
474.000000	0.221827
475.000000	0.219471
476.000000	0.222751
477.000000	0.226963
478.000000	0.227282
479.000000	0.229513
480.000000	0.235049
481.000000	0.242427
482.000000	0.252001
483.000000	0.266310
484.000000	0.284856
485.000000	0.306642
486.000000	0.331736
487.000000	0.366068
488.000000	0.405009
489.000000	0.442682
490.000000	0.477095
491.000000	0.511602
492.000000	0.562224
493.000000	0.612486
494.000000	0.666895
495.000000	0.713096
496.000000	0.761314
497.000000	0.799977
498.000000	0.851919
499.000000	0.899584
500.000000	0.945859
501.000000	0.992443
502.000000	1.036855
503.000000	1.070208
504.000000	1.108839
505.000000	1.136149
506.000000	1.159190
507.000000	1.185337
508.000000	1.201343
509.000000	1.215167
510.000000	1.215246
511.000000	1.223911
512.000000	1.216936
513.000000	1.205449
514.000000	1.205428
515.000000	1.201163
516.000000	1.199803
517.000000	1.204253
518.000000	1.198082
519.000000	1.193450
520.000000	1.189205
521.000000	1.196299
522.000000	1.185917
523.000000	1.173349
524.000000	1.171558
525.000000	1.168851
526.000000	1.166918
527.000000	1.169824
528.000000	1.158438
529.000000	1.149926
530.000000	1.147944
531.000000	1.151176
532.000000	1.159897
533.000000	1.164119
534.000000	1.153821
535.000000	1.155242
536.000000	1.158801
537.000000	1.161078
538.000000	1.167969
539.000000	1.175530
540.000000	1.174683
541.000000	1.175797
542.000000	1.182789
543.000000	1.178838
544.000000	1.165664
545.000000	1.161063
546.000000	1.157188
547.000000	1.144647
548.000000	1.129630
549.000000	1.123414
550.000000	1.116609
551.000000	1.103894
552.000000	1.099286
553.000000	1.093513
554.000000	1.091251
555.000000	1.086669
556.000000	1.077737
557.000000	1.068875
558.000000	1.074945
559.000000	1.068180
560.000000	1.024733
561.000000	1.018011
562.000000	1.014660
563.000000	0.994191
564.000000	0.985469
565.000000	0.964728
566.000000	0.933138
567.000000	0.918131
568.000000	0.909820
569.000000	0.893777
570.000000	0.871167
571.000000	0.844701
572.000000	0.827298
573.000000	0.805782
574.000000	0.788775
575.000000	0.775599
576.000000	0.752991
577.000000	0.751410
578.000000	0.724102
579.000000	0.720485
580.000000	0.696948
581.000000	0.700414
582.000000	0.705385
583.000000	0.688212
584.000000	0.663524
585.000000	0.665532
586.000000	0.663229
587.000000	0.658190
588.000000	0.625098
589.000000	0.607364
590.000000	0.592201
591.000000	0.578941
592.000000	0.557886
593.000000	0.541165
594.000000	0.520177
595.000000	0.491091
596.000000	0.477872
597.000000	0.441755
598.000000	0.414253
599.000000	0.390868
600.000000	0.355170
601.000000	0.339715
602.000000	0.324866
603.000000	0.314356
604.000000	0.291956
605.000000	0.267311
606.000000	0.266772
607.000000	0.271333
608.000000	0.271188
609.000000	0.270561
610.000000	0.269130
611.000000	0.280300
612.000000	0.296736
613.000000	0.311565
614.000000	0.310355
615.000000	0.328920
616.000000	0.319098
617.000000	0.344620
618.000000	0.351399
619.000000	0.357061
620.000000	0.368285
621.000000	0.372214
622.000000	0.376781
623.000000	0.380527
624.000000	0.396879
625.000000	0.406010
626.000000	0.425686
627.000000	0.442627
628.000000	0.465403
629.000000	0.497386
630.000000	0.515587
631.000000	0.541519
632.000000	0.571439
633.000000	0.585411
634.000000	0.608659
635.000000	0.611477
636.000000	0.603336
637.000000	0.593493
638.000000	0.577828
639.000000	0.561142
640.000000	0.536096
641.000000	0.517754
642.000000	0.497910
643.000000	0.460757
644.000000	0.458033
645.000000	0.448621
646.000000	0.457423
647.000000	0.454514
648.000000	0.467925
649.000000	0.487891
650.000000	0.507662
651.000000	0.522202
652.000000	0.555844
653.000000	0.584067
654.000000	0.612537
655.000000	0.623545
656.000000	0.665427
657.000000	0.687520
658.000000	0.718136
659.000000	0.741023
660.000000	0.755175
661.000000	0.795821
662.000000	0.811311
663.000000	0.819593
664.000000	0.832444
665.000000	0.847486
666.000000	0.861584
667.000000	0.877555
668.000000	0.867495
669.000000	0.880249
670.000000	0.871208
671.000000	0.893809
672.000000	0.882864
673.000000	0.884425
674.000000	0.875428
675.000000	0.858236
676.000000	0.849328
677.000000	0.829346
678.000000	0.804783
679.000000	0.779598
680.000000	0.754350
681.000000	0.722773
682.000000	0.706993
683.000000	0.696507
684.000000	0.671864
685.000000	0.662964
686.000000	0.660341
687.000000	0.655990
688.000000	0.669645
689.000000	0.694770
690.000000	0.703476
691.000000	0.719362
692.000000	0.758660
693.000000	0.787589
694.000000	0.830392
695.000000	0.866704
696.000000	0.895205
697.000000	0.945079
698.000000	0.998196
699.000000	1.027927
700.000000	1.072692
701.000000	1.112792
702.000000	1.162149
703.000000	1.199035
704.000000	1.231590
705.000000	1.249703
706.000000	1.295123
707.000000	1.345166
708.000000	1.356211
709.000000	1.364673
710.000000	1.396758
711.000000	1.417741
712.000000	1.414249
713.000000	1.399797
714.000000	1.388801
715.000000	1.390742
716.000000	1.368078
717.000000	1.323091
718.000000	1.298611
719.000000	1.249923
720.000000	1.211694
721.000000	1.186712
722.000000	1.145990
723.000000	1.118333
724.000000	1.097261
725.000000	1.079743
726.000000	1.057427
727.000000	1.046006
728.000000	1.049835
729.000000	1.074209
730.000000	1.076526
731.000000	1.081983
732.000000	1.092251
733.000000	1.096187
734.000000	1.099990
735.000000	1.117958
736.000000	1.109796
737.000000	1.139882
738.000000	1.174321
739.000000	1.181542
740.000000	1.200643
741.000000	1.205432
742.000000	1.229316
743.000000	1.234384
744.000000	1.229341
745.000000	1.259965
746.000000	1.282300
747.000000	1.292505
748.000000	1.305359
749.000000	1.320216
750.000000	1.360899
751.000000	1.378227
752.000000	1.378799
753.000000	1.428817
754.000000	1.446478
755.000000	1.436974
756.000000	1.451206
757.000000	1.448524
758.000000	1.455200
759.000000	1.478971
760.000000	1.489214
761.000000	1.481564
762.000000	1.476536
763.000000	1.465560
764.000000	1.454757
765.000000	1.465769
766.000000	1.457734
767.000000	1.438925
768.000000	1.429776
769.000000	1.446171
770.000000	1.414452
771.000000	1.403978
772.000000	1.417454
773.000000	1.402268
774.000000	1.384385
775.000000	1.400484
776.000000	1.397560
777.000000	1.386724
778.000000	1.389831
779.000000	1.382603
780.000000	1.367659
781.000000	1.350595
782.000000	1.355405
783.000000	1.352907
784.000000	1.362434
785.000000	1.366735
786.000000	1.381572
787.000000	1.368341
788.000000	1.373273
789.000000	1.399583
790.000000	1.404067
791.000000	1.434551
792.000000	1.434904
793.000000	1.457568
794.000000	1.447655
795.000000	1.449716
796.000000	1.486289
797.000000	1.519580
798.000000	1.530115
799.000000	1.515601
800.000000	1.473917
801.000000	1.504305
802.000000	1.566641
803.000000	1.560441
804.000000	1.525787
805.000000	1.531748
806.000000	1.549986
807.000000	1.557052
808.000000	1.571022
809.000000	1.607197
810.000000	1.582609
811.000000	1.595552
812.000000	1.618760
813.000000	1.651442
814.000000	1.594098
815.000000	1.597554
816.000000	1.599414
817.000000	1.588868
818.000000	1.579764
819.000000	1.586229
820.000000	1.546858
821.000000	1.559467
822.000000	1.552832
823.000000	1.524774
824.000000	1.508656
825.000000	1.481770
826.000000	1.483126
827.000000	1.423775
828.000000	1.438359
829.000000	1.440346
830.000000	1.457554
831.000000	1.392002
832.000000	1.379098
833.000000	1.382742
834.000000	1.457549
835.000000	1.355978
836.000000	1.282615
837.000000	1.290447
838.000000	1.353067
839.000000	1.312299
840.000000	1.282250
841.000000	1.231485
842.000000	1.254885
843.000000	1.202604
844.000000	1.244363
845.000000	1.137638
846.000000	1.195363
847.000000	1.066734
848.000000	1.124474
849.000000	1.146620
850.000000	1.097503
851.000000	0.930583
852.000000	0.904708
853.000000	0.953752
854.000000	0.886848
855.000000	1.067558
856.000000	0.970619
857.000000	1.103816
858.000000	0.741251
859.000000	1.098819
860.000000	1.097000
861.000000	1.097154
862.000000	1.102093
863.000000	1.103937
864.000000	1.111456
865.000000	1.121221
866.000000	1.129213
867.000000	1.156439
868.000000	1.151902
869.000000	1.163088
870.000000	1.182393
871.000000	1.216905
872.000000	1.226756
873.000000	1.261188
874.000000	1.291097
875.000000	1.311802
876.000000	1.328520
877.000000	1.351344
878.000000	1.380624
879.000000	1.398683
880.000000	1.435596
881.000000	1.446210
882.000000	1.459500
883.000000	1.482176
884.000000	1.511909
885.000000	1.554232
886.000000	1.568559
887.000000	1.598865
888.000000	1.620831
889.000000	1.636993
890.000000	1.657215
891.000000	1.669815
892.000000	1.697715
893.000000	1.703887
894.000000	1.725462
895.000000	1.753501
896.000000	1.775964
897.000000	1.783954
898.000000	1.788583
899.000000	1.830456
900.000000	1.839700
901.000000	1.842406
902.000000	1.850362
903.000000	1.885020
904.000000	1.871302
905.000000	1.879162
906.000000	1.905411
907.000000	1.901029
908.000000	1.941894
909.000000	1.973004
910.000000	1.939381
911.000000	1.948980
912.000000	1.969729
913.000000	1.998497
914.000000	2.038384
915.000000	2.031653
916.000000	2.035583
917.000000	2.063659
918.000000	2.071207
919.000000	2.058825
920.000000	2.060555
921.000000	2.078034
922.000000	2.100340
923.000000	2.090130
924.000000	2.097604
925.000000	2.106004
926.000000	2.103183
927.000000	2.097372
928.000000	2.106199
929.000000	2.108836
930.000000	2.106333
931.000000	2.096212
932.000000	2.105038
933.000000	2.096067
934.000000	2.092424
935.000000	2.105809
936.000000	2.132432
937.000000	2.129339
938.000000	2.139414
939.000000	2.141387
940.000000	2.133189
941.000000	2.132108
942.000000	2.136082
943.000000	2.141976
944.000000	2.151850
945.000000	2.136541
946.000000	2.138113
947.000000	2.138192
948.000000	2.131706
949.000000	2.139870
950.000000	2.152751
951.000000	2.151767
952.000000	2.154224
953.000000	2.163005
954.000000	2.176046
955.000000	2.180700
956.000000	2.173665
957.000000	2.182324
958.000000	2.187713
959.000000	2.196087
960.000000	2.209616
961.000000	2.212088
962.000000	2.199508
963.000000	2.199788
964.000000	2.195610
965.000000	2.204767
966.000000	2.210397
967.000000	2.196492
968.000000	2.204642
969.000000	2.188227
970.000000	2.207832
971.000000	2.209874
972.000000	2.200517
973.000000	2.204393
974.000000	2.209273
975.000000	2.211010
976.000000	2.206221
977.000000	2.215938
978.000000	2.194832
979.000000	2.209520
980.000000	2.215532
981.000000	2.215468
982.000000	2.208219
983.000000	2.219873
984.000000	2.214576
985.000000	2.213508
986.000000	2.211365
987.000000	2.215728
988.000000	2.227004
989.000000	2.239206
990.000000	2.233353
991.000000	2.232689
992.000000	2.242949
993.000000	2.247771
994.000000	2.248420
995.000000	2.253451
996.000000	2.254536
997.000000	2.265826
998.000000	2.270384
999.000000	2.275030
1000.000000	2.282334
1001.000000	2.288573
1002.000000	2.293418
1003.000000	2.302261
1004.000000	2.307436
1005.000000	2.312172
1006.000000	2.321510
1007.000000	2.322009
1008.000000	2.329431
1009.000000	2.326770
1010.000000	2.324114
1011.000000	2.339808
1012.000000	2.348108
1013.000000	2.361085
1014.000000	2.359447
1015.000000	2.360317
1016.000000	2.376078
1017.000000	2.375886
1018.000000	2.367570
1019.000000	2.369475
1020.000000	2.365607
1021.000000	2.373303
1022.000000	2.379198
1023.000000	2.371941
1024.000000	2.373534
1025.000000	2.382375
1026.000000	2.389449
1027.000000	2.394341
1028.000000	2.401112
1029.000000	2.407088
1030.000000	2.405812
1031.000000	2.406045
1032.000000	2.407845
1033.000000	2.414129
1034.000000	2.421549
1035.000000	2.424679
1036.000000	2.432086
1037.000000	2.435572
1038.000000	2.432954
1039.000000	2.435813
1040.000000	2.443615
1041.000000	2.452774
1042.000000	2.450009
1043.000000	2.444182
1044.000000	2.461354
1045.000000	2.475623
1046.000000	2.468017
1047.000000	2.462409
1048.000000	2.467328
1049.000000	2.469550
1050.000000	2.468607
1051.000000	2.471527
1052.000000	2.486406
1053.000000	2.498816
1054.000000	2.502473
1055.000000	2.504625
1056.000000	2.504962
1057.000000	2.506564
1058.000000	2.517490
1059.000000	2.530191
1060.000000	2.531790
1061.000000	2.544785
1062.000000	2.545986
1063.000000	2.538767
1064.000000	2.539546
1065.000000	2.546416
1066.000000	2.556465
1067.000000	2.563709
1068.000000	2.564719
1069.000000	2.573560
1070.000000	2.566011
1071.000000	2.566468
1072.000000	2.575674
1073.000000	2.587602
1074.000000	2.595884
1075.000000	2.592442
1076.000000	2.584901
1077.000000	2.585172
1078.000000	2.579861
1079.000000	2.588292
1080.000000	2.596392
1081.000000	2.604853
1082.000000	2.611214
1083.000000	2.604916
1084.000000	2.596032
1085.000000	2.606531
1086.000000	2.612484
1087.000000	2.597798
1088.000000	2.608741
1089.000000	2.610710
1090.000000	2.615653
1091.000000	2.615218
1092.000000	2.612513
1093.000000	2.620118
1094.000000	2.626351
1095.000000	2.622311
1096.000000	2.607067
1097.000000	2.605132
1098.000000	2.628895
1099.000000	2.627038
1100.000000	2.629982
1101.000000	2.621432
1102.000000	2.621624
1103.000000	2.636053
1104.000000	2.639842
1105.000000	2.636007
1106.000000	2.642322
1107.000000	2.654987
1108.000000	2.652603
1109.000000	2.648240
1110.000000	2.655875
1111.000000	2.654922
1112.000000	2.661046
1113.000000	2.653197
1114.000000	2.660446
1115.000000	2.680412
1116.000000	2.657112
1117.000000	2.658744
1118.000000	2.661978
1119.000000	2.662102
1120.000000	2.655753
1121.000000	2.659958
1122.000000	2.642856
1123.000000	2.654822
1124.000000	2.652723
1125.000000	2.654422
1126.000000	2.642303
1127.000000	2.640630
1128.000000	2.633417
1129.000000	2.626002
1130.000000	2.631385
1131.000000	2.621721
1132.000000	2.618383
1133.000000	2.602241
1134.000000	2.583538
1135.000000	2.589184
1136.000000	2.589910
1137.000000	2.580557
1138.000000	2.577898
1139.000000	2.570791
1140.000000	2.567998
1141.000000	2.557607
1142.000000	2.565435
1143.000000	2.555599
1144.000000	2.543692
1145.000000	2.526445
1146.000000	2.535464
1147.000000	2.534602
1148.000000	2.541876
1149.000000	2.553317
1150.000000	2.547050
1151.000000	2.538336
1152.000000	2.533127
1153.000000	2.517842
1154.000000	2.511284
1155.000000	2.528052
1156.000000	2.530216
1157.000000	2.513684
1158.000000	2.508334
1159.000000	2.505646
1160.000000	2.504080
1161.000000	2.504924
1162.000000	2.497379
1163.000000	2.491449
1164.000000	2.494567
1165.000000	2.490239
1166.000000	2.474399
1167.000000	2.465988
1168.000000	2.470641
1169.000000	2.436227
1170.000000	2.422168
1171.000000	2.423478
1172.000000	2.437008
1173.000000	2.418548
1174.000000	2.418844
1175.000000	2.402049
1176.000000	2.414720
1177.000000	2.399674
1178.000000	2.435059
1179.000000	2.412497
1180.000000	2.419397
1181.000000	2.428153
1182.000000	2.421958
1183.000000	2.434347
1184.000000	2.432000
1185.000000	2.441344
1186.000000	2.426137
1187.000000	2.428806
1188.000000	2.426420
1189.000000	2.438556
1190.000000	2.428012
1191.000000	2.443442
1192.000000	2.444386
1193.000000	2.464372
1194.000000	2.474590
1195.000000	2.484323
1196.000000	2.495086
1197.000000	2.499880
1198.000000	2.509633
1199.000000	2.513657
1200.000000	2.523997
1201.000000	2.540736
1202.000000	2.549956
1203.000000	2.561129
1204.000000	2.576048
1205.000000	2.591702
1206.000000	2.615838
1207.000000	2.628608
1208.000000	2.617267
1209.000000	2.613728
1210.000000	2.615497
1211.000000	2.636855
1212.000000	2.636496
1213.000000	2.644810
1214.000000	2.639160
1215.000000	2.650045
1216.000000	2.651397
1217.000000	2.649502
1218.000000	2.643236
1219.000000	2.640915
1220.000000	2.634607
1221.000000	2.628669
1222.000000	2.609023
1223.000000	2.602651
1224.000000	2.592794
1225.000000	2.591596
1226.000000	2.573416
1227.000000	2.563996
1228.000000	2.550542
1229.000000	2.544955
1230.000000	2.544184
1231.000000	2.530722
1232.000000	2.514397
1233.000000	2.516710
1234.000000	2.504438
1235.000000	2.498350
1236.000000	2.505488
1237.000000	2.494613
1238.000000	2.476107
1239.000000	2.482600
1240.000000	2.484890
1241.000000	2.468694
1242.000000	2.478245
1243.000000	2.475932
1244.000000	2.469250
1245.000000	2.472305
1246.000000	2.471538
1247.000000	2.461695
1248.000000	2.463434
1249.000000	2.464840
1250.000000	2.479167
1251.000000	2.475285
1252.000000	2.465028
1253.000000	2.464270
1254.000000	2.456291
1255.000000	2.466058
1256.000000	2.466000
1257.000000	2.470182
1258.000000	2.468982
1259.000000	2.458898
1260.000000	2.454114
1261.000000	2.456451
1262.000000	2.463953
1263.000000	2.457102
1264.000000	2.452097
1265.000000	2.454962
1266.000000	2.454534
1267.000000	2.449104
1268.000000	2.450715
1269.000000	2.451458
1270.000000	2.447441
1271.000000	2.448627
1272.000000	2.444764
1273.000000	2.442382
1274.000000	2.442071
1275.000000	2.442821
1276.000000	2.450873
1277.000000	2.443791
1278.000000	2.444757
1279.000000	2.445945
1280.000000	2.451706
1281.000000	2.449824
1282.000000	2.435982
1283.000000	2.443664
1284.000000	2.461542
1285.000000	2.467223
1286.000000	2.462929
1287.000000	2.469035
1288.000000	2.475443
1289.000000	2.477941
1290.000000	2.479894
1291.000000	2.476497
1292.000000	2.469113
1293.000000	2.471507
1294.000000	2.483705
1295.000000	2.489094
1296.000000	2.482274
1297.000000	2.482952
1298.000000	2.492096
1299.000000	2.489716
1300.000000	2.471047
1301.000000	2.472735
1302.000000	2.483664
1303.000000	2.468647
1304.000000	2.467953
1305.000000	2.480426
1306.000000	2.481036
1307.000000	2.476273
1308.000000	2.474975
1309.000000	2.468863
1310.000000	2.473288
1311.000000	2.477575
1312.000000	2.472045
1313.000000	2.468016
1314.000000	2.456005
1315.000000	2.444489
1316.000000	2.444990
1317.000000	2.446346
1318.000000	2.441459
1319.000000	2.437365
1320.000000	2.430793
1321.000000	2.419440
1322.000000	2.410493
1323.000000	2.397774
1324.000000	2.393497
1325.000000	2.390536
1326.000000	2.388167
1327.000000	2.378023
1328.000000	2.373549
1329.000000	2.366656
1330.000000	2.360662
1331.000000	2.353556
1332.000000	2.340940
1333.000000	2.329083
1334.000000	2.320196
1335.000000	2.320713
1336.000000	2.312933
1337.000000	2.306079
1338.000000	2.301881
1339.000000	2.291810
1340.000000	2.269282
1341.000000	2.255870
1342.000000	2.242663
1343.000000	2.236586
1344.000000	2.226971
1345.000000	2.199365
1346.000000	2.191242
1347.000000	2.174318
1348.000000	2.162674
1349.000000	2.153384
1350.000000	2.140898
1351.000000	2.121299
1352.000000	2.112665
1353.000000	2.089577
1354.000000	2.074103
1355.000000	2.069280
1356.000000	2.069185
1357.000000	2.072341
1358.000000	2.053900
1359.000000	2.045981
1360.000000	2.024816
1361.000000	2.009888
1362.000000	2.006880
1363.000000	2.038625
1364.000000	2.033180
1365.000000	2.024105
1366.000000	2.026556
1367.000000	2.022372
1368.000000	2.013794
1369.000000	2.017624
1370.000000	2.011063
1371.000000	1.990326
1372.000000	1.975927
1373.000000	1.972072
1374.000000	1.962808
1375.000000	1.948716
1376.000000	1.924360
1377.000000	1.902472
1378.000000	1.879237
1379.000000	1.853257
1380.000000	1.844159
1381.000000	1.815863
1382.000000	1.790740
1383.000000	1.802619
1384.000000	1.807407
1385.000000	1.793128
1386.000000	1.793572
1387.000000	1.781926
1388.000000	1.786750
1389.000000	1.764761
1390.000000	1.793839
1391.000000	1.757748
1392.000000	1.732155
1393.000000	1.715614
1394.000000	1.708290
1395.000000	1.667515
1396.000000	1.666523
1397.000000	1.655142
1398.000000	1.634603
1399.000000	1.603799
1400.000000	1.562627
1401.000000	1.560936
1402.000000	1.552267
1403.000000	1.520818
1404.000000	1.483168
1405.000000	1.468176
1406.000000	1.452058
1407.000000	1.447490
1408.000000	1.415218
1409.000000	1.394212
1410.000000	1.369761
1411.000000	1.346621
1412.000000	1.296137
1413.000000	1.275133
1414.000000	1.264255
1415.000000	1.247336
1416.000000	1.233306
1417.000000	1.191703
1418.000000	1.158606
1419.000000	1.147195
1420.000000	1.118505
1421.000000	1.112849
1422.000000	1.100404
1423.000000	1.084752
1424.000000	1.064047
1425.000000	1.041427
1426.000000	1.035577
1427.000000	1.012183
1428.000000	0.998697
1429.000000	0.974045
1430.000000	0.952515
1431.000000	0.951760
1432.000000	0.929144
1433.000000	0.921287
1434.000000	0.914971
1435.000000	0.905999
1436.000000	0.896639
1437.000000	0.888884
1438.000000	0.877902
1439.000000	0.873970
1440.000000	0.856124
1441.000000	0.847752
1442.000000	0.843113
1443.000000	0.828990
1444.000000	0.820674
1445.000000	0.821168
1446.000000	0.803925
1447.000000	0.812249
1448.000000	0.804937
1449.000000	0.803194
1450.000000	0.773588
1451.000000	0.771761
1452.000000	0.772512
1453.000000	0.755383
1454.000000	0.765828
1455.000000	0.758474
1456.000000	0.747352
1457.000000	0.739131
1458.000000	0.726959
1459.000000	0.714941
1460.000000	0.706065
1461.000000	0.695914
1462.000000	0.686394
1463.000000	0.702721
1464.000000	0.680442
1465.000000	0.679341
1466.000000	0.666324
1467.000000	0.679245
1468.000000	0.664172
1469.000000	0.654427
1470.000000	0.646791
1471.000000	0.634679
1472.000000	0.623600
1473.000000	0.636965
1474.000000	0.645021
1475.000000	0.628214
1476.000000	0.623385
1477.000000	0.618102
1478.000000	0.614139
1479.000000	0.625415
1480.000000	0.615901
1481.000000	0.610490
1482.000000	0.599967
1483.000000	0.615350
1484.000000	0.608434
1485.000000	0.594035
1486.000000	0.585618
1487.000000	0.589455
1488.000000	0.575003
1489.000000	0.574400
1490.000000	0.581095
1491.000000	0.590783
1492.000000	0.582303
1493.000000	0.584753
1494.000000	0.584503
1495.000000	0.581806
1496.000000	0.582059
1497.000000	0.586851
1498.000000	0.585432
1499.000000	0.591321
1500.000000	0.592023
1501.000000	0.587453
1502.000000	0.597704
1503.000000	0.600319
1504.000000	0.624627
1505.000000	0.621637
1506.000000	0.621908
1507.000000	0.618179
1508.000000	0.627888
1509.000000	0.644047
1510.000000	0.651126
1511.000000	0.651294
1512.000000	0.662002
1513.000000	0.674751
1514.000000	0.680595
1515.000000	0.696460
1516.000000	0.702160
1517.000000	0.688625
1518.000000	0.701848
1519.000000	0.712013
1520.000000	0.716071
1521.000000	0.721680
1522.000000	0.728425
1523.000000	0.728284
1524.000000	0.742575
1525.000000	0.753510
1526.000000	0.764109
1527.000000	0.768900
1528.000000	0.770715
1529.000000	0.787162
1530.000000	0.788646
1531.000000	0.790411
1532.000000	0.793432
1533.000000	0.787531
1534.000000	0.792482
1535.000000	0.799901
1536.000000	0.802886
1537.000000	0.810947
1538.000000	0.815286
1539.000000	0.814517
1540.000000	0.810257
1541.000000	0.806681
1542.000000	0.802023
1543.000000	0.803524
1544.000000	0.816180
1545.000000	0.806857
1546.000000	0.802294
1547.000000	0.804896
1548.000000	0.804325
1549.000000	0.803836
1550.000000	0.811652
1551.000000	0.818031
1552.000000	0.817511
1553.000000	0.830873
1554.000000	0.833232
1555.000000	0.825253
1556.000000	0.831527
1557.000000	0.845903
1558.000000	0.852391
1559.000000	0.844377
1560.000000	0.852237
1561.000000	0.864758
1562.000000	0.860951
1563.000000	0.862425
1564.000000	0.873889
1565.000000	0.882294
1566.000000	0.882432
1567.000000	0.882283
1568.000000	0.879590
1569.000000	0.872956
1570.000000	0.867609
1571.000000	0.875843
1572.000000	0.879712
1573.000000	0.871892
1574.000000	0.870935
1575.000000	0.866276
1576.000000	0.867138
1577.000000	0.867897
1578.000000	0.868906
1579.000000	0.872805
1580.000000	0.871033
1581.000000	0.876697
1582.000000	0.879173
1583.000000	0.877663
1584.000000	0.887583
1585.000000	0.892493
1586.000000	0.885485
1587.000000	0.891552
1588.000000	0.902459
1589.000000	0.900396
1590.000000	0.907070
1591.000000	0.909852
1592.000000	0.903549
1593.000000	0.905434
1594.000000	0.913414
1595.000000	0.915816
1596.000000	0.915124
1597.000000	0.914383
1598.000000	0.916348
1599.000000	0.919735
1600.000000	0.923447
1601.000000	0.920889
1602.000000	0.927155
1603.000000	0.937066
1604.000000	0.948724
1605.000000	0.950368
1606.000000	0.953400
1607.000000	0.950356
1608.000000	0.955220
1609.000000	0.957212
1610.000000	0.973900
1611.000000	0.975447
1612.000000	0.960729
1613.000000	0.960926
1614.000000	0.964436
1615.000000	0.968215
1616.000000	0.973916
1617.000000	0.967115
1618.000000	0.958042
1619.000000	0.960489
1620.000000	0.955728
1621.000000	0.956011
1622.000000	0.941752
1623.000000	0.955260
1624.000000	0.961080
1625.000000	0.952113
1626.000000	0.945382
1627.000000	0.954654
1628.000000	0.956499
1629.000000	0.955317
1630.000000	0.970455
1631.000000	0.966748
1632.000000	0.952872
1633.000000	0.960268
1634.000000	0.958669
1635.000000	0.950525
1636.000000	0.965950
1637.000000	0.958943
1638.000000	0.956984
1639.000000	0.958765
1640.000000	0.946600
1641.000000	0.947254
1642.000000	0.943403
1643.000000	0.951813
1644.000000	0.959804
1645.000000	0.949019
1646.000000	0.959012
1647.000000	0.958238
1648.000000	0.948480
1649.000000	0.949341
1650.000000	0.954349
1651.000000	0.943426
1652.000000	0.955279
1653.000000	0.956235
1654.000000	0.938326
1655.000000	0.933807
1656.000000	0.947716
1657.000000	0.947292
1658.000000	0.939566
1659.000000	0.927693
1660.000000	0.928415
1661.000000	0.904849
1662.000000	0.895099
1663.000000	0.896583
1664.000000	0.888091
1665.000000	0.877232
1666.000000	0.873388
1667.000000	0.869602
1668.000000	0.856910
1669.000000	0.845473
1670.000000	0.853772
1671.000000	0.833341
1672.000000	0.823448
1673.000000	0.811988
1674.000000	0.812742
1675.000000	0.792935
1676.000000	0.779893
1677.000000	0.771486
1678.000000	0.771845
1679.000000	0.767841
1680.000000	0.761752
1681.000000	0.756650
1682.000000	0.732227
1683.000000	0.735493
1684.000000	0.714556
1685.000000	0.704013
1686.000000	0.710813
1687.000000	0.709962
1688.000000	0.716677
1689.000000	0.737577
1690.000000	0.737649
1691.000000	0.757012
1692.000000	0.800154
1693.000000	0.818856
1694.000000	0.851000
1695.000000	0.870174
1696.000000	0.881008
1697.000000	0.906132
1698.000000	0.928135
1699.000000	0.946492
1700.000000	0.963795
1701.000000	0.996184
1702.000000	1.014356
1703.000000	1.023447
1704.000000	1.043683
1705.000000	1.070851
1706.000000	1.078466
1707.000000	1.106486
1708.000000	1.093151
1709.000000	1.108933
1710.000000	1.109587
1711.000000	1.102653
1712.000000	1.101637
1713.000000	1.102005
1714.000000	1.098544
1715.000000	1.099562
1716.000000	1.114022
1717.000000	1.078920
1718.000000	1.082757
1719.000000	1.073190
1720.000000	1.079974
1721.000000	1.071224
1722.000000	1.068435
1723.000000	1.077784
1724.000000	1.088333
1725.000000	1.087580
1726.000000	1.106801
1727.000000	1.119859
1728.000000	1.144755
1729.000000	1.150636
1730.000000	1.160109
1731.000000	1.172848
1732.000000	1.139702
1733.000000	1.144355
1734.000000	1.123721
1735.000000	1.087567
1736.000000	1.073284
1737.000000	1.036454
1738.000000	1.015052
1739.000000	0.999764
1740.000000	0.981226
1741.000000	0.962785
1742.000000	0.971406
1743.000000	0.966382
1744.000000	0.969277
1745.000000	0.976802
1746.000000	0.981338
1747.000000	0.974722
1748.000000	0.987420
1749.000000	0.990518
1750.000000	0.997748
1751.000000	0.999697
1752.000000	1.008063
1753.000000	1.020815
1754.000000	1.018250
1755.000000	1.029286
1756.000000	1.036941
1757.000000	1.039830
1758.000000	1.048027
1759.000000	1.044782
1760.000000	1.032230
1761.000000	1.045734
1762.000000	1.037800
1763.000000	1.047307
1764.000000	1.052880
1765.000000	1.040960
1766.000000	1.029259
1767.000000	1.008199
1768.000000	0.999813
1769.000000	0.980881
1770.000000	0.955341
1771.000000	0.946850
1772.000000	0.931238
1773.000000	0.928301
1774.000000	0.928424
1775.000000	0.917854
1776.000000	0.912482
1777.000000	0.909642
1778.000000	0.903429
1779.000000	0.890013
1780.000000	0.907486
1781.000000	0.895514
1782.000000	0.882556
1783.000000	0.882831
1784.000000	0.877245
1785.000000	0.883894
1786.000000	0.888961
1787.000000	0.887763
1788.000000	0.883570
1789.000000	0.888021
1790.000000	0.895294
1791.000000	0.892243
1792.000000	0.887175
1793.000000	0.888333
1794.000000	0.891642
1795.000000	0.895167
1796.000000	0.896816
1797.000000	0.906268
1798.000000	0.913893
1799.000000	0.913173
1800.000000	0.907217
1801.000000	0.902308
1802.000000	0.904378
1803.000000	0.916238
1804.000000	0.919695
1805.000000	0.915291
1806.000000	0.911315
1807.000000	0.915770
1808.000000	0.922933
1809.000000	0.921748
1810.000000	0.909098
1811.000000	0.913602
1812.000000	0.921596
1813.000000	0.921563
1814.000000	0.926527
1815.000000	0.925567
1816.000000	0.926686
1817.000000	0.928390
1818.000000	0.925939
1819.000000	0.910515
1820.000000	0.895054
1821.000000	0.897105
1822.000000	0.919660
1823.000000	0.941535
1824.000000	0.933269
1825.000000	0.912986
1826.000000	0.900665
1827.000000	0.895638
1828.000000	0.892576
1829.000000	0.893510
1830.000000	0.889831
1831.000000	0.890107
1832.000000	0.904508
1833.000000	0.909928
1834.000000	0.899968
1835.000000	0.887094
1836.000000	0.876995
1837.000000	0.876937
1838.000000	0.893126
1839.000000	0.892582
1840.000000	0.878774
1841.000000	0.876149
1842.000000	0.886613
1843.000000	0.909702
1844.000000	0.908699
1845.000000	0.890951
1846.000000	0.865033
1847.000000	0.838341
1848.000000	0.846641
1849.000000	0.879253
1850.000000	0.912015
1851.000000	0.908930
1852.000000	0.879925
1853.000000	0.859432
1854.000000	0.857524
1855.000000	0.856292
1856.000000	0.857164
1857.000000	0.846806
1858.000000	0.833260
1859.000000	0.815502
1860.000000	0.822291
1861.000000	0.830006
1862.000000	0.825541
1863.000000	0.831894
1864.000000	0.815255
1865.000000	0.788481
1866.000000	0.768948
1867.000000	0.747042
1868.000000	0.724408
1869.000000	0.697644
1870.000000	0.685199
1871.000000	0.693483
1872.000000	0.692435
1873.000000	0.675761
1874.000000	0.670687
1875.000000	0.667693
1876.000000	0.667389
1877.000000	0.651229
1878.000000	0.633088
1879.000000	0.615373
1880.000000	0.610348
1881.000000	0.591758
1882.000000	0.554184
1883.000000	0.530423
1884.000000	0.515611
1885.000000	0.491128
1886.000000	0.474942
1887.000000	0.456193
1888.000000	0.439618
1889.000000	0.420307
1890.000000	0.402933
1891.000000	0.369398
1892.000000	0.345032
1893.000000	0.332446
1894.000000	0.331623
1895.000000	0.320146
1896.000000	0.294869
1897.000000	0.282801
1898.000000	0.284429
1899.000000	0.303521
1900.000000	0.305118
1901.000000	0.328146
1902.000000	0.340545
1903.000000	0.336817
1904.000000	0.353866
1905.000000	0.359063
1906.000000	0.386048
1907.000000	0.402568
1908.000000	0.416567
1909.000000	0.420815
1910.000000	0.421295
1911.000000	0.427572
1912.000000	0.445216
1913.000000	0.458708
1914.000000	0.474396
1915.000000	0.480934
1916.000000	0.491932
1917.000000	0.487773
1918.000000	0.480552
1919.000000	0.495034
1920.000000	0.492206
1921.000000	0.499899
1922.000000	0.520735
1923.000000	0.522176
1924.000000	0.520305
1925.000000	0.494709
1926.000000	0.506186
1927.000000	0.513455
1928.000000	0.523571
1929.000000	0.520843
1930.000000	0.526742
1931.000000	0.522187
1932.000000	0.520437
1933.000000	0.523789
1934.000000	0.506612
1935.000000	0.512731
1936.000000	0.508253
1937.000000	0.513203
1938.000000	0.523295
1939.000000	0.518628
1940.000000	0.510436
1941.000000	0.497763
1942.000000	0.485383
1943.000000	0.490043
1944.000000	0.491360
1945.000000	0.474745
1946.000000	0.467487
1947.000000	0.462662
1948.000000	0.467160
1949.000000	0.454428
1950.000000	0.446604
1951.000000	0.452317
1952.000000	0.442460
1953.000000	0.433007
1954.000000	0.429229
1955.000000	0.438658
1956.000000	0.419703
1957.000000	0.410465
1958.000000	0.405979
1959.000000	0.405124
1960.000000	0.401816
1961.000000	0.393735
1962.000000	0.395064
1963.000000	0.374595
1964.000000	0.379540
1965.000000	0.391583
1966.000000	0.370125
1967.000000	0.354999
1968.000000	0.356096
1969.000000	0.366739
1970.000000	0.359017
1971.000000	0.346023
1972.000000	0.349069
1973.000000	0.364894
1974.000000	0.343344
1975.000000	0.315536
1976.000000	0.327720
1977.000000	0.327218
1978.000000	0.322895
1979.000000	0.302861
1980.000000	0.306118
1981.000000	0.311508
1982.000000	0.283744
1983.000000	0.293431
1984.000000	0.285303
1985.000000	0.289147
1986.000000	0.274969
1987.000000	0.270945
1988.000000	0.262756
1989.000000	0.249359
1990.000000	0.255840
1991.000000	0.252046
1992.000000	0.246787
1993.000000	0.230757
1994.000000	0.236812
1995.000000	0.235448
1996.000000	0.213277
1997.000000	0.213960
1998.000000	0.214285
1999.000000	0.203384
2000.000000	0.196931
2001.000000	0.193529
2002.000000	0.185012
2003.000000	0.183159
2004.000000	0.184534
2005.000000	0.177048
2006.000000	0.169915
2007.000000	0.161407
2008.000000	0.181162
2009.000000	0.162675
2010.000000	0.160715
2011.000000	0.145823
2012.000000	0.163511
2013.000000	0.171824
2014.000000	0.164177
2015.000000	0.165075
2016.000000	0.160906
2017.000000	0.173091
2018.000000	0.172746
2019.000000	0.176935
2020.000000	0.178643
2021.000000	0.171293
2022.000000	0.174937
2023.000000	0.185058
2024.000000	0.180202
2025.000000	0.160276
2026.000000	0.166124
2027.000000	0.171581
2028.000000	0.175923
2029.000000	0.172433
2030.000000	0.167586
2031.000000	0.176963
2032.000000	0.179891
2033.000000	0.176186
2034.000000	0.166946
2035.000000	0.176954
2036.000000	0.167876
2037.000000	0.169997
2038.000000	0.161155
2039.000000	0.151995
2040.000000	0.150655
2041.000000	0.149753
2042.000000	0.144919
2043.000000	0.139488
2044.000000	0.140617
2045.000000	0.134905
2046.000000	0.136282
2047.000000	0.145182
2048.000000	0.150224
2049.000000	0.148633
2050.000000	0.173510
2051.000000	0.169575
2052.000000	0.175113
2053.000000	0.181558
2054.000000	0.195247
2055.000000	0.212087
2056.000000	0.219462
2057.000000	0.237019
2058.000000	0.241800
2059.000000	0.254534
2060.000000	0.260411
2061.000000	0.263178
2062.000000	0.270436
2063.000000	0.268709
2064.000000	0.277311
2065.000000	0.289448
2066.000000	0.288361
2067.000000	0.301834
2068.000000	0.314802
2069.000000	0.299967
2070.000000	0.298424
2071.000000	0.310315
2072.000000	0.301582
2073.000000	0.304029
2074.000000	0.303496
2075.000000	0.303027
2076.000000	0.317139
2077.000000	0.314744
2078.000000	0.306186
2079.000000	0.311337
2080.000000	0.302181
2081.000000	0.301240
2082.000000	0.301255
2083.000000	0.293934
2084.000000	0.292249
2085.000000	0.286692
2086.000000	0.287812
2087.000000	0.278619
2088.000000	0.276994
2089.000000	0.292305
2090.000000	0.289231
2091.000000	0.284828
2092.000000	0.285410
2093.000000	0.278311
2094.000000	0.277539
2095.000000	0.280870
2096.000000	0.270109
2097.000000	0.257492
2098.000000	0.260455
2099.000000	0.255360
2100.000000	0.259295
2101.000000	0.257580
2102.000000	0.239933
2103.000000	0.253312
2104.000000	0.256074
2105.000000	0.246044
2106.000000	0.225674
2107.000000	0.217940
2108.000000	0.230637
2109.000000	0.228893
2110.000000	0.218922
2111.000000	0.220408
2112.000000	0.230998
2113.000000	0.233168
2114.000000	0.214849
2115.000000	0.207370
2116.000000	0.217918
2117.000000	0.207492
2118.000000	0.201944
2119.000000	0.202143
2120.000000	0.197659
2121.000000	0.201855
2122.000000	0.206734
2123.000000	0.199687
2124.000000	0.191673
2125.000000	0.201435
2126.000000	0.209277
2127.000000	0.202628
2128.000000	0.194492
2129.000000	0.204782
2130.000000	0.197164
2131.000000	0.196564
2132.000000	0.200111
2133.000000	0.192636
2134.000000	0.191723
2135.000000	0.188560
2136.000000	0.188949
2137.000000	0.197049
2138.000000	0.183189
2139.000000	0.188737
2140.000000	0.200992
2141.000000	0.192987
2142.000000	0.180291
2143.000000	0.176767
2144.000000	0.183734
2145.000000	0.190843
2146.000000	0.197037
2147.000000	0.177139
2148.000000	0.182123
2149.000000	0.188606
2150.000000	0.185971
2151.000000	0.184320
2152.000000	0.188327
2153.000000	0.183191
2154.000000	0.179307
2155.000000	0.182621
2156.000000	0.185204
2157.000000	0.185791
2158.000000	0.187524
2159.000000	0.178408
2160.000000	0.167489
2161.000000	0.172081
2162.000000	0.163867
2163.000000	0.164128
2164.000000	0.151323
2165.000000	0.156100
2166.000000	0.153356
2167.000000	0.142814
2168.000000	0.127674
2169.000000	0.149774
2170.000000	0.144464
2171.000000	0.144398
2172.000000	0.139409
2173.000000	0.140440
2174.000000	0.135775
2175.000000	0.134767
2176.000000	0.131848
2177.000000	0.141209
2178.000000	0.143382
2179.000000	0.126809
2180.000000	0.131839
2181.000000	0.132437
2182.000000	0.134165
2183.000000	0.133321
2184.000000	0.140181
2185.000000	0.146506
2186.000000	0.145212
2187.000000	0.135361
2188.000000	0.139834
2189.000000	0.137105
2190.000000	0.132771
2191.000000	0.147522
2192.000000	0.142287
2193.000000	0.150486
2194.000000	0.130599
2195.000000	0.139920
2196.000000	0.130653
2197.000000	0.128355
2198.000000	0.127554
2199.000000	0.117743
2200.000000	0.119357
2201.000000	0.114033
2202.000000	0.111551
2203.000000	0.123246
2204.000000	0.126566
2205.000000	0.128852
2206.000000	0.122648
2207.000000	0.114984
2208.000000	0.123802
2209.000000	0.129861
2210.000000	0.118681
2211.000000	0.133522
2212.000000	0.121414
2213.000000	0.124240
2214.000000	0.118042
2215.000000	0.124367
2216.000000	0.138070
2217.000000	0.134976
2218.000000	0.129130
2219.000000	0.127621
2220.000000	0.138195
2221.000000	0.141366
2222.000000	0.140858
2223.000000	0.151524
2224.000000	0.149697
2225.000000	0.144395
2226.000000	0.134040
2227.000000	0.138422
2228.000000	0.146886
2229.000000	0.141323
2230.000000	0.155083
2231.000000	0.151273
2232.000000	0.150139
2233.000000	0.142956
2234.000000	0.146490
2235.000000	0.152517
2236.000000	0.166571
2237.000000	0.155850
2238.000000	0.159523
2239.000000	0.164614
2240.000000	0.169809
2241.000000	0.137466
2242.000000	0.152337
2243.000000	0.162191
2244.000000	0.153321
2245.000000	0.169177
2246.000000	0.160412
2247.000000	0.145608
2248.000000	0.155412
2249.000000	0.146092
2250.000000	0.148959
2251.000000	0.161486
2252.000000	0.156039
2253.000000	0.150704
2254.000000	0.150075
2255.000000	0.149284
2256.000000	0.147245
2257.000000	0.154960
2258.000000	0.144246
2259.000000	0.147936
2260.000000	0.162247
2261.000000	0.154131
2262.000000	0.149686
2263.000000	0.133815
2264.000000	0.154356
2265.000000	0.144981
2266.000000	0.137064
2267.000000	0.116601
2268.000000	0.130815
2269.000000	0.132484
2270.000000	0.124334
2271.000000	0.131089
2272.000000	0.132134
2273.000000	0.130426
2274.000000	0.124057
2275.000000	0.135528
2276.000000	0.135693
2277.000000	0.128724
2278.000000	0.136830
2279.000000	0.136900
2280.000000	0.147046
2281.000000	0.156049
2282.000000	0.147660
2283.000000	0.147657
2284.000000	0.160343
2285.000000	0.161046
2286.000000	0.154638
2287.000000	0.149200
2288.000000	0.158340
2289.000000	0.173806
2290.000000	0.184263
2291.000000	0.178285
2292.000000	0.194995
2293.000000	0.197450
2294.000000	0.179306
2295.000000	0.183800
2296.000000	0.204986
2297.000000	0.200707
2298.000000	0.203342
2299.000000	0.212619
2300.000000	0.218447
2301.000000	0.209248
2302.000000	0.223439
2303.000000	0.233258
2304.000000	0.223830
2305.000000	0.223847
2306.000000	0.240573
2307.000000	0.238269
2308.000000	0.224460
2309.000000	0.223959
2310.000000	0.232818
2311.000000	0.233218
2312.000000	0.220242
2313.000000	0.208600
2314.000000	0.217191
2315.000000	0.207059
2316.000000	0.206468
2317.000000	0.204807
2318.000000	0.190553
2319.000000	0.190845
2320.000000	0.184623
2321.000000	0.181326
2322.000000	0.180228
2323.000000	0.181250
2324.000000	0.175152
2325.000000	0.156733
2326.000000	0.150269
2327.000000	0.165956
2328.000000	0.168271
2329.000000	0.178553
2330.000000	0.162781
2331.000000	0.163459
2332.000000	0.168009
2333.000000	0.172135
2334.000000	0.176642
2335.000000	0.178753
2336.000000	0.179170
2337.000000	0.187313
2338.000000	0.195760
2339.000000	0.195232
2340.000000	0.190317
2341.000000	0.198672
2342.000000	0.209416
2343.000000	0.219003
2344.000000	0.216287
2345.000000	0.216932
2346.000000	0.224052
2347.000000	0.233453
2348.000000	0.233493
2349.000000	0.226873
2350.000000	0.236060
2351.000000	0.236219
2352.000000	0.229395
2353.000000	0.222193
2354.000000	0.224094
2355.000000	0.233386
2356.000000	0.223919
2357.000000	0.215523
2358.000000	0.213555
2359.000000	0.215521
2360.000000	0.217295
2361.000000	0.223247
2362.000000	0.229731
2363.000000	0.231224
2364.000000	0.229680
2365.000000	0.224200
2366.000000	0.225982
2367.000000	0.230388
2368.000000	0.224011
2369.000000	0.219442
2370.000000	0.232416
2371.000000	0.242451
2372.000000	0.238399
2373.000000	0.231779
2374.000000	0.233522
2375.000000	0.235653
2376.000000	0.240509
2377.000000	0.245944
2378.000000	0.246874
2379.000000	0.242803
2380.000000	0.241296
2381.000000	0.238969
2382.000000	0.240872
2383.000000	0.241193
2384.000000	0.247880
2385.000000	0.244035
2386.000000	0.239276
2387.000000	0.241268
2388.000000	0.235349
2389.000000	0.236504
2390.000000	0.237151
2391.000000	0.246281
2392.000000	0.239204
2393.000000	0.235737
2394.000000	0.244219
2395.000000	0.241094
2396.000000	0.229568
2397.000000	0.230434
2398.000000	0.229274
2399.000000	0.237777
2400.000000	0.244187
2401.000000	0.244087
2402.000000	0.238182
2403.000000	0.238055
2404.000000	0.225608
2405.000000	0.220670
2406.000000	0.224522
2407.000000	0.226310
2408.000000	0.228602
2409.000000	0.214964
2410.000000	0.217958
2411.000000	0.218194
2412.000000	0.216405
2413.000000	0.207815
2414.000000	0.215270
2415.000000	0.226932
2416.000000	0.212675
2417.000000	0.206765
2418.000000	0.199523
2419.000000	0.200278
2420.000000	0.186842
2421.000000	0.194725
2422.000000	0.192844
2423.000000	0.190070
2424.000000	0.188959
2425.000000	0.178523
2426.000000	0.172538
2427.000000	0.177383
2428.000000	0.171599
2429.000000	0.174740
2430.000000	0.163190
2431.000000	0.167785
2432.000000	0.169822
2433.000000	0.158397
2434.000000	0.155816
2435.000000	0.160241
2436.000000	0.161767
2437.000000	0.168321
2438.000000	0.155095
2439.000000	0.150950
2440.000000	0.149314
2441.000000	0.143445
2442.000000	0.160169
2443.000000	0.140278
2444.000000	0.122869
2445.000000	0.147629
2446.000000	0.149760
2447.000000	0.139160
2448.000000	0.138746
2449.000000	0.153014
2450.000000	0.133289
2451.000000	0.126688
2452.000000	0.127974
2453.000000	0.125632
2454.000000	0.134010
2455.000000	0.125278
2456.000000	0.122868
2457.000000	0.126749
2458.000000	0.115035
2459.000000	0.105253
2460.000000	0.112714
2461.000000	0.108714
2462.000000	0.112210
2463.000000	0.109517
2464.000000	0.090668
2465.000000	0.103810
2466.000000	0.119011
2467.000000	0.102399
2468.000000	0.123312
2469.000000	0.116785
2470.000000	0.093126
2471.000000	0.096665
2472.000000	0.113208
2473.000000	0.089281
2474.000000	0.131424
2475.000000	0.094823
2476.000000	0.112337
2477.000000	0.130206
2478.000000	0.105416
2479.000000	0.135033
2480.000000	0.075310
2481.000000	0.107553
2482.000000	0.145061
2483.000000	0.108536
2484.000000	0.120471
2485.000000	0.168183
2486.000000	0.146251
2487.000000	0.076048
2488.000000	0.139090
2489.000000	0.105320
2490.000000	0.163767
2491.000000	0.162516
2492.000000	0.126098
2493.000000	0.059123
2494.000000	0.154950
2495.000000	0.145653
2496.000000	0.184975
2497.000000	0.103102
2498.000000	0.077879
2499.000000	0.136878
2500.000000	0.090288
