PE UV       SUBTECH     SPECTRUM    ASCII       PEDS        4.00        
   -1
BIOUCR0005-3.Sample.ASC
24/02/19
12:33:52.00
24/02/19
12:33:52.00
Vinicio Soto Monge
P. cupreomarginata (sin datos) Monteverde(dudoso)
250,000000
1
Lambda 1050
1050L1511233
PerkinElmer UV WinLab 6.3.2.0749 / 2.02.05 Lambda 900 UV/VIS/NIR, Aug  7 2015 09:38:08

0
0
3350/servo 860,8/2
0
0
UV/VIS
1
1
1
DoubleDePol,CommonBeamDepol,RBeamAtt,SBeamAtt,60mm sphere, WB InGaAs Detector
0
0
0
0
Program
Program
3350/servo 860,8/2
3350/0,2 860,8/0,2
3350/0,2 860,8/0,2
0
15.00
 
 
 
0
 
860,8
319,2
860,8
Front
100
on
S:100 R:100
0
0
0
0
 
0
 
 
 
0
 
 
0
0
0
0
0
 
 
 
 
0
0


0
0
#HDR
-1
-1
#GR
nm
%R
1.0
0.0
2500,000000
-1,000000
2251
8
24,464900
1,688200
#DATA

250.000000	0.133330
251.000000	0.124195
252.000000	0.129507
253.000000	0.127737
254.000000	0.116223
255.000000	0.128199
256.000000	0.122020
257.000000	0.124335
258.000000	0.123805
259.000000	0.118516
260.000000	0.111154
261.000000	0.114465
262.000000	0.107624
263.000000	0.094093
264.000000	0.118057
265.000000	0.120575
266.000000	0.101887
267.000000	0.099353
268.000000	0.108763
269.000000	0.089617
270.000000	0.113253
271.000000	0.103517
272.000000	0.099251
273.000000	0.109063
274.000000	0.089451
275.000000	0.099304
276.000000	0.098217
277.000000	0.083469
278.000000	0.089164
279.000000	0.094704
280.000000	0.081061
281.000000	0.083719
282.000000	0.082919
283.000000	0.082603
284.000000	0.093779
285.000000	0.095238
286.000000	0.083274
287.000000	0.073585
288.000000	0.060053
289.000000	0.057784
290.000000	0.070601
291.000000	0.061499
292.000000	0.061434
293.000000	0.064370
294.000000	0.064798
295.000000	0.046430
296.000000	0.049803
297.000000	0.067515
298.000000	0.083695
299.000000	0.061805
300.000000	0.056653
301.000000	0.061669
302.000000	0.062801
303.000000	0.073347
304.000000	0.056014
305.000000	0.063819
306.000000	0.064916
307.000000	0.044225
308.000000	0.043931
309.000000	0.062410
310.000000	0.068233
311.000000	0.067610
312.000000	0.042806
313.000000	0.040662
314.000000	0.051351
315.000000	0.050071
316.000000	0.049013
317.000000	0.101782
318.000000	0.107590
319.000000	0.067276
320.000000	0.048528
321.000000	0.073234
322.000000	0.045125
323.000000	0.071860
324.000000	0.082829
325.000000	0.036523
326.000000	0.044237
327.000000	0.087956
328.000000	0.022181
329.000000	0.038610
330.000000	0.054333
331.000000	0.077540
332.000000	0.032060
333.000000	0.034294
334.000000	0.057904
335.000000	0.064311
336.000000	0.046622
337.000000	0.049734
338.000000	0.061112
339.000000	0.045997
340.000000	0.052117
341.000000	0.063418
342.000000	0.073373
343.000000	0.056563
344.000000	0.055518
345.000000	0.062373
346.000000	0.053625
347.000000	0.052715
348.000000	0.048305
349.000000	0.052748
350.000000	0.057428
351.000000	0.045894
352.000000	0.051502
353.000000	0.034118
354.000000	0.059273
355.000000	0.078708
356.000000	0.052507
357.000000	0.015645
358.000000	0.052356
359.000000	0.046135
360.000000	0.007905
361.000000	0.031107
362.000000	0.029192
363.000000	0.039627
364.000000	0.051301
365.000000	0.039473
366.000000	0.040272
367.000000	0.042908
368.000000	0.047490
369.000000	0.049974
370.000000	0.069086
371.000000	0.040610
372.000000	0.041193
373.000000	0.056503
374.000000	0.042027
375.000000	0.051950
376.000000	0.038159
377.000000	0.048661
378.000000	0.048376
379.000000	0.054042
380.000000	0.053383
381.000000	0.059763
382.000000	0.065438
383.000000	0.066219
384.000000	0.066022
385.000000	0.069483
386.000000	0.079870
387.000000	0.087932
388.000000	0.091791
389.000000	0.099236
390.000000	0.108984
391.000000	0.113236
392.000000	0.119654
393.000000	0.133540
394.000000	0.136363
395.000000	0.144910
396.000000	0.156056
397.000000	0.171220
398.000000	0.178940
399.000000	0.183811
400.000000	0.193050
401.000000	0.208320
402.000000	0.220210
403.000000	0.234161
404.000000	0.244502
405.000000	0.254393
406.000000	0.264420
407.000000	0.274778
408.000000	0.285742
409.000000	0.298293
410.000000	0.309390
411.000000	0.313601
412.000000	0.328375
413.000000	0.342213
414.000000	0.350473
415.000000	0.360869
416.000000	0.369375
417.000000	0.378889
418.000000	0.395791
419.000000	0.405015
420.000000	0.409136
421.000000	0.417039
422.000000	0.429776
423.000000	0.439379
424.000000	0.444291
425.000000	0.450001
426.000000	0.457804
427.000000	0.464058
428.000000	0.471675
429.000000	0.473351
430.000000	0.475374
431.000000	0.481666
432.000000	0.483639
433.000000	0.485145
434.000000	0.486699
435.000000	0.485640
436.000000	0.485588
437.000000	0.486431
438.000000	0.479989
439.000000	0.477495
440.000000	0.477286
441.000000	0.469412
442.000000	0.462261
443.000000	0.446951
444.000000	0.432881
445.000000	0.428799
446.000000	0.422242
447.000000	0.412549
448.000000	0.409893
449.000000	0.399160
450.000000	0.389269
451.000000	0.383708
452.000000	0.378150
453.000000	0.369867
454.000000	0.362062
455.000000	0.366004
456.000000	0.376505
457.000000	0.390415
458.000000	0.402703
459.000000	0.417068
460.000000	0.429856
461.000000	0.451246
462.000000	0.475366
463.000000	0.496369
464.000000	0.530590
465.000000	0.566836
466.000000	0.593009
467.000000	0.623578
468.000000	0.654062
469.000000	0.682039
470.000000	0.707392
471.000000	0.730469
472.000000	0.749756
473.000000	0.766174
474.000000	0.782448
475.000000	0.796116
476.000000	0.806784
477.000000	0.812149
478.000000	0.820671
479.000000	0.828356
480.000000	0.825440
481.000000	0.814854
482.000000	0.810486
483.000000	0.808616
484.000000	0.823117
485.000000	0.833773
486.000000	0.833687
487.000000	0.836661
488.000000	0.847800
489.000000	0.848460
490.000000	0.857962
491.000000	0.867766
492.000000	0.871603
493.000000	0.875026
494.000000	0.886030
495.000000	0.896350
496.000000	0.902194
497.000000	0.916047
498.000000	0.927221
499.000000	0.935838
500.000000	0.947074
501.000000	0.970479
502.000000	0.991867
503.000000	1.003264
504.000000	1.023949
505.000000	1.040397
506.000000	1.055541
507.000000	1.067476
508.000000	1.086710
509.000000	1.105943
510.000000	1.129272
511.000000	1.148718
512.000000	1.158010
513.000000	1.168509
514.000000	1.185379
515.000000	1.200469
516.000000	1.217178
517.000000	1.243485
518.000000	1.261326
519.000000	1.274118
520.000000	1.295509
521.000000	1.309779
522.000000	1.326026
523.000000	1.334868
524.000000	1.352668
525.000000	1.366550
526.000000	1.379752
527.000000	1.388467
528.000000	1.398719
529.000000	1.407861
530.000000	1.408283
531.000000	1.408688
532.000000	1.411295
533.000000	1.420563
534.000000	1.443683
535.000000	1.460526
536.000000	1.480600
537.000000	1.509925
538.000000	1.527238
539.000000	1.545368
540.000000	1.566836
541.000000	1.581059
542.000000	1.602815
543.000000	1.627904
544.000000	1.642087
545.000000	1.653892
546.000000	1.670335
547.000000	1.678868
548.000000	1.677902
549.000000	1.676145
550.000000	1.675790
551.000000	1.673626
552.000000	1.684688
553.000000	1.697540
554.000000	1.699318
555.000000	1.710727
556.000000	1.729331
557.000000	1.749604
558.000000	1.752124
559.000000	1.767072
560.000000	1.765782
561.000000	1.774192
562.000000	1.785897
563.000000	1.807934
564.000000	1.809262
565.000000	1.816868
566.000000	1.830822
567.000000	1.835398
568.000000	1.837669
569.000000	1.836224
570.000000	1.847892
571.000000	1.838991
572.000000	1.838609
573.000000	1.847608
574.000000	1.857605
575.000000	1.866144
576.000000	1.876750
577.000000	1.888383
578.000000	1.903396
579.000000	1.901689
580.000000	1.919455
581.000000	1.917943
582.000000	1.896086
583.000000	1.877663
584.000000	1.884969
585.000000	1.884112
586.000000	1.878703
587.000000	1.868849
588.000000	1.867088
589.000000	1.849328
590.000000	1.842902
591.000000	1.839468
592.000000	1.835767
593.000000	1.820586
594.000000	1.826437
595.000000	1.825746
596.000000	1.816629
597.000000	1.818102
598.000000	1.803017
599.000000	1.791268
600.000000	1.773508
601.000000	1.750713
602.000000	1.717063
603.000000	1.664190
604.000000	1.625531
605.000000	1.570962
606.000000	1.530858
607.000000	1.478915
608.000000	1.424208
609.000000	1.371216
610.000000	1.329053
611.000000	1.305959
612.000000	1.270229
613.000000	1.258878
614.000000	1.242991
615.000000	1.222853
616.000000	1.228307
617.000000	1.225918
618.000000	1.241025
619.000000	1.238027
620.000000	1.239126
621.000000	1.256149
622.000000	1.277166
623.000000	1.289864
624.000000	1.305279
625.000000	1.325120
626.000000	1.339467
627.000000	1.335000
628.000000	1.362406
629.000000	1.382534
630.000000	1.395377
631.000000	1.413760
632.000000	1.432750
633.000000	1.437289
634.000000	1.446306
635.000000	1.463695
636.000000	1.463333
637.000000	1.463195
638.000000	1.461800
639.000000	1.460448
640.000000	1.431089
641.000000	1.412013
642.000000	1.399877
643.000000	1.395375
644.000000	1.383462
645.000000	1.380470
646.000000	1.382229
647.000000	1.370008
648.000000	1.348302
649.000000	1.354728
650.000000	1.373974
651.000000	1.399359
652.000000	1.410990
653.000000	1.410138
654.000000	1.428410
655.000000	1.454160
656.000000	1.498555
657.000000	1.525444
658.000000	1.557364
659.000000	1.582925
660.000000	1.615608
661.000000	1.662338
662.000000	1.701280
663.000000	1.723989
664.000000	1.766247
665.000000	1.821335
666.000000	1.844372
667.000000	1.847001
668.000000	1.856137
669.000000	1.868638
670.000000	1.872088
671.000000	1.876727
672.000000	1.889974
673.000000	1.888175
674.000000	1.874525
675.000000	1.874323
676.000000	1.860267
677.000000	1.835194
678.000000	1.834299
679.000000	1.831517
680.000000	1.810193
681.000000	1.783291
682.000000	1.781820
683.000000	1.760128
684.000000	1.749779
685.000000	1.744751
686.000000	1.730067
687.000000	1.724892
688.000000	1.727093
689.000000	1.720743
690.000000	1.729897
691.000000	1.760559
692.000000	1.788778
693.000000	1.821993
694.000000	1.865264
695.000000	1.896674
696.000000	1.944384
697.000000	1.992867
698.000000	2.046385
699.000000	2.082101
700.000000	2.113775
701.000000	2.174221
702.000000	2.236643
703.000000	2.295716
704.000000	2.332077
705.000000	2.341527
706.000000	2.359525
707.000000	2.374277
708.000000	2.395114
709.000000	2.419124
710.000000	2.413945
711.000000	2.389242
712.000000	2.365771
713.000000	2.354797
714.000000	2.337673
715.000000	2.313256
716.000000	2.298498
717.000000	2.278082
718.000000	2.250539
719.000000	2.232029
720.000000	2.215148
721.000000	2.197406
722.000000	2.172324
723.000000	2.159813
724.000000	2.141650
725.000000	2.133771
726.000000	2.132673
727.000000	2.115825
728.000000	2.112141
729.000000	2.112767
730.000000	2.111625
731.000000	2.119949
732.000000	2.120635
733.000000	2.121624
734.000000	2.118020
735.000000	2.109319
736.000000	2.120977
737.000000	2.121382
738.000000	2.114697
739.000000	2.125790
740.000000	2.121186
741.000000	2.126540
742.000000	2.160556
743.000000	2.157327
744.000000	2.151021
745.000000	2.156854
746.000000	2.129821
747.000000	2.125370
748.000000	2.142626
749.000000	2.144999
750.000000	2.127176
751.000000	2.114633
752.000000	2.118427
753.000000	2.128969
754.000000	2.124594
755.000000	2.129968
756.000000	2.123172
757.000000	2.113380
758.000000	2.106418
759.000000	2.077127
760.000000	2.084136
761.000000	2.088575
762.000000	2.093292
763.000000	2.098647
764.000000	2.085605
765.000000	2.082705
766.000000	2.100502
767.000000	2.104676
768.000000	2.111871
769.000000	2.096148
770.000000	2.079671
771.000000	2.061780
772.000000	2.045533
773.000000	2.053691
774.000000	2.040816
775.000000	2.031318
776.000000	2.022538
777.000000	2.032978
778.000000	2.025210
779.000000	2.005291
780.000000	2.006345
781.000000	2.014545
782.000000	2.000884
783.000000	1.944221
784.000000	1.919670
785.000000	1.938993
786.000000	1.928698
787.000000	1.904641
788.000000	1.911851
789.000000	1.919830
790.000000	1.890761
791.000000	1.852054
792.000000	1.884607
793.000000	1.864241
794.000000	1.881846
795.000000	1.835844
796.000000	1.821197
797.000000	1.900654
798.000000	1.857006
799.000000	1.828773
800.000000	1.787231
801.000000	1.736919
802.000000	1.712801
803.000000	1.693791
804.000000	1.735513
805.000000	1.737990
806.000000	1.699176
807.000000	1.724770
808.000000	1.676709
809.000000	1.617698
810.000000	1.596764
811.000000	1.585749
812.000000	1.547673
813.000000	1.527282
814.000000	1.474709
815.000000	1.534258
816.000000	1.482075
817.000000	1.431741
818.000000	1.435479
819.000000	1.427175
820.000000	1.391316
821.000000	1.398351
822.000000	1.339452
823.000000	1.298242
824.000000	1.263609
825.000000	1.233096
826.000000	1.259876
827.000000	1.179138
828.000000	1.128878
829.000000	1.102127
830.000000	1.104513
831.000000	1.120340
832.000000	1.067265
833.000000	0.992479
834.000000	0.953216
835.000000	1.034946
836.000000	0.964424
837.000000	0.961333
838.000000	0.890210
839.000000	0.819857
840.000000	0.793196
841.000000	0.806303
842.000000	0.782576
843.000000	0.797059
844.000000	0.808963
845.000000	0.832048
846.000000	0.860572
847.000000	0.931157
848.000000	0.839034
849.000000	0.698041
850.000000	0.842100
851.000000	0.848212
852.000000	0.835548
853.000000	0.846737
854.000000	0.799796
855.000000	0.707766
856.000000	0.796107
857.000000	0.739213
858.000000	0.249830
859.000000	0.716729
860.000000	0.730639
861.000000	0.761687
862.000000	0.793694
863.000000	0.843135
864.000000	0.880594
865.000000	0.915927
866.000000	0.950124
867.000000	0.994391
868.000000	1.026247
869.000000	1.051190
870.000000	1.068677
871.000000	1.108535
872.000000	1.147733
873.000000	1.160606
874.000000	1.197501
875.000000	1.234276
876.000000	1.242021
877.000000	1.260616
878.000000	1.272469
879.000000	1.294619
880.000000	1.300527
881.000000	1.314427
882.000000	1.336674
883.000000	1.349711
884.000000	1.373600
885.000000	1.388868
886.000000	1.407273
887.000000	1.411438
888.000000	1.440126
889.000000	1.431613
890.000000	1.453669
891.000000	1.459930
892.000000	1.468106
893.000000	1.470102
894.000000	1.498275
895.000000	1.520241
896.000000	1.519443
897.000000	1.543054
898.000000	1.553450
899.000000	1.556815
900.000000	1.564350
901.000000	1.598257
902.000000	1.612706
903.000000	1.613773
904.000000	1.604543
905.000000	1.607564
906.000000	1.633976
907.000000	1.632221
908.000000	1.633810
909.000000	1.670131
910.000000	1.681234
911.000000	1.655843
912.000000	1.673946
913.000000	1.678190
914.000000	1.691254
915.000000	1.708733
916.000000	1.714802
917.000000	1.704192
918.000000	1.719232
919.000000	1.734672
920.000000	1.746283
921.000000	1.736526
922.000000	1.735059
923.000000	1.756615
924.000000	1.770750
925.000000	1.763467
926.000000	1.758188
927.000000	1.745442
928.000000	1.761480
929.000000	1.745776
930.000000	1.748532
931.000000	1.746585
932.000000	1.737575
933.000000	1.738006
934.000000	1.750958
935.000000	1.754052
936.000000	1.762342
937.000000	1.766579
938.000000	1.766583
939.000000	1.763098
940.000000	1.782628
941.000000	1.784167
942.000000	1.793846
943.000000	1.777940
944.000000	1.788963
945.000000	1.786428
946.000000	1.791816
947.000000	1.777691
948.000000	1.791719
949.000000	1.791396
950.000000	1.816791
951.000000	1.814388
952.000000	1.821063
953.000000	1.803682
954.000000	1.806235
955.000000	1.805559
956.000000	1.800445
957.000000	1.817440
958.000000	1.811970
959.000000	1.807261
960.000000	1.826258
961.000000	1.818716
962.000000	1.813653
963.000000	1.804885
964.000000	1.791155
965.000000	1.801257
966.000000	1.804234
967.000000	1.806161
968.000000	1.802492
969.000000	1.793034
970.000000	1.790924
971.000000	1.787145
972.000000	1.779512
973.000000	1.777683
974.000000	1.769872
975.000000	1.764126
976.000000	1.758810
977.000000	1.768485
978.000000	1.772141
979.000000	1.780150
980.000000	1.757608
981.000000	1.749846
982.000000	1.751244
983.000000	1.748943
984.000000	1.740450
985.000000	1.729344
986.000000	1.748914
987.000000	1.757345
988.000000	1.745755
989.000000	1.745518
990.000000	1.751411
991.000000	1.754605
992.000000	1.754623
993.000000	1.757298
994.000000	1.754251
995.000000	1.752117
996.000000	1.745386
997.000000	1.755882
998.000000	1.765984
999.000000	1.762291
1000.000000	1.756161
1001.000000	1.756255
1002.000000	1.753094
1003.000000	1.745821
1004.000000	1.754679
1005.000000	1.753716
1006.000000	1.749929
1007.000000	1.754239
1008.000000	1.753754
1009.000000	1.751444
1010.000000	1.743368
1011.000000	1.741120
1012.000000	1.742200
1013.000000	1.738680
1014.000000	1.745622
1015.000000	1.749940
1016.000000	1.750956
1017.000000	1.752641
1018.000000	1.754000
1019.000000	1.748977
1020.000000	1.738322
1021.000000	1.739409
1022.000000	1.732232
1023.000000	1.728240
1024.000000	1.734025
1025.000000	1.735763
1026.000000	1.737905
1027.000000	1.740011
1028.000000	1.749591
1029.000000	1.737479
1030.000000	1.730718
1031.000000	1.736506
1032.000000	1.723832
1033.000000	1.726990
1034.000000	1.738694
1035.000000	1.734001
1036.000000	1.733351
1037.000000	1.731707
1038.000000	1.724809
1039.000000	1.721790
1040.000000	1.726699
1041.000000	1.737512
1042.000000	1.738762
1043.000000	1.732628
1044.000000	1.734133
1045.000000	1.747765
1046.000000	1.743068
1047.000000	1.735542
1048.000000	1.750019
1049.000000	1.760099
1050.000000	1.749763
1051.000000	1.735200
1052.000000	1.739368
1053.000000	1.743437
1054.000000	1.736228
1055.000000	1.730616
1056.000000	1.740669
1057.000000	1.756848
1058.000000	1.755634
1059.000000	1.751087
1060.000000	1.749251
1061.000000	1.737568
1062.000000	1.742358
1063.000000	1.749739
1064.000000	1.742975
1065.000000	1.733014
1066.000000	1.736454
1067.000000	1.740700
1068.000000	1.731217
1069.000000	1.729682
1070.000000	1.735761
1071.000000	1.738131
1072.000000	1.736705
1073.000000	1.738368
1074.000000	1.730921
1075.000000	1.738345
1076.000000	1.751849
1077.000000	1.752979
1078.000000	1.747534
1079.000000	1.744631
1080.000000	1.737080
1081.000000	1.739552
1082.000000	1.751984
1083.000000	1.756906
1084.000000	1.752283
1085.000000	1.755971
1086.000000	1.761634
1087.000000	1.757065
1088.000000	1.751375
1089.000000	1.743625
1090.000000	1.757000
1091.000000	1.755525
1092.000000	1.746031
1093.000000	1.744407
1094.000000	1.753776
1095.000000	1.762732
1096.000000	1.762225
1097.000000	1.750853
1098.000000	1.749153
1099.000000	1.744178
1100.000000	1.751153
1101.000000	1.753130
1102.000000	1.761042
1103.000000	1.762373
1104.000000	1.776817
1105.000000	1.766432
1106.000000	1.764213
1107.000000	1.774616
1108.000000	1.757166
1109.000000	1.772262
1110.000000	1.770296
1111.000000	1.768669
1112.000000	1.757449
1113.000000	1.753563
1114.000000	1.757139
1115.000000	1.757840
1116.000000	1.759159
1117.000000	1.758776
1118.000000	1.753563
1119.000000	1.748771
1120.000000	1.752203
1121.000000	1.740885
1122.000000	1.758045
1123.000000	1.751013
1124.000000	1.767753
1125.000000	1.755105
1126.000000	1.747880
1127.000000	1.739842
1128.000000	1.753980
1129.000000	1.753246
1130.000000	1.761215
1131.000000	1.754687
1132.000000	1.723927
1133.000000	1.713827
1134.000000	1.729583
1135.000000	1.751241
1136.000000	1.746880
1137.000000	1.746104
1138.000000	1.733840
1139.000000	1.711032
1140.000000	1.712449
1141.000000	1.702668
1142.000000	1.709611
1143.000000	1.706614
1144.000000	1.693055
1145.000000	1.701004
1146.000000	1.705690
1147.000000	1.699421
1148.000000	1.691910
1149.000000	1.690356
1150.000000	1.686523
1151.000000	1.672527
1152.000000	1.681691
1153.000000	1.679833
1154.000000	1.669371
1155.000000	1.650895
1156.000000	1.670373
1157.000000	1.658419
1158.000000	1.653105
1159.000000	1.656119
1160.000000	1.639808
1161.000000	1.626482
1162.000000	1.619293
1163.000000	1.618892
1164.000000	1.614666
1165.000000	1.602832
1166.000000	1.601488
1167.000000	1.611025
1168.000000	1.607273
1169.000000	1.594978
1170.000000	1.576107
1171.000000	1.560593
1172.000000	1.539606
1173.000000	1.563622
1174.000000	1.541832
1175.000000	1.551638
1176.000000	1.548342
1177.000000	1.555310
1178.000000	1.537359
1179.000000	1.520169
1180.000000	1.518730
1181.000000	1.534560
1182.000000	1.519681
1183.000000	1.510628
1184.000000	1.532499
1185.000000	1.529541
1186.000000	1.526509
1187.000000	1.530104
1188.000000	1.507719
1189.000000	1.514707
1190.000000	1.519431
1191.000000	1.507692
1192.000000	1.518158
1193.000000	1.526746
1194.000000	1.529253
1195.000000	1.514581
1196.000000	1.543927
1197.000000	1.538323
1198.000000	1.550411
1199.000000	1.558829
1200.000000	1.566681
1201.000000	1.551997
1202.000000	1.550999
1203.000000	1.559865
1204.000000	1.562731
1205.000000	1.577187
1206.000000	1.573375
1207.000000	1.572415
1208.000000	1.580115
1209.000000	1.590250
1210.000000	1.593771
1211.000000	1.588748
1212.000000	1.620372
1213.000000	1.613243
1214.000000	1.599176
1215.000000	1.608602
1216.000000	1.602753
1217.000000	1.607630
1218.000000	1.606453
1219.000000	1.619556
1220.000000	1.610698
1221.000000	1.609080
1222.000000	1.610202
1223.000000	1.611762
1224.000000	1.619588
1225.000000	1.595913
1226.000000	1.593893
1227.000000	1.605599
1228.000000	1.594957
1229.000000	1.593783
1230.000000	1.593124
1231.000000	1.610394
1232.000000	1.608226
1233.000000	1.609792
1234.000000	1.607200
1235.000000	1.613107
1236.000000	1.608895
1237.000000	1.602511
1238.000000	1.600590
1239.000000	1.604913
1240.000000	1.595080
1241.000000	1.596012
1242.000000	1.597548
1243.000000	1.601248
1244.000000	1.595546
1245.000000	1.597340
1246.000000	1.619440
1247.000000	1.619778
1248.000000	1.627810
1249.000000	1.622559
1250.000000	1.631866
1251.000000	1.628188
1252.000000	1.627229
1253.000000	1.637135
1254.000000	1.640042
1255.000000	1.648324
1256.000000	1.641172
1257.000000	1.647047
1258.000000	1.648197
1259.000000	1.652763
1260.000000	1.661408
1261.000000	1.663776
1262.000000	1.662952
1263.000000	1.660750
1264.000000	1.652198
1265.000000	1.651987
1266.000000	1.643712
1267.000000	1.635844
1268.000000	1.637685
1269.000000	1.643949
1270.000000	1.644758
1271.000000	1.643253
1272.000000	1.635364
1273.000000	1.627923
1274.000000	1.628695
1275.000000	1.633942
1276.000000	1.638694
1277.000000	1.641769
1278.000000	1.633074
1279.000000	1.633975
1280.000000	1.630201
1281.000000	1.629465
1282.000000	1.644823
1283.000000	1.632558
1284.000000	1.637762
1285.000000	1.644842
1286.000000	1.642928
1287.000000	1.652006
1288.000000	1.648615
1289.000000	1.647540
1290.000000	1.644473
1291.000000	1.635999
1292.000000	1.637180
1293.000000	1.647113
1294.000000	1.641970
1295.000000	1.641849
1296.000000	1.634974
1297.000000	1.621125
1298.000000	1.621164
1299.000000	1.632446
1300.000000	1.636218
1301.000000	1.624448
1302.000000	1.623757
1303.000000	1.626565
1304.000000	1.626038
1305.000000	1.620182
1306.000000	1.612887
1307.000000	1.608300
1308.000000	1.605570
1309.000000	1.619081
1310.000000	1.628910
1311.000000	1.616856
1312.000000	1.608245
1313.000000	1.599404
1314.000000	1.598314
1315.000000	1.611467
1316.000000	1.612931
1317.000000	1.611040
1318.000000	1.602536
1319.000000	1.603980
1320.000000	1.596110
1321.000000	1.582801
1322.000000	1.584391
1323.000000	1.592332
1324.000000	1.586811
1325.000000	1.578421
1326.000000	1.584096
1327.000000	1.577673
1328.000000	1.571480
1329.000000	1.567051
1330.000000	1.564442
1331.000000	1.562180
1332.000000	1.564995
1333.000000	1.561426
1334.000000	1.568976
1335.000000	1.558517
1336.000000	1.539911
1337.000000	1.536944
1338.000000	1.534638
1339.000000	1.524230
1340.000000	1.520776
1341.000000	1.523537
1342.000000	1.524155
1343.000000	1.516304
1344.000000	1.514423
1345.000000	1.520612
1346.000000	1.507400
1347.000000	1.496428
1348.000000	1.492157
1349.000000	1.487970
1350.000000	1.463673
1351.000000	1.450742
1352.000000	1.440558
1353.000000	1.444017
1354.000000	1.437982
1355.000000	1.448525
1356.000000	1.458237
1357.000000	1.435397
1358.000000	1.418766
1359.000000	1.409530
1360.000000	1.391602
1361.000000	1.406531
1362.000000	1.434957
1363.000000	1.412205
1364.000000	1.413022
1365.000000	1.421536
1366.000000	1.398670
1367.000000	1.380460
1368.000000	1.378665
1369.000000	1.383291
1370.000000	1.348064
1371.000000	1.361056
1372.000000	1.363276
1373.000000	1.336263
1374.000000	1.312368
1375.000000	1.284508
1376.000000	1.276010
1377.000000	1.245174
1378.000000	1.224172
1379.000000	1.202354
1380.000000	1.169545
1381.000000	1.175363
1382.000000	1.198886
1383.000000	1.234805
1384.000000	1.234340
1385.000000	1.220388
1386.000000	1.199743
1387.000000	1.199601
1388.000000	1.214977
1389.000000	1.236801
1390.000000	1.192747
1391.000000	1.192469
1392.000000	1.194407
1393.000000	1.201604
1394.000000	1.185173
1395.000000	1.195480
1396.000000	1.246831
1397.000000	1.231297
1398.000000	1.192603
1399.000000	1.156777
1400.000000	1.189279
1401.000000	1.243555
1402.000000	1.224277
1403.000000	1.163322
1404.000000	1.161691
1405.000000	1.189958
1406.000000	1.191130
1407.000000	1.172610
1408.000000	1.166857
1409.000000	1.181223
1410.000000	1.187597
1411.000000	1.179792
1412.000000	1.142789
1413.000000	1.147494
1414.000000	1.173000
1415.000000	1.176929
1416.000000	1.161753
1417.000000	1.131962
1418.000000	1.147290
1419.000000	1.159782
1420.000000	1.165618
1421.000000	1.152711
1422.000000	1.122353
1423.000000	1.133368
1424.000000	1.137520
1425.000000	1.142708
1426.000000	1.123726
1427.000000	1.110396
1428.000000	1.121633
1429.000000	1.127378
1430.000000	1.121866
1431.000000	1.137892
1432.000000	1.127867
1433.000000	1.131611
1434.000000	1.132852
1435.000000	1.132501
1436.000000	1.120834
1437.000000	1.106929
1438.000000	1.110510
1439.000000	1.127952
1440.000000	1.132310
1441.000000	1.114921
1442.000000	1.110938
1443.000000	1.118161
1444.000000	1.108274
1445.000000	1.129138
1446.000000	1.124515
1447.000000	1.123550
1448.000000	1.108199
1449.000000	1.101661
1450.000000	1.115182
1451.000000	1.105790
1452.000000	1.098080
1453.000000	1.105485
1454.000000	1.104142
1455.000000	1.091809
1456.000000	1.083237
1457.000000	1.085871
1458.000000	1.084129
1459.000000	1.093177
1460.000000	1.080043
1461.000000	1.068314
1462.000000	1.072924
1463.000000	1.075454
1464.000000	1.087632
1465.000000	1.090791
1466.000000	1.067542
1467.000000	1.071786
1468.000000	1.087897
1469.000000	1.073965
1470.000000	1.067516
1471.000000	1.068270
1472.000000	1.071845
1473.000000	1.061700
1474.000000	1.061683
1475.000000	1.053218
1476.000000	1.064772
1477.000000	1.055954
1478.000000	1.046031
1479.000000	1.054523
1480.000000	1.042815
1481.000000	1.059497
1482.000000	1.077133
1483.000000	1.069508
1484.000000	1.060734
1485.000000	1.073522
1486.000000	1.077512
1487.000000	1.085921
1488.000000	1.073869
1489.000000	1.069191
1490.000000	1.075583
1491.000000	1.084650
1492.000000	1.082771
1493.000000	1.085772
1494.000000	1.094246
1495.000000	1.101594
1496.000000	1.102461
1497.000000	1.100875
1498.000000	1.091818
1499.000000	1.102140
1500.000000	1.092807
1501.000000	1.094502
1502.000000	1.101380
1503.000000	1.100261
1504.000000	1.106877
1505.000000	1.102990
1506.000000	1.090704
1507.000000	1.092205
1508.000000	1.103339
1509.000000	1.110709
1510.000000	1.102763
1511.000000	1.111291
1512.000000	1.115354
1513.000000	1.112591
1514.000000	1.113845
1515.000000	1.116245
1516.000000	1.116457
1517.000000	1.097751
1518.000000	1.103401
1519.000000	1.119120
1520.000000	1.125719
1521.000000	1.109032
1522.000000	1.111923
1523.000000	1.115734
1524.000000	1.114083
1525.000000	1.113268
1526.000000	1.111972
1527.000000	1.113038
1528.000000	1.112840
1529.000000	1.111419
1530.000000	1.114738
1531.000000	1.115630
1532.000000	1.105263
1533.000000	1.115418
1534.000000	1.112281
1535.000000	1.111050
1536.000000	1.109637
1537.000000	1.114248
1538.000000	1.113351
1539.000000	1.117206
1540.000000	1.113786
1541.000000	1.118188
1542.000000	1.116952
1543.000000	1.116787
1544.000000	1.117588
1545.000000	1.116013
1546.000000	1.123194
1547.000000	1.119735
1548.000000	1.115634
1549.000000	1.119019
1550.000000	1.119679
1551.000000	1.109097
1552.000000	1.105153
1553.000000	1.103644
1554.000000	1.112836
1555.000000	1.112659
1556.000000	1.109833
1557.000000	1.109220
1558.000000	1.101162
1559.000000	1.100018
1560.000000	1.100648
1561.000000	1.096342
1562.000000	1.093031
1563.000000	1.093497
1564.000000	1.093074
1565.000000	1.090323
1566.000000	1.099806
1567.000000	1.101982
1568.000000	1.099365
1569.000000	1.095329
1570.000000	1.087421
1571.000000	1.094616
1572.000000	1.101280
1573.000000	1.094372
1574.000000	1.089479
1575.000000	1.081260
1576.000000	1.083584
1577.000000	1.086114
1578.000000	1.079237
1579.000000	1.087460
1580.000000	1.093412
1581.000000	1.091319
1582.000000	1.108450
1583.000000	1.107095
1584.000000	1.112084
1585.000000	1.111043
1586.000000	1.101482
1587.000000	1.096535
1588.000000	1.104778
1589.000000	1.115196
1590.000000	1.117512
1591.000000	1.104029
1592.000000	1.094902
1593.000000	1.102929
1594.000000	1.108026
1595.000000	1.111872
1596.000000	1.107758
1597.000000	1.110672
1598.000000	1.116319
1599.000000	1.116420
1600.000000	1.122929
1601.000000	1.125600
1602.000000	1.117194
1603.000000	1.108504
1604.000000	1.108683
1605.000000	1.114552
1606.000000	1.127059
1607.000000	1.130291
1608.000000	1.118786
1609.000000	1.116779
1610.000000	1.127675
1611.000000	1.135826
1612.000000	1.129622
1613.000000	1.121028
1614.000000	1.122272
1615.000000	1.122574
1616.000000	1.131022
1617.000000	1.132498
1618.000000	1.135154
1619.000000	1.128662
1620.000000	1.136794
1621.000000	1.127530
1622.000000	1.136781
1623.000000	1.151081
1624.000000	1.146555
1625.000000	1.135671
1626.000000	1.144880
1627.000000	1.142730
1628.000000	1.142988
1629.000000	1.143031
1630.000000	1.148321
1631.000000	1.143098
1632.000000	1.139138
1633.000000	1.136384
1634.000000	1.135691
1635.000000	1.143892
1636.000000	1.142042
1637.000000	1.152065
1638.000000	1.153300
1639.000000	1.137035
1640.000000	1.139346
1641.000000	1.133534
1642.000000	1.153428
1643.000000	1.146116
1644.000000	1.155817
1645.000000	1.152177
1646.000000	1.155107
1647.000000	1.152141
1648.000000	1.139556
1649.000000	1.145832
1650.000000	1.144438
1651.000000	1.138536
1652.000000	1.122475
1653.000000	1.125427
1654.000000	1.136940
1655.000000	1.129643
1656.000000	1.122965
1657.000000	1.153714
1658.000000	1.127218
1659.000000	1.138055
1660.000000	1.136453
1661.000000	1.127803
1662.000000	1.125318
1663.000000	1.129677
1664.000000	1.134905
1665.000000	1.122048
1666.000000	1.125050
1667.000000	1.116497
1668.000000	1.103768
1669.000000	1.095747
1670.000000	1.102988
1671.000000	1.100752
1672.000000	1.097578
1673.000000	1.101764
1674.000000	1.090590
1675.000000	1.089543
1676.000000	1.078099
1677.000000	1.086187
1678.000000	1.077947
1679.000000	1.066216
1680.000000	1.065315
1681.000000	1.070827
1682.000000	1.055726
1683.000000	1.058435
1684.000000	1.044089
1685.000000	1.044827
1686.000000	1.053702
1687.000000	1.056837
1688.000000	1.058689
1689.000000	1.052948
1690.000000	1.046379
1691.000000	1.046588
1692.000000	1.048773
1693.000000	1.039622
1694.000000	1.021011
1695.000000	1.027006
1696.000000	1.024078
1697.000000	1.003213
1698.000000	1.011223
1699.000000	1.001641
1700.000000	1.020942
1701.000000	1.000427
1702.000000	0.994045
1703.000000	0.996901
1704.000000	1.001204
1705.000000	0.992922
1706.000000	0.997766
1707.000000	0.994748
1708.000000	1.009831
1709.000000	1.010297
1710.000000	0.998753
1711.000000	1.004498
1712.000000	0.998735
1713.000000	0.997352
1714.000000	0.997391
1715.000000	0.989260
1716.000000	0.995686
1717.000000	0.982910
1718.000000	1.005313
1719.000000	1.016011
1720.000000	1.006320
1721.000000	1.008530
1722.000000	1.009531
1723.000000	1.019389
1724.000000	1.034618
1725.000000	1.027723
1726.000000	1.023469
1727.000000	1.040434
1728.000000	1.044439
1729.000000	1.039328
1730.000000	1.044871
1731.000000	1.014760
1732.000000	1.028368
1733.000000	1.021488
1734.000000	1.020564
1735.000000	1.028262
1736.000000	1.024847
1737.000000	1.028960
1738.000000	1.015727
1739.000000	1.022167
1740.000000	1.019937
1741.000000	1.026307
1742.000000	1.034587
1743.000000	1.013909
1744.000000	0.998318
1745.000000	1.009828
1746.000000	1.013579
1747.000000	1.017317
1748.000000	1.011866
1749.000000	1.023423
1750.000000	1.007457
1751.000000	1.002848
1752.000000	1.012293
1753.000000	0.997611
1754.000000	1.009435
1755.000000	1.010234
1756.000000	1.012673
1757.000000	1.007736
1758.000000	1.006534
1759.000000	1.009973
1760.000000	1.018089
1761.000000	1.010932
1762.000000	0.991167
1763.000000	1.000022
1764.000000	1.006237
1765.000000	1.015480
1766.000000	1.004342
1767.000000	1.004907
1768.000000	1.007281
1769.000000	1.012996
1770.000000	1.005744
1771.000000	1.008883
1772.000000	1.016344
1773.000000	1.004840
1774.000000	1.005943
1775.000000	1.002468
1776.000000	1.014834
1777.000000	1.020153
1778.000000	1.016810
1779.000000	1.025361
1780.000000	1.022476
1781.000000	1.010518
1782.000000	0.995977
1783.000000	1.008094
1784.000000	0.997894
1785.000000	0.996330
1786.000000	1.011875
1787.000000	1.004667
1788.000000	0.998593
1789.000000	0.992480
1790.000000	0.988312
1791.000000	1.003063
1792.000000	1.007829
1793.000000	0.999963
1794.000000	0.997653
1795.000000	1.003676
1796.000000	0.993825
1797.000000	0.986868
1798.000000	0.983610
1799.000000	0.983143
1800.000000	0.996570
1801.000000	0.998117
1802.000000	0.985271
1803.000000	0.976822
1804.000000	0.967803
1805.000000	0.967728
1806.000000	0.984730
1807.000000	0.989384
1808.000000	0.975972
1809.000000	0.968208
1810.000000	0.960558
1811.000000	0.963363
1812.000000	0.968977
1813.000000	0.961077
1814.000000	0.955504
1815.000000	0.952927
1816.000000	0.963104
1817.000000	0.947766
1818.000000	0.913813
1819.000000	0.916628
1820.000000	0.946595
1821.000000	0.980290
1822.000000	0.993616
1823.000000	0.979982
1824.000000	0.946897
1825.000000	0.921915
1826.000000	0.922642
1827.000000	0.940930
1828.000000	0.949278
1829.000000	0.948319
1830.000000	0.955939
1831.000000	0.956924
1832.000000	0.935750
1833.000000	0.899625
1834.000000	0.881635
1835.000000	0.881502
1836.000000	0.898120
1837.000000	0.915573
1838.000000	0.912254
1839.000000	0.906464
1840.000000	0.927943
1841.000000	0.971196
1842.000000	0.980545
1843.000000	0.959536
1844.000000	0.910517
1845.000000	0.857648
1846.000000	0.852336
1847.000000	0.897936
1848.000000	0.957122
1849.000000	0.965738
1850.000000	0.940670
1851.000000	0.921844
1852.000000	0.907388
1853.000000	0.900616
1854.000000	0.914201
1855.000000	0.914563
1856.000000	0.907598
1857.000000	0.893188
1858.000000	0.893534
1859.000000	0.913001
1860.000000	0.935003
1861.000000	0.946866
1862.000000	0.937140
1863.000000	0.905897
1864.000000	0.874542
1865.000000	0.840556
1866.000000	0.808724
1867.000000	0.793912
1868.000000	0.774147
1869.000000	0.802482
1870.000000	0.842556
1871.000000	0.844554
1872.000000	0.862492
1873.000000	0.882031
1874.000000	0.898004
1875.000000	0.910914
1876.000000	0.921980
1877.000000	0.915038
1878.000000	0.912233
1879.000000	0.894720
1880.000000	0.874869
1881.000000	0.853049
1882.000000	0.845739
1883.000000	0.856762
1884.000000	0.856499
1885.000000	0.870558
1886.000000	0.869127
1887.000000	0.833529
1888.000000	0.820663
1889.000000	0.823358
1890.000000	0.808694
1891.000000	0.815945
1892.000000	0.843149
1893.000000	0.844498
1894.000000	0.824131
1895.000000	0.791698
1896.000000	0.753924
1897.000000	0.747990
1898.000000	0.749586
1899.000000	0.767520
1900.000000	0.761900
1901.000000	0.750964
1902.000000	0.750161
1903.000000	0.721709
1904.000000	0.726633
1905.000000	0.755605
1906.000000	0.759100
1907.000000	0.747953
1908.000000	0.743810
1909.000000	0.706446
1910.000000	0.669636
1911.000000	0.677374
1912.000000	0.696814
1913.000000	0.689417
1914.000000	0.690880
1915.000000	0.672535
1916.000000	0.668647
1917.000000	0.647579
1918.000000	0.633850
1919.000000	0.634132
1920.000000	0.646881
1921.000000	0.653837
1922.000000	0.669634
1923.000000	0.641111
1924.000000	0.633735
1925.000000	0.619784
1926.000000	0.623450
1927.000000	0.614686
1928.000000	0.634632
1929.000000	0.642656
1930.000000	0.630400
1931.000000	0.622058
1932.000000	0.620556
1933.000000	0.620439
1934.000000	0.620505
1935.000000	0.622747
1936.000000	0.619682
1937.000000	0.634274
1938.000000	0.634899
1939.000000	0.635556
1940.000000	0.636638
1941.000000	0.630085
1942.000000	0.653018
1943.000000	0.645857
1944.000000	0.633620
1945.000000	0.631278
1946.000000	0.636256
1947.000000	0.643623
1948.000000	0.631956
1949.000000	0.649457
1950.000000	0.638583
1951.000000	0.650778
1952.000000	0.650232
1953.000000	0.653430
1954.000000	0.654939
1955.000000	0.664279
1956.000000	0.651261
1957.000000	0.650948
1958.000000	0.645680
1959.000000	0.654889
1960.000000	0.670077
1961.000000	0.668690
1962.000000	0.674931
1963.000000	0.674084
1964.000000	0.673751
1965.000000	0.676859
1966.000000	0.666952
1967.000000	0.684111
1968.000000	0.659976
1969.000000	0.672703
1970.000000	0.674251
1971.000000	0.676753
1972.000000	0.703854
1973.000000	0.704535
1974.000000	0.699257
1975.000000	0.688763
1976.000000	0.702289
1977.000000	0.698168
1978.000000	0.694483
1979.000000	0.694973
1980.000000	0.690155
1981.000000	0.704940
1982.000000	0.703554
1983.000000	0.703230
1984.000000	0.697390
1985.000000	0.699437
1986.000000	0.685133
1987.000000	0.695653
1988.000000	0.710128
1989.000000	0.708506
1990.000000	0.709769
1991.000000	0.707673
1992.000000	0.705421
1993.000000	0.708387
1994.000000	0.713814
1995.000000	0.713986
1996.000000	0.710696
1997.000000	0.719087
1998.000000	0.716499
1999.000000	0.699297
2000.000000	0.711191
2001.000000	0.711624
2002.000000	0.711877
2003.000000	0.710863
2004.000000	0.708287
2005.000000	0.719031
2006.000000	0.706496
2007.000000	0.725258
2008.000000	0.697854
2009.000000	0.717677
2010.000000	0.705491
2011.000000	0.706533
2012.000000	0.714236
2013.000000	0.724126
2014.000000	0.707669
2015.000000	0.715233
2016.000000	0.725727
2017.000000	0.704664
2018.000000	0.715760
2019.000000	0.718508
2020.000000	0.717916
2021.000000	0.713012
2022.000000	0.717065
2023.000000	0.713942
2024.000000	0.721898
2025.000000	0.708749
2026.000000	0.707374
2027.000000	0.707480
2028.000000	0.702224
2029.000000	0.694971
2030.000000	0.687406
2031.000000	0.697234
2032.000000	0.701155
2033.000000	0.684225
2034.000000	0.685477
2035.000000	0.683712
2036.000000	0.687224
2037.000000	0.685506
2038.000000	0.691488
2039.000000	0.679932
2040.000000	0.681896
2041.000000	0.673800
2042.000000	0.659301
2043.000000	0.661269
2044.000000	0.661364
2045.000000	0.659257
2046.000000	0.654996
2047.000000	0.652015
2048.000000	0.657033
2049.000000	0.654694
2050.000000	0.657381
2051.000000	0.660933
2052.000000	0.648549
2053.000000	0.647017
2054.000000	0.643594
2055.000000	0.649767
2056.000000	0.657673
2057.000000	0.657200
2058.000000	0.643485
2059.000000	0.649834
2060.000000	0.653986
2061.000000	0.648444
2062.000000	0.645178
2063.000000	0.651046
2064.000000	0.653119
2065.000000	0.655073
2066.000000	0.660072
2067.000000	0.662560
2068.000000	0.660689
2069.000000	0.653022
2070.000000	0.650760
2071.000000	0.648355
2072.000000	0.643910
2073.000000	0.644912
2074.000000	0.639007
2075.000000	0.638162
2076.000000	0.637891
2077.000000	0.637000
2078.000000	0.626483
2079.000000	0.618726
2080.000000	0.615900
2081.000000	0.610015
2082.000000	0.612051
2083.000000	0.617846
2084.000000	0.612441
2085.000000	0.602466
2086.000000	0.597568
2087.000000	0.592973
2088.000000	0.594481
2089.000000	0.601913
2090.000000	0.601846
2091.000000	0.599644
2092.000000	0.597415
2093.000000	0.588149
2094.000000	0.588190
2095.000000	0.597718
2096.000000	0.593474
2097.000000	0.581350
2098.000000	0.584464
2099.000000	0.583860
2100.000000	0.585217
2101.000000	0.583954
2102.000000	0.580618
2103.000000	0.583519
2104.000000	0.579289
2105.000000	0.582583
2106.000000	0.580243
2107.000000	0.575600
2108.000000	0.566944
2109.000000	0.560719
2110.000000	0.561746
2111.000000	0.570309
2112.000000	0.575346
2113.000000	0.571193
2114.000000	0.578430
2115.000000	0.584428
2116.000000	0.576932
2117.000000	0.573574
2118.000000	0.576604
2119.000000	0.568664
2120.000000	0.564217
2121.000000	0.566435
2122.000000	0.563020
2123.000000	0.558945
2124.000000	0.561756
2125.000000	0.570256
2126.000000	0.565229
2127.000000	0.558768
2128.000000	0.572393
2129.000000	0.574855
2130.000000	0.560485
2131.000000	0.561650
2132.000000	0.558154
2133.000000	0.559384
2134.000000	0.558007
2135.000000	0.552758
2136.000000	0.562273
2137.000000	0.555098
2138.000000	0.551550
2139.000000	0.570230
2140.000000	0.573485
2141.000000	0.562275
2142.000000	0.550010
2143.000000	0.554352
2144.000000	0.556454
2145.000000	0.550734
2146.000000	0.549772
2147.000000	0.546114
2148.000000	0.550517
2149.000000	0.546895
2150.000000	0.545553
2151.000000	0.560502
2152.000000	0.559074
2153.000000	0.554313
2154.000000	0.557735
2155.000000	0.552634
2156.000000	0.551698
2157.000000	0.543628
2158.000000	0.540184
2159.000000	0.536093
2160.000000	0.538632
2161.000000	0.541433
2162.000000	0.543499
2163.000000	0.538033
2164.000000	0.550625
2165.000000	0.537811
2166.000000	0.529218
2167.000000	0.542010
2168.000000	0.537294
2169.000000	0.535515
2170.000000	0.531239
2171.000000	0.528742
2172.000000	0.536129
2173.000000	0.541160
2174.000000	0.527546
2175.000000	0.539599
2176.000000	0.533432
2177.000000	0.540992
2178.000000	0.529766
2179.000000	0.522676
2180.000000	0.526119
2181.000000	0.519146
2182.000000	0.523514
2183.000000	0.523658
2184.000000	0.513649
2185.000000	0.505314
2186.000000	0.493218
2187.000000	0.510893
2188.000000	0.495820
2189.000000	0.493975
2190.000000	0.484396
2191.000000	0.477118
2192.000000	0.485218
2193.000000	0.445046
2194.000000	0.454030
2195.000000	0.455303
2196.000000	0.434847
2197.000000	0.427992
2198.000000	0.418863
2199.000000	0.414159
2200.000000	0.410719
2201.000000	0.400717
2202.000000	0.400647
2203.000000	0.401007
2204.000000	0.394300
2205.000000	0.401301
2206.000000	0.398844
2207.000000	0.400648
2208.000000	0.389461
2209.000000	0.396733
2210.000000	0.408854
2211.000000	0.411242
2212.000000	0.405531
2213.000000	0.404951
2214.000000	0.407304
2215.000000	0.416031
2216.000000	0.430448
2217.000000	0.430675
2218.000000	0.421938
2219.000000	0.421169
2220.000000	0.429421
2221.000000	0.417910
2222.000000	0.429848
2223.000000	0.441184
2224.000000	0.438681
2225.000000	0.437994
2226.000000	0.429101
2227.000000	0.433875
2228.000000	0.449008
2229.000000	0.440136
2230.000000	0.440179
2231.000000	0.426483
2232.000000	0.437904
2233.000000	0.430527
2234.000000	0.422654
2235.000000	0.428765
2236.000000	0.434779
2237.000000	0.428442
2238.000000	0.435216
2239.000000	0.424131
2240.000000	0.434245
2241.000000	0.427903
2242.000000	0.436959
2243.000000	0.417022
2244.000000	0.417906
2245.000000	0.425657
2246.000000	0.409416
2247.000000	0.417205
2248.000000	0.426128
2249.000000	0.415692
2250.000000	0.417821
2251.000000	0.420602
2252.000000	0.415009
2253.000000	0.422434
2254.000000	0.413849
2255.000000	0.405213
2256.000000	0.407555
2257.000000	0.416950
2258.000000	0.399041
2259.000000	0.405247
2260.000000	0.400430
2261.000000	0.414275
2262.000000	0.413584
2263.000000	0.415264
2264.000000	0.413092
2265.000000	0.421018
2266.000000	0.417599
2267.000000	0.410104
2268.000000	0.410196
2269.000000	0.405297
2270.000000	0.410831
2271.000000	0.413546
2272.000000	0.427609
2273.000000	0.415735
2274.000000	0.416522
2275.000000	0.427954
2276.000000	0.418589
2277.000000	0.418830
2278.000000	0.402892
2279.000000	0.408425
2280.000000	0.424945
2281.000000	0.437358
2282.000000	0.423732
2283.000000	0.423073
2284.000000	0.410903
2285.000000	0.412159
2286.000000	0.420072
2287.000000	0.409029
2288.000000	0.400519
2289.000000	0.420944
2290.000000	0.431910
2291.000000	0.421464
2292.000000	0.419046
2293.000000	0.416842
2294.000000	0.422060
2295.000000	0.422099
2296.000000	0.415745
2297.000000	0.434234
2298.000000	0.427906
2299.000000	0.415820
2300.000000	0.427839
2301.000000	0.433016
2302.000000	0.440667
2303.000000	0.435419
2304.000000	0.443553
2305.000000	0.426566
2306.000000	0.425127
2307.000000	0.432516
2308.000000	0.430063
2309.000000	0.428052
2310.000000	0.430580
2311.000000	0.436263
2312.000000	0.434347
2313.000000	0.433604
2314.000000	0.436733
2315.000000	0.431714
2316.000000	0.437411
2317.000000	0.438734
2318.000000	0.445196
2319.000000	0.438164
2320.000000	0.425855
2321.000000	0.429462
2322.000000	0.436034
2323.000000	0.432937
2324.000000	0.428662
2325.000000	0.426084
2326.000000	0.428653
2327.000000	0.426965
2328.000000	0.423870
2329.000000	0.434473
2330.000000	0.438867
2331.000000	0.441232
2332.000000	0.428639
2333.000000	0.429162
2334.000000	0.433673
2335.000000	0.431556
2336.000000	0.432231
2337.000000	0.442615
2338.000000	0.446651
2339.000000	0.434705
2340.000000	0.424979
2341.000000	0.444307
2342.000000	0.445709
2343.000000	0.447120
2344.000000	0.450070
2345.000000	0.438268
2346.000000	0.434383
2347.000000	0.435558
2348.000000	0.438377
2349.000000	0.442575
2350.000000	0.443262
2351.000000	0.440055
2352.000000	0.442072
2353.000000	0.440154
2354.000000	0.435797
2355.000000	0.444148
2356.000000	0.450798
2357.000000	0.445863
2358.000000	0.441817
2359.000000	0.445714
2360.000000	0.441216
2361.000000	0.429092
2362.000000	0.436500
2363.000000	0.438384
2364.000000	0.437160
2365.000000	0.441645
2366.000000	0.436366
2367.000000	0.429771
2368.000000	0.444041
2369.000000	0.445379
2370.000000	0.434445
2371.000000	0.434643
2372.000000	0.439752
2373.000000	0.445178
2374.000000	0.437125
2375.000000	0.430256
2376.000000	0.438800
2377.000000	0.437765
2378.000000	0.429719
2379.000000	0.430200
2380.000000	0.428817
2381.000000	0.431155
2382.000000	0.437842
2383.000000	0.435156
2384.000000	0.433856
2385.000000	0.425990
2386.000000	0.428075
2387.000000	0.435633
2388.000000	0.438683
2389.000000	0.439500
2390.000000	0.438333
2391.000000	0.425385
2392.000000	0.426331
2393.000000	0.437352
2394.000000	0.430328
2395.000000	0.417951
2396.000000	0.416696
2397.000000	0.413526
2398.000000	0.415221
2399.000000	0.412357
2400.000000	0.400280
2401.000000	0.405890
2402.000000	0.400951
2403.000000	0.392643
2404.000000	0.397109
2405.000000	0.403223
2406.000000	0.400252
2407.000000	0.404889
2408.000000	0.392735
2409.000000	0.385533
2410.000000	0.393005
2411.000000	0.380308
2412.000000	0.374707
2413.000000	0.375053
2414.000000	0.366990
2415.000000	0.378203
2416.000000	0.364970
2417.000000	0.363032
2418.000000	0.362960
2419.000000	0.351507
2420.000000	0.354763
2421.000000	0.355569
2422.000000	0.353981
2423.000000	0.354608
2424.000000	0.341396
2425.000000	0.328999
2426.000000	0.337858
2427.000000	0.332489
2428.000000	0.331851
2429.000000	0.331816
2430.000000	0.330283
2431.000000	0.321593
2432.000000	0.320102
2433.000000	0.314565
2434.000000	0.320982
2435.000000	0.312655
2436.000000	0.311833
2437.000000	0.307311
2438.000000	0.307385
2439.000000	0.302919
2440.000000	0.302757
2441.000000	0.293233
2442.000000	0.284407
2443.000000	0.280855
2444.000000	0.281968
2445.000000	0.273135
2446.000000	0.287234
2447.000000	0.269330
2448.000000	0.257537
2449.000000	0.251740
2450.000000	0.261787
2451.000000	0.255204
2452.000000	0.257956
2453.000000	0.258140
2454.000000	0.245854
2455.000000	0.247325
2456.000000	0.258315
2457.000000	0.260825
2458.000000	0.238921
2459.000000	0.241257
2460.000000	0.249575
2461.000000	0.218794
2462.000000	0.224800
2463.000000	0.220044
2464.000000	0.227236
2465.000000	0.218780
2466.000000	0.199910
2467.000000	0.247073
2468.000000	0.224347
2469.000000	0.202209
2470.000000	0.202669
2471.000000	0.223804
2472.000000	0.224718
2473.000000	0.182224
2474.000000	0.191299
2475.000000	0.229655
2476.000000	0.228135
2477.000000	0.194966
2478.000000	0.175378
2479.000000	0.188169
2480.000000	0.144765
2481.000000	0.186507
2482.000000	0.208413
2483.000000	0.217925
2484.000000	0.162411
2485.000000	0.206134
2486.000000	0.207600
2487.000000	0.214225
2488.000000	0.197154
2489.000000	0.205757
2490.000000	0.233346
2491.000000	0.145276
2492.000000	0.214544
2493.000000	0.155886
2494.000000	0.193365
2495.000000	0.236090
2496.000000	0.196768
2497.000000	0.246557
2498.000000	0.164098
2499.000000	0.238523
2500.000000	0.226792
