PE UV       SUBTECH     SPECTRUM    ASCII       PEDS        4.00        
   -1
BIOUCR0016-3.Sample.ASC
24/02/19
16:22:16.00
24/02/19
16:22:16.00
Vinicio Soto Monge
P. resplendens (sin datos) Parte inferior de elitros cafe bajo Filtro izq. Plateado bajo filtro derecho
250,000000
1
Lambda 1050
1050L1511233
PerkinElmer UV WinLab 6.3.2.0749 / 2.02.05 Lambda 900 UV/VIS/NIR, Aug  7 2015 09:38:08

0
0
3350/servo 860,8/2
0
0
UV/VIS
1
1
1
DoubleDePol,CommonBeamDepol,RBeamAtt,SBeamAtt,60mm sphere, WB InGaAs Detector
0
0
0
0
Program
Program
3350/servo 860,8/2
3350/0,2 860,8/0,2
3350/0,2 860,8/0,2
0
15.00
 
 
 
0
 
860,8
319,2
860,8
Front
100
on
S:100 R:100
0
0
0
0
 
0
 
 
 
0
 
 
0
0
0
0
0
 
 
 
 
0
0


0
0
#HDR
-1
-1
#GR
nm
%R
1.0
0.0
2500,000000
-1,000000
2251
8
21,302500
1,541000
#DATA

250.000000	0.253409
251.000000	0.304864
252.000000	0.256336
253.000000	0.261604
254.000000	0.279488
255.000000	0.282791
256.000000	0.262117
257.000000	0.218550
258.000000	0.259567
259.000000	0.234297
260.000000	0.247460
261.000000	0.243792
262.000000	0.255200
263.000000	0.234438
264.000000	0.238449
265.000000	0.223546
266.000000	0.213782
267.000000	0.213152
268.000000	0.227234
269.000000	0.225771
270.000000	0.218539
271.000000	0.252867
272.000000	0.217248
273.000000	0.241928
274.000000	0.202610
275.000000	0.221934
276.000000	0.229551
277.000000	0.205869
278.000000	0.224340
279.000000	0.214475
280.000000	0.189274
281.000000	0.234357
282.000000	0.190136
283.000000	0.221445
284.000000	0.201348
285.000000	0.190404
286.000000	0.179779
287.000000	0.187907
288.000000	0.211453
289.000000	0.214235
290.000000	0.196965
291.000000	0.208697
292.000000	0.194704
293.000000	0.195873
294.000000	0.172613
295.000000	0.203910
296.000000	0.156703
297.000000	0.188931
298.000000	0.143709
299.000000	0.167968
300.000000	0.169808
301.000000	0.188948
302.000000	0.165114
303.000000	0.196220
304.000000	0.172580
305.000000	0.149028
306.000000	0.181946
307.000000	0.199334
308.000000	0.171615
309.000000	0.164171
310.000000	0.134726
311.000000	0.150254
312.000000	0.165751
313.000000	0.185510
314.000000	0.132442
315.000000	0.160384
316.000000	0.158754
317.000000	0.260921
318.000000	0.457958
319.000000	0.220897
320.000000	0.237920
321.000000	0.298735
322.000000	0.303463
323.000000	0.296346
324.000000	0.200948
325.000000	0.195299
326.000000	0.222283
327.000000	0.237066
328.000000	0.175238
329.000000	0.189462
330.000000	0.176204
331.000000	0.189530
332.000000	0.186360
333.000000	0.198300
334.000000	0.219450
335.000000	0.194932
336.000000	0.122086
337.000000	0.091405
338.000000	0.102233
339.000000	0.052063
340.000000	0.113121
341.000000	0.209270
342.000000	0.179255
343.000000	0.148129
344.000000	0.089467
345.000000	0.111196
346.000000	0.153591
347.000000	0.209341
348.000000	0.182169
349.000000	0.124803
350.000000	0.138675
351.000000	0.129263
352.000000	0.157602
353.000000	0.102926
354.000000	0.100773
355.000000	0.142439
356.000000	0.187901
357.000000	0.177248
358.000000	0.113329
359.000000	0.124604
360.000000	0.122867
361.000000	0.158636
362.000000	0.158338
363.000000	0.123939
364.000000	0.147948
365.000000	0.195739
366.000000	0.117625
367.000000	0.130617
368.000000	0.105421
369.000000	0.114882
370.000000	0.110173
371.000000	0.168965
372.000000	0.124611
373.000000	0.168962
374.000000	0.189706
375.000000	0.166795
376.000000	0.145388
377.000000	0.120132
378.000000	0.127629
379.000000	0.130696
380.000000	0.134361
381.000000	0.131532
382.000000	0.143119
383.000000	0.146174
384.000000	0.149581
385.000000	0.151213
386.000000	0.156112
387.000000	0.160475
388.000000	0.164046
389.000000	0.175039
390.000000	0.185442
391.000000	0.195574
392.000000	0.204775
393.000000	0.210446
394.000000	0.226149
395.000000	0.238814
396.000000	0.250959
397.000000	0.271748
398.000000	0.285262
399.000000	0.302870
400.000000	0.323985
401.000000	0.335805
402.000000	0.359735
403.000000	0.387373
404.000000	0.409342
405.000000	0.432411
406.000000	0.452959
407.000000	0.479740
408.000000	0.502140
409.000000	0.526663
410.000000	0.552971
411.000000	0.579532
412.000000	0.607011
413.000000	0.631684
414.000000	0.660668
415.000000	0.689440
416.000000	0.710634
417.000000	0.735865
418.000000	0.759277
419.000000	0.781961
420.000000	0.808298
421.000000	0.829829
422.000000	0.848492
423.000000	0.864822
424.000000	0.884482
425.000000	0.905873
426.000000	0.917513
427.000000	0.929138
428.000000	0.949410
429.000000	0.971665
430.000000	0.984048
431.000000	0.995246
432.000000	1.007384
433.000000	1.022447
434.000000	1.032704
435.000000	1.034108
436.000000	1.036546
437.000000	1.047212
438.000000	1.055650
439.000000	1.056551
440.000000	1.056072
441.000000	1.054934
442.000000	1.050161
443.000000	1.040647
444.000000	1.032644
445.000000	1.034300
446.000000	1.035432
447.000000	1.026387
448.000000	1.008625
449.000000	0.994364
450.000000	0.974927
451.000000	0.944394
452.000000	0.917138
453.000000	0.896771
454.000000	0.869867
455.000000	0.839214
456.000000	0.805549
457.000000	0.769956
458.000000	0.741898
459.000000	0.708939
460.000000	0.673138
461.000000	0.641020
462.000000	0.614123
463.000000	0.597917
464.000000	0.570467
465.000000	0.541930
466.000000	0.525963
467.000000	0.514858
468.000000	0.517635
469.000000	0.514262
470.000000	0.508187
471.000000	0.518985
472.000000	0.533076
473.000000	0.550772
474.000000	0.574610
475.000000	0.602143
476.000000	0.631106
477.000000	0.665007
478.000000	0.704464
479.000000	0.743127
480.000000	0.775384
481.000000	0.804017
482.000000	0.836573
483.000000	0.870956
484.000000	0.900323
485.000000	0.925114
486.000000	0.952644
487.000000	0.984729
488.000000	1.010778
489.000000	1.028548
490.000000	1.039611
491.000000	1.040014
492.000000	1.044080
493.000000	1.044125
494.000000	1.034225
495.000000	1.024189
496.000000	1.014889
497.000000	0.996416
498.000000	0.971153
499.000000	0.963747
500.000000	0.945304
501.000000	0.928010
502.000000	0.926977
503.000000	0.924399
504.000000	0.911939
505.000000	0.906301
506.000000	0.897252
507.000000	0.888806
508.000000	0.871943
509.000000	0.857237
510.000000	0.853829
511.000000	0.851259
512.000000	0.843117
513.000000	0.827340
514.000000	0.819862
515.000000	0.810807
516.000000	0.809397
517.000000	0.808242
518.000000	0.820107
519.000000	0.833128
520.000000	0.851468
521.000000	0.875940
522.000000	0.890417
523.000000	0.909321
524.000000	0.917303
525.000000	0.927733
526.000000	0.938259
527.000000	0.953372
528.000000	0.968247
529.000000	0.977146
530.000000	0.983157
531.000000	0.997174
532.000000	1.019182
533.000000	1.035914
534.000000	1.060695
535.000000	1.106957
536.000000	1.170371
537.000000	1.226365
538.000000	1.303429
539.000000	1.380944
540.000000	1.461635
541.000000	1.546483
542.000000	1.630526
543.000000	1.714064
544.000000	1.796186
545.000000	1.872518
546.000000	1.938242
547.000000	2.017248
548.000000	2.096693
549.000000	2.183915
550.000000	2.259076
551.000000	2.356537
552.000000	2.434026
553.000000	2.495324
554.000000	2.540683
555.000000	2.578223
556.000000	2.587358
557.000000	2.572685
558.000000	2.527497
559.000000	2.468285
560.000000	2.359787
561.000000	2.284909
562.000000	2.222667
563.000000	2.178171
564.000000	2.145042
565.000000	2.126471
566.000000	2.128024
567.000000	2.119795
568.000000	2.147291
569.000000	2.186243
570.000000	2.248770
571.000000	2.280383
572.000000	2.321588
573.000000	2.362086
574.000000	2.402480
575.000000	2.408769
576.000000	2.414670
577.000000	2.422388
578.000000	2.400327
579.000000	2.378336
580.000000	2.358829
581.000000	2.308505
582.000000	2.275894
583.000000	2.254735
584.000000	2.239926
585.000000	2.209253
586.000000	2.189811
587.000000	2.191635
588.000000	2.191858
589.000000	2.196913
590.000000	2.205603
591.000000	2.246803
592.000000	2.278094
593.000000	2.328081
594.000000	2.359514
595.000000	2.406581
596.000000	2.453246
597.000000	2.493333
598.000000	2.525926
599.000000	2.533579
600.000000	2.549824
601.000000	2.567688
602.000000	2.547675
603.000000	2.530115
604.000000	2.503903
605.000000	2.484689
606.000000	2.431580
607.000000	2.390539
608.000000	2.368995
609.000000	2.335282
610.000000	2.287597
611.000000	2.266010
612.000000	2.247055
613.000000	2.245265
614.000000	2.230054
615.000000	2.217066
616.000000	2.219417
617.000000	2.239175
618.000000	2.261081
619.000000	2.280520
620.000000	2.287570
621.000000	2.261463
622.000000	2.235826
623.000000	2.170669
624.000000	2.078428
625.000000	1.972476
626.000000	1.841437
627.000000	1.698850
628.000000	1.538910
629.000000	1.369782
630.000000	1.223866
631.000000	1.110704
632.000000	0.993989
633.000000	0.908794
634.000000	0.840870
635.000000	0.794793
636.000000	0.761106
637.000000	0.735853
638.000000	0.729947
639.000000	0.725507
640.000000	0.745852
641.000000	0.767720
642.000000	0.808995
643.000000	0.859602
644.000000	0.919079
645.000000	0.966376
646.000000	1.031483
647.000000	1.099248
648.000000	1.186134
649.000000	1.234694
650.000000	1.278712
651.000000	1.321751
652.000000	1.366262
653.000000	1.395144
654.000000	1.415629
655.000000	1.428367
656.000000	1.436144
657.000000	1.446333
658.000000	1.440775
659.000000	1.444060
660.000000	1.447934
661.000000	1.462753
662.000000	1.466771
663.000000	1.477157
664.000000	1.470959
665.000000	1.485086
666.000000	1.492644
667.000000	1.492456
668.000000	1.488463
669.000000	1.490628
670.000000	1.484224
671.000000	1.451528
672.000000	1.425412
673.000000	1.392916
674.000000	1.345107
675.000000	1.306464
676.000000	1.254153
677.000000	1.191742
678.000000	1.123603
679.000000	1.072034
680.000000	1.000283
681.000000	0.947775
682.000000	0.888064
683.000000	0.833351
684.000000	0.807651
685.000000	0.781676
686.000000	0.766581
687.000000	0.752390
688.000000	0.760488
689.000000	0.780659
690.000000	0.804786
691.000000	0.824168
692.000000	0.844138
693.000000	0.884838
694.000000	0.916853
695.000000	0.958536
696.000000	0.992670
697.000000	0.997654
698.000000	1.035448
699.000000	1.061179
700.000000	1.082374
701.000000	1.086578
702.000000	1.100856
703.000000	1.117469
704.000000	1.118897
705.000000	1.116599
706.000000	1.136586
707.000000	1.125911
708.000000	1.101079
709.000000	1.094174
710.000000	1.099617
711.000000	1.080380
712.000000	1.069940
713.000000	1.067291
714.000000	1.055400
715.000000	1.056384
716.000000	1.044444
717.000000	1.030903
718.000000	1.030763
719.000000	1.022487
720.000000	1.012950
721.000000	1.017497
722.000000	1.026418
723.000000	1.019319
724.000000	1.014760
725.000000	1.012542
726.000000	1.019491
727.000000	1.015120
728.000000	1.005389
729.000000	1.009761
730.000000	1.006412
731.000000	1.010139
732.000000	1.018534
733.000000	1.022556
734.000000	1.026490
735.000000	1.024713
736.000000	1.014284
737.000000	1.020710
738.000000	1.042603
739.000000	1.046793
740.000000	1.047723
741.000000	1.035486
742.000000	1.020105
743.000000	1.043608
744.000000	1.036550
745.000000	1.029840
746.000000	1.049781
747.000000	1.048979
748.000000	1.028723
749.000000	1.016369
750.000000	1.040445
751.000000	1.037045
752.000000	1.030448
753.000000	1.034741
754.000000	1.042440
755.000000	1.041307
756.000000	1.021135
757.000000	1.011767
758.000000	1.010086
759.000000	0.998995
760.000000	1.006756
761.000000	1.015096
762.000000	1.005962
763.000000	1.000570
764.000000	0.981067
765.000000	0.974957
766.000000	0.988548
767.000000	0.985645
768.000000	0.974585
769.000000	0.972311
770.000000	0.964438
771.000000	0.953981
772.000000	0.964164
773.000000	0.964358
774.000000	0.950525
775.000000	0.943387
776.000000	0.961997
777.000000	0.966353
778.000000	0.968678
779.000000	0.974468
780.000000	0.984494
781.000000	0.989389
782.000000	1.002816
783.000000	1.020260
784.000000	1.013538
785.000000	1.002519
786.000000	1.035377
787.000000	1.046272
788.000000	1.030548
789.000000	1.036404
790.000000	1.040902
791.000000	1.057051
792.000000	1.075346
793.000000	1.062185
794.000000	1.057343
795.000000	1.043038
796.000000	1.031879
797.000000	1.047652
798.000000	1.016126
799.000000	1.033101
800.000000	1.004096
801.000000	0.975902
802.000000	0.975471
803.000000	1.042382
804.000000	1.021892
805.000000	0.972128
806.000000	0.969626
807.000000	1.017476
808.000000	1.064775
809.000000	1.004502
810.000000	1.011688
811.000000	0.977889
812.000000	0.958257
813.000000	0.992838
814.000000	0.973089
815.000000	0.954828
816.000000	0.985190
817.000000	0.966170
818.000000	0.984942
819.000000	0.957001
820.000000	0.891378
821.000000	0.883042
822.000000	0.879162
823.000000	0.887524
824.000000	0.895539
825.000000	0.874272
826.000000	0.926007
827.000000	0.912478
828.000000	0.975190
829.000000	0.939490
830.000000	0.956007
831.000000	0.953146
832.000000	0.989748
833.000000	0.991848
834.000000	0.960932
835.000000	0.980546
836.000000	1.025987
837.000000	1.101681
838.000000	1.035129
839.000000	0.985874
840.000000	1.061814
841.000000	0.997597
842.000000	1.079300
843.000000	1.081966
844.000000	1.000550
845.000000	1.091112
846.000000	1.001147
847.000000	1.084105
848.000000	1.174271
849.000000	1.110197
850.000000	1.096202
851.000000	1.219350
852.000000	1.237671
853.000000	1.179751
854.000000	1.343744
855.000000	1.263219
856.000000	1.229186
857.000000	1.181352
858.000000	1.054424
859.000000	1.212363
860.000000	1.198045
861.000000	1.187120
862.000000	1.190996
863.000000	1.198639
864.000000	1.205671
865.000000	1.229334
866.000000	1.256042
867.000000	1.276565
868.000000	1.284772
869.000000	1.295248
870.000000	1.307666
871.000000	1.318614
872.000000	1.311507
873.000000	1.323779
874.000000	1.328550
875.000000	1.334131
876.000000	1.334981
877.000000	1.362005
878.000000	1.365863
879.000000	1.391098
880.000000	1.385620
881.000000	1.377653
882.000000	1.386587
883.000000	1.387885
884.000000	1.413750
885.000000	1.411757
886.000000	1.417489
887.000000	1.426477
888.000000	1.430692
889.000000	1.450412
890.000000	1.465972
891.000000	1.474359
892.000000	1.491520
893.000000	1.503151
894.000000	1.501172
895.000000	1.487879
896.000000	1.479386
897.000000	1.489806
898.000000	1.474605
899.000000	1.462235
900.000000	1.478115
901.000000	1.478715
902.000000	1.482528
903.000000	1.488483
904.000000	1.461937
905.000000	1.450908
906.000000	1.446910
907.000000	1.472520
908.000000	1.455543
909.000000	1.471377
910.000000	1.483940
911.000000	1.490648
912.000000	1.460494
913.000000	1.463347
914.000000	1.455181
915.000000	1.469328
916.000000	1.470305
917.000000	1.436198
918.000000	1.438019
919.000000	1.436174
920.000000	1.419877
921.000000	1.429556
922.000000	1.426767
923.000000	1.399390
924.000000	1.413338
925.000000	1.384289
926.000000	1.422551
927.000000	1.412489
928.000000	1.422920
929.000000	1.430287
930.000000	1.424386
931.000000	1.410944
932.000000	1.412350
933.000000	1.438521
934.000000	1.441551
935.000000	1.462733
936.000000	1.439713
937.000000	1.435770
938.000000	1.466951
939.000000	1.444017
940.000000	1.429377
941.000000	1.422543
942.000000	1.403377
943.000000	1.392971
944.000000	1.382972
945.000000	1.363042
946.000000	1.354959
947.000000	1.355231
948.000000	1.352223
949.000000	1.337080
950.000000	1.308316
951.000000	1.317935
952.000000	1.299196
953.000000	1.272315
954.000000	1.282859
955.000000	1.281262
956.000000	1.259293
957.000000	1.241117
958.000000	1.216415
959.000000	1.196734
960.000000	1.178364
961.000000	1.163837
962.000000	1.126019
963.000000	1.107490
964.000000	1.074377
965.000000	1.044657
966.000000	1.018038
967.000000	0.994272
968.000000	0.981478
969.000000	0.961197
970.000000	0.945118
971.000000	0.935381
972.000000	0.908007
973.000000	0.906779
974.000000	0.898496
975.000000	0.882500
976.000000	0.894829
977.000000	0.902418
978.000000	0.894078
979.000000	0.885320
980.000000	0.881653
981.000000	0.870158
982.000000	0.855271
983.000000	0.856871
984.000000	0.850625
985.000000	0.843678
986.000000	0.831534
987.000000	0.817404
988.000000	0.819655
989.000000	0.827888
990.000000	0.817391
991.000000	0.807282
992.000000	0.814499
993.000000	0.818740
994.000000	0.825038
995.000000	0.819216
996.000000	0.818928
997.000000	0.837867
998.000000	0.844291
999.000000	0.834053
1000.000000	0.838778
1001.000000	0.845241
1002.000000	0.847807
1003.000000	0.846859
1004.000000	0.823253
1005.000000	0.820541
1006.000000	0.818627
1007.000000	0.800453
1008.000000	0.781778
1009.000000	0.762728
1010.000000	0.748492
1011.000000	0.733899
1012.000000	0.718109
1013.000000	0.699608
1014.000000	0.678957
1015.000000	0.674496
1016.000000	0.682049
1017.000000	0.670554
1018.000000	0.643378
1019.000000	0.627212
1020.000000	0.623319
1021.000000	0.616606
1022.000000	0.605964
1023.000000	0.589179
1024.000000	0.566966
1025.000000	0.550587
1026.000000	0.540158
1027.000000	0.524879
1028.000000	0.507580
1029.000000	0.493449
1030.000000	0.478750
1031.000000	0.457367
1032.000000	0.428834
1033.000000	0.415539
1034.000000	0.406680
1035.000000	0.410362
1036.000000	0.408076
1037.000000	0.389700
1038.000000	0.395442
1039.000000	0.390206
1040.000000	0.378411
1041.000000	0.386735
1042.000000	0.391223
1043.000000	0.385525
1044.000000	0.378823
1045.000000	0.381660
1046.000000	0.380805
1047.000000	0.384966
1048.000000	0.380507
1049.000000	0.380096
1050.000000	0.389908
1051.000000	0.399066
1052.000000	0.403290
1053.000000	0.412564
1054.000000	0.421112
1055.000000	0.434164
1056.000000	0.433316
1057.000000	0.427236
1058.000000	0.423703
1059.000000	0.424794
1060.000000	0.429946
1061.000000	0.439863
1062.000000	0.441846
1063.000000	0.440042
1064.000000	0.430965
1065.000000	0.447971
1066.000000	0.442439
1067.000000	0.452669
1068.000000	0.454411
1069.000000	0.465536
1070.000000	0.464361
1071.000000	0.473998
1072.000000	0.477086
1073.000000	0.477064
1074.000000	0.472815
1075.000000	0.466150
1076.000000	0.479439
1077.000000	0.480310
1078.000000	0.466429
1079.000000	0.469411
1080.000000	0.467274
1081.000000	0.446833
1082.000000	0.448753
1083.000000	0.436257
1084.000000	0.425778
1085.000000	0.423840
1086.000000	0.415147
1087.000000	0.405844
1088.000000	0.406621
1089.000000	0.415268
1090.000000	0.423135
1091.000000	0.415333
1092.000000	0.404880
1093.000000	0.392779
1094.000000	0.389012
1095.000000	0.388771
1096.000000	0.379659
1097.000000	0.372077
1098.000000	0.359598
1099.000000	0.362341
1100.000000	0.350776
1101.000000	0.335179
1102.000000	0.333895
1103.000000	0.342758
1104.000000	0.342454
1105.000000	0.340436
1106.000000	0.316539
1107.000000	0.311825
1108.000000	0.313421
1109.000000	0.320204
1110.000000	0.315275
1111.000000	0.311115
1112.000000	0.323501
1113.000000	0.328251
1114.000000	0.312563
1115.000000	0.300572
1116.000000	0.312084
1117.000000	0.322526
1118.000000	0.317073
1119.000000	0.315933
1120.000000	0.313863
1121.000000	0.300345
1122.000000	0.296187
1123.000000	0.321838
1124.000000	0.329740
1125.000000	0.325602
1126.000000	0.334355
1127.000000	0.326559
1128.000000	0.335192
1129.000000	0.334473
1130.000000	0.338995
1131.000000	0.349101
1132.000000	0.365070
1133.000000	0.350388
1134.000000	0.348955
1135.000000	0.380630
1136.000000	0.381315
1137.000000	0.380364
1138.000000	0.390413
1139.000000	0.411648
1140.000000	0.425792
1141.000000	0.425450
1142.000000	0.424770
1143.000000	0.424412
1144.000000	0.434988
1145.000000	0.439515
1146.000000	0.453548
1147.000000	0.446041
1148.000000	0.446339
1149.000000	0.449561
1150.000000	0.445341
1151.000000	0.441794
1152.000000	0.473398
1153.000000	0.480795
1154.000000	0.466819
1155.000000	0.477388
1156.000000	0.492323
1157.000000	0.496549
1158.000000	0.514111
1159.000000	0.499074
1160.000000	0.496648
1161.000000	0.509270
1162.000000	0.524559
1163.000000	0.544704
1164.000000	0.532704
1165.000000	0.532937
1166.000000	0.539027
1167.000000	0.554894
1168.000000	0.548642
1169.000000	0.567612
1170.000000	0.551408
1171.000000	0.553935
1172.000000	0.559792
1173.000000	0.576482
1174.000000	0.557864
1175.000000	0.557968
1176.000000	0.557714
1177.000000	0.542223
1178.000000	0.548473
1179.000000	0.567907
1180.000000	0.562598
1181.000000	0.562387
1182.000000	0.575274
1183.000000	0.565282
1184.000000	0.558206
1185.000000	0.570023
1186.000000	0.549571
1187.000000	0.551504
1188.000000	0.546036
1189.000000	0.537457
1190.000000	0.526224
1191.000000	0.527820
1192.000000	0.526153
1193.000000	0.524091
1194.000000	0.525535
1195.000000	0.507510
1196.000000	0.497051
1197.000000	0.496528
1198.000000	0.502158
1199.000000	0.498806
1200.000000	0.491205
1201.000000	0.493410
1202.000000	0.503365
1203.000000	0.507439
1204.000000	0.477660
1205.000000	0.464876
1206.000000	0.469939
1207.000000	0.472328
1208.000000	0.477418
1209.000000	0.459962
1210.000000	0.456480
1211.000000	0.461407
1212.000000	0.456390
1213.000000	0.446974
1214.000000	0.454073
1215.000000	0.452672
1216.000000	0.437261
1217.000000	0.444173
1218.000000	0.441243
1219.000000	0.435019
1220.000000	0.449114
1221.000000	0.458707
1222.000000	0.445124
1223.000000	0.446940
1224.000000	0.456061
1225.000000	0.447927
1226.000000	0.439162
1227.000000	0.446489
1228.000000	0.447230
1229.000000	0.444774
1230.000000	0.457033
1231.000000	0.444287
1232.000000	0.443955
1233.000000	0.445305
1234.000000	0.448189
1235.000000	0.449252
1236.000000	0.452633
1237.000000	0.454412
1238.000000	0.463086
1239.000000	0.464035
1240.000000	0.459587
1241.000000	0.460145
1242.000000	0.450488
1243.000000	0.446693
1244.000000	0.459601
1245.000000	0.458990
1246.000000	0.451762
1247.000000	0.449356
1248.000000	0.462166
1249.000000	0.451659
1250.000000	0.441874
1251.000000	0.450865
1252.000000	0.460009
1253.000000	0.461084
1254.000000	0.465976
1255.000000	0.464563
1256.000000	0.461962
1257.000000	0.471041
1258.000000	0.477297
1259.000000	0.473886
1260.000000	0.472033
1261.000000	0.468040
1262.000000	0.470213
1263.000000	0.460255
1264.000000	0.459256
1265.000000	0.465763
1266.000000	0.457994
1267.000000	0.466202
1268.000000	0.466324
1269.000000	0.461022
1270.000000	0.467381
1271.000000	0.461682
1272.000000	0.456687
1273.000000	0.455536
1274.000000	0.457755
1275.000000	0.467011
1276.000000	0.470585
1277.000000	0.466406
1278.000000	0.462137
1279.000000	0.448900
1280.000000	0.448398
1281.000000	0.437229
1282.000000	0.429383
1283.000000	0.427218
1284.000000	0.428569
1285.000000	0.431182
1286.000000	0.422165
1287.000000	0.416045
1288.000000	0.426714
1289.000000	0.429466
1290.000000	0.426758
1291.000000	0.424795
1292.000000	0.420824
1293.000000	0.414762
1294.000000	0.411787
1295.000000	0.402840
1296.000000	0.396003
1297.000000	0.398613
1298.000000	0.399044
1299.000000	0.395860
1300.000000	0.406299
1301.000000	0.411248
1302.000000	0.403465
1303.000000	0.403088
1304.000000	0.398358
1305.000000	0.392579
1306.000000	0.389692
1307.000000	0.389207
1308.000000	0.387766
1309.000000	0.388471
1310.000000	0.391779
1311.000000	0.388759
1312.000000	0.381220
1313.000000	0.386547
1314.000000	0.386030
1315.000000	0.380182
1316.000000	0.372751
1317.000000	0.381825
1318.000000	0.388679
1319.000000	0.378338
1320.000000	0.381746
1321.000000	0.386863
1322.000000	0.378604
1323.000000	0.381316
1324.000000	0.377990
1325.000000	0.371385
1326.000000	0.385217
1327.000000	0.391469
1328.000000	0.389086
1329.000000	0.388395
1330.000000	0.386581
1331.000000	0.391398
1332.000000	0.396928
1333.000000	0.404637
1334.000000	0.414430
1335.000000	0.418995
1336.000000	0.427329
1337.000000	0.430062
1338.000000	0.437069
1339.000000	0.450134
1340.000000	0.456064
1341.000000	0.459366
1342.000000	0.465942
1343.000000	0.470065
1344.000000	0.482548
1345.000000	0.489034
1346.000000	0.489440
1347.000000	0.497124
1348.000000	0.508883
1349.000000	0.514721
1350.000000	0.529078
1351.000000	0.525144
1352.000000	0.538367
1353.000000	0.537127
1354.000000	0.534159
1355.000000	0.547078
1356.000000	0.571231
1357.000000	0.576024
1358.000000	0.562256
1359.000000	0.567987
1360.000000	0.555275
1361.000000	0.553199
1362.000000	0.573768
1363.000000	0.581191
1364.000000	0.574431
1365.000000	0.575048
1366.000000	0.610667
1367.000000	0.602461
1368.000000	0.591248
1369.000000	0.626807
1370.000000	0.620223
1371.000000	0.619226
1372.000000	0.631655
1373.000000	0.633768
1374.000000	0.620198
1375.000000	0.619799
1376.000000	0.622056
1377.000000	0.628200
1378.000000	0.623886
1379.000000	0.625619
1380.000000	0.629483
1381.000000	0.629307
1382.000000	0.605115
1383.000000	0.618606
1384.000000	0.623755
1385.000000	0.633679
1386.000000	0.641378
1387.000000	0.631249
1388.000000	0.622215
1389.000000	0.643859
1390.000000	0.677731
1391.000000	0.655876
1392.000000	0.655749
1393.000000	0.680978
1394.000000	0.703042
1395.000000	0.668905
1396.000000	0.717826
1397.000000	0.753773
1398.000000	0.764702
1399.000000	0.746402
1400.000000	0.716209
1401.000000	0.748281
1402.000000	0.780308
1403.000000	0.784221
1404.000000	0.775680
1405.000000	0.795348
1406.000000	0.812396
1407.000000	0.827265
1408.000000	0.826761
1409.000000	0.825103
1410.000000	0.846635
1411.000000	0.860814
1412.000000	0.851841
1413.000000	0.826202
1414.000000	0.831469
1415.000000	0.854197
1416.000000	0.870132
1417.000000	0.856153
1418.000000	0.843997
1419.000000	0.857174
1420.000000	0.862254
1421.000000	0.883493
1422.000000	0.870331
1423.000000	0.868579
1424.000000	0.871706
1425.000000	0.886447
1426.000000	0.875224
1427.000000	0.866733
1428.000000	0.853634
1429.000000	0.861088
1430.000000	0.844679
1431.000000	0.841689
1432.000000	0.829762
1433.000000	0.848964
1434.000000	0.861392
1435.000000	0.849664
1436.000000	0.840600
1437.000000	0.820192
1438.000000	0.830182
1439.000000	0.829621
1440.000000	0.838294
1441.000000	0.829888
1442.000000	0.817876
1443.000000	0.837166
1444.000000	0.840889
1445.000000	0.817991
1446.000000	0.819098
1447.000000	0.809422
1448.000000	0.825542
1449.000000	0.835207
1450.000000	0.814790
1451.000000	0.805375
1452.000000	0.806988
1453.000000	0.822920
1454.000000	0.805669
1455.000000	0.817850
1456.000000	0.825455
1457.000000	0.816672
1458.000000	0.820660
1459.000000	0.813458
1460.000000	0.807164
1461.000000	0.817127
1462.000000	0.814609
1463.000000	0.816838
1464.000000	0.824248
1465.000000	0.826174
1466.000000	0.813826
1467.000000	0.818300
1468.000000	0.817769
1469.000000	0.809581
1470.000000	0.807807
1471.000000	0.809625
1472.000000	0.815242
1473.000000	0.811232
1474.000000	0.821591
1475.000000	0.826763
1476.000000	0.822717
1477.000000	0.838449
1478.000000	0.832175
1479.000000	0.830066
1480.000000	0.830745
1481.000000	0.835896
1482.000000	0.819824
1483.000000	0.836355
1484.000000	0.827110
1485.000000	0.836156
1486.000000	0.840436
1487.000000	0.831050
1488.000000	0.844123
1489.000000	0.847804
1490.000000	0.851777
1491.000000	0.848144
1492.000000	0.860529
1493.000000	0.857767
1494.000000	0.854877
1495.000000	0.874178
1496.000000	0.851855
1497.000000	0.850309
1498.000000	0.868945
1499.000000	0.864813
1500.000000	0.869240
1501.000000	0.852886
1502.000000	0.856461
1503.000000	0.862555
1504.000000	0.856910
1505.000000	0.857111
1506.000000	0.853709
1507.000000	0.844550
1508.000000	0.862147
1509.000000	0.858278
1510.000000	0.855383
1511.000000	0.850901
1512.000000	0.841015
1513.000000	0.853304
1514.000000	0.866963
1515.000000	0.860315
1516.000000	0.856602
1517.000000	0.857156
1518.000000	0.854891
1519.000000	0.852148
1520.000000	0.856216
1521.000000	0.846165
1522.000000	0.851685
1523.000000	0.865904
1524.000000	0.856961
1525.000000	0.841544
1526.000000	0.850491
1527.000000	0.854967
1528.000000	0.852625
1529.000000	0.849707
1530.000000	0.860365
1531.000000	0.858924
1532.000000	0.846897
1533.000000	0.844824
1534.000000	0.850188
1535.000000	0.848097
1536.000000	0.838154
1537.000000	0.835556
1538.000000	0.827869
1539.000000	0.838775
1540.000000	0.838602
1541.000000	0.831645
1542.000000	0.832680
1543.000000	0.817811
1544.000000	0.817779
1545.000000	0.821917
1546.000000	0.810815
1547.000000	0.813827
1548.000000	0.814448
1549.000000	0.813447
1550.000000	0.813502
1551.000000	0.812684
1552.000000	0.808715
1553.000000	0.809060
1554.000000	0.807225
1555.000000	0.797295
1556.000000	0.795674
1557.000000	0.800473
1558.000000	0.796688
1559.000000	0.786436
1560.000000	0.781111
1561.000000	0.786499
1562.000000	0.785389
1563.000000	0.773086
1564.000000	0.767956
1565.000000	0.769548
1566.000000	0.771138
1567.000000	0.770536
1568.000000	0.765712
1569.000000	0.762462
1570.000000	0.757554
1571.000000	0.747060
1572.000000	0.745540
1573.000000	0.748443
1574.000000	0.746642
1575.000000	0.749094
1576.000000	0.748531
1577.000000	0.745131
1578.000000	0.742563
1579.000000	0.747778
1580.000000	0.745035
1581.000000	0.743390
1582.000000	0.736605
1583.000000	0.737390
1584.000000	0.734946
1585.000000	0.716215
1586.000000	0.717901
1587.000000	0.721072
1588.000000	0.702126
1589.000000	0.694523
1590.000000	0.703889
1591.000000	0.704826
1592.000000	0.692762
1593.000000	0.684453
1594.000000	0.694036
1595.000000	0.686671
1596.000000	0.685379
1597.000000	0.683768
1598.000000	0.681827
1599.000000	0.677843
1600.000000	0.668775
1601.000000	0.663597
1602.000000	0.660122
1603.000000	0.658758
1604.000000	0.665954
1605.000000	0.661754
1606.000000	0.659622
1607.000000	0.660100
1608.000000	0.650932
1609.000000	0.649242
1610.000000	0.638782
1611.000000	0.655856
1612.000000	0.658334
1613.000000	0.646493
1614.000000	0.639049
1615.000000	0.640326
1616.000000	0.639712
1617.000000	0.654199
1618.000000	0.642430
1619.000000	0.629640
1620.000000	0.629878
1621.000000	0.621392
1622.000000	0.629684
1623.000000	0.620189
1624.000000	0.617667
1625.000000	0.626839
1626.000000	0.622610
1627.000000	0.627253
1628.000000	0.613652
1629.000000	0.614538
1630.000000	0.618374
1631.000000	0.631347
1632.000000	0.627360
1633.000000	0.634564
1634.000000	0.628122
1635.000000	0.625759
1636.000000	0.608704
1637.000000	0.606909
1638.000000	0.604438
1639.000000	0.621396
1640.000000	0.611863
1641.000000	0.613391
1642.000000	0.609834
1643.000000	0.626875
1644.000000	0.619543
1645.000000	0.628423
1646.000000	0.626363
1647.000000	0.623848
1648.000000	0.622355
1649.000000	0.620109
1650.000000	0.618044
1651.000000	0.622476
1652.000000	0.636118
1653.000000	0.624707
1654.000000	0.635663
1655.000000	0.636482
1656.000000	0.647484
1657.000000	0.640252
1658.000000	0.636125
1659.000000	0.645635
1660.000000	0.644753
1661.000000	0.652312
1662.000000	0.645468
1663.000000	0.650044
1664.000000	0.656967
1665.000000	0.664614
1666.000000	0.675112
1667.000000	0.687438
1668.000000	0.700382
1669.000000	0.695927
1670.000000	0.703663
1671.000000	0.709640
1672.000000	0.705524
1673.000000	0.700561
1674.000000	0.707115
1675.000000	0.701336
1676.000000	0.724829
1677.000000	0.706051
1678.000000	0.719627
1679.000000	0.723570
1680.000000	0.717566
1681.000000	0.718181
1682.000000	0.747257
1683.000000	0.738319
1684.000000	0.741144
1685.000000	0.726691
1686.000000	0.726900
1687.000000	0.738595
1688.000000	0.722522
1689.000000	0.716226
1690.000000	0.710777
1691.000000	0.708084
1692.000000	0.716128
1693.000000	0.714533
1694.000000	0.703270
1695.000000	0.700187
1696.000000	0.698015
1697.000000	0.696890
1698.000000	0.703021
1699.000000	0.708873
1700.000000	0.705029
1701.000000	0.720379
1702.000000	0.726732
1703.000000	0.719568
1704.000000	0.725211
1705.000000	0.714872
1706.000000	0.695970
1707.000000	0.696754
1708.000000	0.725542
1709.000000	0.723484
1710.000000	0.709003
1711.000000	0.723665
1712.000000	0.726224
1713.000000	0.743344
1714.000000	0.738401
1715.000000	0.746855
1716.000000	0.760910
1717.000000	0.755958
1718.000000	0.763885
1719.000000	0.754455
1720.000000	0.759793
1721.000000	0.764043
1722.000000	0.767912
1723.000000	0.758049
1724.000000	0.758910
1725.000000	0.743500
1726.000000	0.756176
1727.000000	0.752690
1728.000000	0.748919
1729.000000	0.745895
1730.000000	0.756592
1731.000000	0.760248
1732.000000	0.751548
1733.000000	0.749185
1734.000000	0.731939
1735.000000	0.742317
1736.000000	0.723256
1737.000000	0.718043
1738.000000	0.730687
1739.000000	0.743760
1740.000000	0.719420
1741.000000	0.722905
1742.000000	0.717841
1743.000000	0.708540
1744.000000	0.716351
1745.000000	0.712118
1746.000000	0.723127
1747.000000	0.715478
1748.000000	0.713005
1749.000000	0.705354
1750.000000	0.705287
1751.000000	0.709827
1752.000000	0.692914
1753.000000	0.690503
1754.000000	0.703668
1755.000000	0.701678
1756.000000	0.695223
1757.000000	0.702486
1758.000000	0.690523
1759.000000	0.686010
1760.000000	0.693502
1761.000000	0.689106
1762.000000	0.688999
1763.000000	0.691964
1764.000000	0.686772
1765.000000	0.673457
1766.000000	0.680330
1767.000000	0.687878
1768.000000	0.686634
1769.000000	0.678893
1770.000000	0.664764
1771.000000	0.667939
1772.000000	0.675954
1773.000000	0.677747
1774.000000	0.671964
1775.000000	0.660795
1776.000000	0.667618
1777.000000	0.664618
1778.000000	0.658736
1779.000000	0.670005
1780.000000	0.669798
1781.000000	0.660909
1782.000000	0.669517
1783.000000	0.666556
1784.000000	0.663143
1785.000000	0.654018
1786.000000	0.656056
1787.000000	0.663950
1788.000000	0.654695
1789.000000	0.659337
1790.000000	0.659981
1791.000000	0.653803
1792.000000	0.654205
1793.000000	0.649457
1794.000000	0.649097
1795.000000	0.647075
1796.000000	0.660939
1797.000000	0.654840
1798.000000	0.653284
1799.000000	0.657299
1800.000000	0.648611
1801.000000	0.646370
1802.000000	0.646833
1803.000000	0.651091
1804.000000	0.651835
1805.000000	0.644984
1806.000000	0.639300
1807.000000	0.651403
1808.000000	0.662480
1809.000000	0.652266
1810.000000	0.644059
1811.000000	0.646830
1812.000000	0.645433
1813.000000	0.648018
1814.000000	0.644263
1815.000000	0.642729
1816.000000	0.642602
1817.000000	0.647003
1818.000000	0.650267
1819.000000	0.646204
1820.000000	0.623973
1821.000000	0.620622
1822.000000	0.648123
1823.000000	0.661230
1824.000000	0.652055
1825.000000	0.635965
1826.000000	0.629381
1827.000000	0.632097
1828.000000	0.632436
1829.000000	0.629505
1830.000000	0.617190
1831.000000	0.630597
1832.000000	0.647878
1833.000000	0.650316
1834.000000	0.644674
1835.000000	0.625189
1836.000000	0.621643
1837.000000	0.634552
1838.000000	0.657192
1839.000000	0.662829
1840.000000	0.647331
1841.000000	0.636015
1842.000000	0.648529
1843.000000	0.681494
1844.000000	0.682926
1845.000000	0.666331
1846.000000	0.629967
1847.000000	0.608375
1848.000000	0.619900
1849.000000	0.663179
1850.000000	0.691547
1851.000000	0.670092
1852.000000	0.644389
1853.000000	0.633838
1854.000000	0.633100
1855.000000	0.645248
1856.000000	0.662020
1857.000000	0.665237
1858.000000	0.658914
1859.000000	0.646216
1860.000000	0.665534
1861.000000	0.672620
1862.000000	0.673512
1863.000000	0.684114
1864.000000	0.681696
1865.000000	0.675753
1866.000000	0.665533
1867.000000	0.653108
1868.000000	0.665197
1869.000000	0.678210
1870.000000	0.665135
1871.000000	0.682299
1872.000000	0.719794
1873.000000	0.714268
1874.000000	0.730491
1875.000000	0.745395
1876.000000	0.742873
1877.000000	0.744556
1878.000000	0.754407
1879.000000	0.749436
1880.000000	0.752900
1881.000000	0.759293
1882.000000	0.758081
1883.000000	0.751167
1884.000000	0.772070
1885.000000	0.777095
1886.000000	0.789535
1887.000000	0.804870
1888.000000	0.813822
1889.000000	0.805369
1890.000000	0.797949
1891.000000	0.800745
1892.000000	0.813760
1893.000000	0.820854
1894.000000	0.858052
1895.000000	0.865901
1896.000000	0.856528
1897.000000	0.836495
1898.000000	0.827842
1899.000000	0.844096
1900.000000	0.849489
1901.000000	0.851516
1902.000000	0.854206
1903.000000	0.838361
1904.000000	0.834021
1905.000000	0.825215
1906.000000	0.830465
1907.000000	0.851466
1908.000000	0.831661
1909.000000	0.816243
1910.000000	0.803924
1911.000000	0.777429
1912.000000	0.781800
1913.000000	0.772908
1914.000000	0.781702
1915.000000	0.792717
1916.000000	0.772257
1917.000000	0.757178
1918.000000	0.743975
1919.000000	0.734951
1920.000000	0.725106
1921.000000	0.741459
1922.000000	0.741969
1923.000000	0.735688
1924.000000	0.744947
1925.000000	0.730959
1926.000000	0.704905
1927.000000	0.696260
1928.000000	0.703931
1929.000000	0.699265
1930.000000	0.703458
1931.000000	0.695893
1932.000000	0.699745
1933.000000	0.690979
1934.000000	0.685468
1935.000000	0.701843
1936.000000	0.697327
1937.000000	0.679371
1938.000000	0.679753
1939.000000	0.671684
1940.000000	0.684265
1941.000000	0.667500
1942.000000	0.673886
1943.000000	0.697777
1944.000000	0.679323
1945.000000	0.675177
1946.000000	0.678126
1947.000000	0.681583
1948.000000	0.668348
1949.000000	0.666787
1950.000000	0.674606
1951.000000	0.677473
1952.000000	0.674771
1953.000000	0.675308
1954.000000	0.683749
1955.000000	0.687138
1956.000000	0.674096
1957.000000	0.667962
1958.000000	0.670132
1959.000000	0.654872
1960.000000	0.661996
1961.000000	0.669085
1962.000000	0.665385
1963.000000	0.667380
1964.000000	0.679016
1965.000000	0.676929
1966.000000	0.662372
1967.000000	0.683858
1968.000000	0.678964
1969.000000	0.667670
1970.000000	0.680785
1971.000000	0.664058
1972.000000	0.678601
1973.000000	0.666417
1974.000000	0.672881
1975.000000	0.678566
1976.000000	0.666277
1977.000000	0.667309
1978.000000	0.657915
1979.000000	0.674572
1980.000000	0.677776
1981.000000	0.666003
1982.000000	0.665778
1983.000000	0.672683
1984.000000	0.671431
1985.000000	0.668383
1986.000000	0.686274
1987.000000	0.666349
1988.000000	0.686675
1989.000000	0.675108
1990.000000	0.679243
1991.000000	0.661135
1992.000000	0.672882
1993.000000	0.662430
1994.000000	0.671143
1995.000000	0.672016
1996.000000	0.663614
1997.000000	0.665228
1998.000000	0.671517
1999.000000	0.688277
2000.000000	0.679975
2001.000000	0.666293
2002.000000	0.673706
2003.000000	0.684184
2004.000000	0.681003
2005.000000	0.676881
2006.000000	0.686776
2007.000000	0.681661
2008.000000	0.682332
2009.000000	0.694678
2010.000000	0.691776
2011.000000	0.696521
2012.000000	0.693393
2013.000000	0.692186
2014.000000	0.692149
2015.000000	0.692005
2016.000000	0.711157
2017.000000	0.695721
2018.000000	0.693539
2019.000000	0.692574
2020.000000	0.710655
2021.000000	0.695423
2022.000000	0.701059
2023.000000	0.697702
2024.000000	0.680902
2025.000000	0.706708
2026.000000	0.704889
2027.000000	0.702163
2028.000000	0.701659
2029.000000	0.695513
2030.000000	0.699498
2031.000000	0.701016
2032.000000	0.693948
2033.000000	0.687393
2034.000000	0.682731
2035.000000	0.701714
2036.000000	0.703905
2037.000000	0.692567
2038.000000	0.687216
2039.000000	0.686086
2040.000000	0.691406
2041.000000	0.686199
2042.000000	0.682544
2043.000000	0.677262
2044.000000	0.664002
2045.000000	0.673259
2046.000000	0.670046
2047.000000	0.662998
2048.000000	0.664822
2049.000000	0.657980
2050.000000	0.653420
2051.000000	0.653901
2052.000000	0.651867
2053.000000	0.648485
2054.000000	0.647842
2055.000000	0.633505
2056.000000	0.630870
2057.000000	0.625249
2058.000000	0.633279
2059.000000	0.627562
2060.000000	0.622648
2061.000000	0.625877
2062.000000	0.622291
2063.000000	0.630753
2064.000000	0.627737
2065.000000	0.631290
2066.000000	0.622227
2067.000000	0.626865
2068.000000	0.614937
2069.000000	0.618143
2070.000000	0.621781
2071.000000	0.628632
2072.000000	0.626470
2073.000000	0.617133
2074.000000	0.608850
2075.000000	0.614128
2076.000000	0.611876
2077.000000	0.622146
2078.000000	0.629644
2079.000000	0.627200
2080.000000	0.622788
2081.000000	0.623048
2082.000000	0.628511
2083.000000	0.624782
2084.000000	0.628727
2085.000000	0.636120
2086.000000	0.632576
2087.000000	0.621935
2088.000000	0.621907
2089.000000	0.620687
2090.000000	0.620593
2091.000000	0.627611
2092.000000	0.623090
2093.000000	0.619783
2094.000000	0.614514
2095.000000	0.611797
2096.000000	0.612871
2097.000000	0.613577
2098.000000	0.607510
2099.000000	0.609408
2100.000000	0.624121
2101.000000	0.627785
2102.000000	0.621202
2103.000000	0.618147
2104.000000	0.611407
2105.000000	0.606421
2106.000000	0.607344
2107.000000	0.611968
2108.000000	0.612566
2109.000000	0.604225
2110.000000	0.608802
2111.000000	0.618101
2112.000000	0.612146
2113.000000	0.607575
2114.000000	0.607907
2115.000000	0.609403
2116.000000	0.602670
2117.000000	0.599306
2118.000000	0.602620
2119.000000	0.598941
2120.000000	0.598821
2121.000000	0.603910
2122.000000	0.606419
2123.000000	0.609383
2124.000000	0.607596
2125.000000	0.602919
2126.000000	0.599889
2127.000000	0.601265
2128.000000	0.605462
2129.000000	0.605097
2130.000000	0.610528
2131.000000	0.612647
2132.000000	0.600728
2133.000000	0.598454
2134.000000	0.600103
2135.000000	0.590232
2136.000000	0.597318
2137.000000	0.603374
2138.000000	0.605237
2139.000000	0.597162
2140.000000	0.596545
2141.000000	0.608300
2142.000000	0.600067
2143.000000	0.591838
2144.000000	0.579601
2145.000000	0.591537
2146.000000	0.607848
2147.000000	0.607428
2148.000000	0.599636
2149.000000	0.586870
2150.000000	0.585180
2151.000000	0.587488
2152.000000	0.582216
2153.000000	0.576093
2154.000000	0.579210
2155.000000	0.582218
2156.000000	0.584874
2157.000000	0.570374
2158.000000	0.568484
2159.000000	0.562004
2160.000000	0.567755
2161.000000	0.566016
2162.000000	0.569555
2163.000000	0.560360
2164.000000	0.561916
2165.000000	0.554070
2166.000000	0.558702
2167.000000	0.559930
2168.000000	0.558654
2169.000000	0.549016
2170.000000	0.557500
2171.000000	0.542934
2172.000000	0.553326
2173.000000	0.554749
2174.000000	0.552575
2175.000000	0.560913
2176.000000	0.558459
2177.000000	0.547552
2178.000000	0.537481
2179.000000	0.538096
2180.000000	0.530112
2181.000000	0.540224
2182.000000	0.541436
2183.000000	0.531150
2184.000000	0.527031
2185.000000	0.530412
2186.000000	0.512444
2187.000000	0.516500
2188.000000	0.521992
2189.000000	0.509770
2190.000000	0.510265
2191.000000	0.491249
2192.000000	0.496931
2193.000000	0.490149
2194.000000	0.480028
2195.000000	0.465960
2196.000000	0.467917
2197.000000	0.468058
2198.000000	0.444279
2199.000000	0.446961
2200.000000	0.453244
2201.000000	0.431172
2202.000000	0.405316
2203.000000	0.414549
2204.000000	0.424203
2205.000000	0.409822
2206.000000	0.397756
2207.000000	0.419808
2208.000000	0.405078
2209.000000	0.390454
2210.000000	0.395517
2211.000000	0.399843
2212.000000	0.397501
2213.000000	0.399208
2214.000000	0.385195
2215.000000	0.406118
2216.000000	0.391464
2217.000000	0.416078
2218.000000	0.399563
2219.000000	0.405034
2220.000000	0.401147
2221.000000	0.412034
2222.000000	0.410203
2223.000000	0.424013
2224.000000	0.408525
2225.000000	0.411564
2226.000000	0.420419
2227.000000	0.413507
2228.000000	0.417231
2229.000000	0.427371
2230.000000	0.426033
2231.000000	0.421320
2232.000000	0.432708
2233.000000	0.436060
2234.000000	0.436833
2235.000000	0.426513
2236.000000	0.438150
2237.000000	0.450572
2238.000000	0.448103
2239.000000	0.415843
2240.000000	0.421589
2241.000000	0.427458
2242.000000	0.433562
2243.000000	0.428847
2244.000000	0.424972
2245.000000	0.434161
2246.000000	0.422888
2247.000000	0.420376
2248.000000	0.443389
2249.000000	0.434221
2250.000000	0.432863
2251.000000	0.427757
2252.000000	0.429912
2253.000000	0.432995
2254.000000	0.425079
2255.000000	0.418690
2256.000000	0.431047
2257.000000	0.427708
2258.000000	0.434053
2259.000000	0.428329
2260.000000	0.415680
2261.000000	0.420020
2262.000000	0.431019
2263.000000	0.416496
2264.000000	0.425497
2265.000000	0.411353
2266.000000	0.411298
2267.000000	0.414905
2268.000000	0.413165
2269.000000	0.420452
2270.000000	0.421381
2271.000000	0.420512
2272.000000	0.416639
2273.000000	0.423660
2274.000000	0.426728
2275.000000	0.439005
2276.000000	0.417541
2277.000000	0.420312
2278.000000	0.421354
2279.000000	0.435397
2280.000000	0.433486
2281.000000	0.441075
2282.000000	0.435457
2283.000000	0.444413
2284.000000	0.431757
2285.000000	0.425139
2286.000000	0.419200
2287.000000	0.434903
2288.000000	0.443755
2289.000000	0.441658
2290.000000	0.442238
2291.000000	0.435462
2292.000000	0.432220
2293.000000	0.439898
2294.000000	0.436524
2295.000000	0.424620
2296.000000	0.437761
2297.000000	0.439277
2298.000000	0.442766
2299.000000	0.446445
2300.000000	0.452557
2301.000000	0.438860
2302.000000	0.440704
2303.000000	0.447143
2304.000000	0.445981
2305.000000	0.435378
2306.000000	0.432554
2307.000000	0.441007
2308.000000	0.444932
2309.000000	0.438632
2310.000000	0.452618
2311.000000	0.450811
2312.000000	0.444338
2313.000000	0.447617
2314.000000	0.442819
2315.000000	0.446417
2316.000000	0.458985
2317.000000	0.445940
2318.000000	0.453570
2319.000000	0.461035
2320.000000	0.460219
2321.000000	0.464950
2322.000000	0.451036
2323.000000	0.449334
2324.000000	0.461722
2325.000000	0.464816
2326.000000	0.466804
2327.000000	0.460124
2328.000000	0.453065
2329.000000	0.451651
2330.000000	0.445400
2331.000000	0.453911
2332.000000	0.457375
2333.000000	0.451012
2334.000000	0.453344
2335.000000	0.451676
2336.000000	0.453432
2337.000000	0.454600
2338.000000	0.453018
2339.000000	0.444009
2340.000000	0.442818
2341.000000	0.449437
2342.000000	0.443361
2343.000000	0.444694
2344.000000	0.448884
2345.000000	0.451155
2346.000000	0.445341
2347.000000	0.440413
2348.000000	0.440747
2349.000000	0.436795
2350.000000	0.446171
2351.000000	0.445315
2352.000000	0.435086
2353.000000	0.434034
2354.000000	0.439825
2355.000000	0.452618
2356.000000	0.446777
2357.000000	0.450849
2358.000000	0.445545
2359.000000	0.434870
2360.000000	0.445848
2361.000000	0.445283
2362.000000	0.438953
2363.000000	0.441288
2364.000000	0.439936
2365.000000	0.440027
2366.000000	0.445488
2367.000000	0.444662
2368.000000	0.441837
2369.000000	0.435144
2370.000000	0.442390
2371.000000	0.440970
2372.000000	0.432248
2373.000000	0.423437
2374.000000	0.423779
2375.000000	0.434268
2376.000000	0.434801
2377.000000	0.436872
2378.000000	0.438473
2379.000000	0.436710
2380.000000	0.437124
2381.000000	0.435149
2382.000000	0.443015
2383.000000	0.432892
2384.000000	0.427550
2385.000000	0.436545
2386.000000	0.444139
2387.000000	0.446306
2388.000000	0.437403
2389.000000	0.433678
2390.000000	0.425812
2391.000000	0.417992
2392.000000	0.414958
2393.000000	0.419654
2394.000000	0.415568
2395.000000	0.418031
2396.000000	0.422509
2397.000000	0.420507
2398.000000	0.419844
2399.000000	0.417670
2400.000000	0.416598
2401.000000	0.418599
2402.000000	0.411940
2403.000000	0.398439
2404.000000	0.405225
2405.000000	0.403445
2406.000000	0.395618
2407.000000	0.393471
2408.000000	0.398805
2409.000000	0.398449
2410.000000	0.394539
2411.000000	0.403542
2412.000000	0.401228
2413.000000	0.386206
2414.000000	0.390593
2415.000000	0.402403
2416.000000	0.400913
2417.000000	0.396979
2418.000000	0.390208
2419.000000	0.382933
2420.000000	0.383986
2421.000000	0.376718
2422.000000	0.361748
2423.000000	0.367772
2424.000000	0.375418
2425.000000	0.362250
2426.000000	0.359183
2427.000000	0.364960
2428.000000	0.375959
2429.000000	0.376897
2430.000000	0.368766
2431.000000	0.370511
2432.000000	0.362697
2433.000000	0.355979
2434.000000	0.353927
2435.000000	0.356380
2436.000000	0.346935
2437.000000	0.354759
2438.000000	0.361198
2439.000000	0.357164
2440.000000	0.350872
2441.000000	0.342728
2442.000000	0.343221
2443.000000	0.349113
2444.000000	0.338847
2445.000000	0.323376
2446.000000	0.327135
2447.000000	0.334596
2448.000000	0.317548
2449.000000	0.329165
2450.000000	0.340454
2451.000000	0.346444
2452.000000	0.327501
2453.000000	0.321781
2454.000000	0.310760
2455.000000	0.313423
2456.000000	0.321373
2457.000000	0.302916
2458.000000	0.300692
2459.000000	0.313089
2460.000000	0.320079
2461.000000	0.319817
2462.000000	0.285693
2463.000000	0.307162
2464.000000	0.322695
2465.000000	0.314372
2466.000000	0.302069
2467.000000	0.314874
2468.000000	0.319134
2469.000000	0.310849
2470.000000	0.285608
2471.000000	0.302014
2472.000000	0.309594
2473.000000	0.284101
2474.000000	0.271239
2475.000000	0.286375
2476.000000	0.271039
2477.000000	0.268079
2478.000000	0.303432
2479.000000	0.305486
2480.000000	0.320465
2481.000000	0.277097
2482.000000	0.282581
2483.000000	0.293352
2484.000000	0.332162
2485.000000	0.297965
2486.000000	0.256301
2487.000000	0.235533
2488.000000	0.332045
2489.000000	0.277249
2490.000000	0.292027
2491.000000	0.268960
2492.000000	0.278815
2493.000000	0.212129
2494.000000	0.253474
2495.000000	0.321877
2496.000000	0.292273
2497.000000	0.236985
2498.000000	0.253801
2499.000000	0.249859
2500.000000	0.340945
