PE UV       SUBTECH     SPECTRUM    ASCII       PEDS        4.00        
   -1
BIOUCR0001-3.Sample.ASC
24/02/19
11:14:54.00
24/02/19
11:14:54.00
Vinicio Soto Monge
P. cupreomarginata (sin datos) Monteverde(dudoso) Filtro Izq: Mas cafe
250,000000
1
Lambda 1050
1050L1511233
PerkinElmer UV WinLab 6.3.2.0749 / 2.02.05 Lambda 900 UV/VIS/NIR, Aug  7 2015 09:38:08

0
0
3350/servo 860,8/2
0
0
UV/VIS
1
1
1
DoubleDePol,CommonBeamDepol,RBeamAtt,SBeamAtt,60mm sphere, WB InGaAs Detector
0
0
0
0
Program
Program
3350/servo 860,8/2
3350/0,2 860,8/0,2
3350/0,2 860,8/0,2
0
15.00
 
 
 
0
 
860,8
319,2
860,8
Front
100
on
S:100 R:100
0
0
0
0
 
0
 
 
 
0
 
 
0
0
0
0
0
 
 
 
 
0
0


0
0
#HDR
-1
-1
#GR
nm
%R
1.0
0.0
2500,000000
-1,000000
2251
8
20,032600
1,574800
#DATA

250.000000	0.093790
251.000000	0.089567
252.000000	0.090581
253.000000	0.079527
254.000000	0.081329
255.000000	0.074815
256.000000	0.106742
257.000000	0.085416
258.000000	0.077699
259.000000	0.107753
260.000000	0.081934
261.000000	0.080054
262.000000	0.095290
263.000000	0.080022
264.000000	0.085112
265.000000	0.081223
266.000000	0.088784
267.000000	0.073020
268.000000	0.090625
269.000000	0.076969
270.000000	0.097934
271.000000	0.085302
272.000000	0.092200
273.000000	0.074030
274.000000	0.077248
275.000000	0.064396
276.000000	0.074299
277.000000	0.071952
278.000000	0.059080
279.000000	0.060561
280.000000	0.070697
281.000000	0.064152
282.000000	0.056564
283.000000	0.047068
284.000000	0.086079
285.000000	0.080951
286.000000	0.064691
287.000000	0.061641
288.000000	0.056633
289.000000	0.070555
290.000000	0.071507
291.000000	0.073736
292.000000	0.059457
293.000000	0.033190
294.000000	0.053727
295.000000	0.075900
296.000000	0.063169
297.000000	0.056808
298.000000	0.053716
299.000000	0.059087
300.000000	0.044324
301.000000	0.035097
302.000000	0.053713
303.000000	0.047081
304.000000	0.064489
305.000000	0.057892
306.000000	0.053482
307.000000	0.033932
308.000000	0.028390
309.000000	0.032632
310.000000	0.032357
311.000000	0.015284
312.000000	0.054864
313.000000	0.027253
314.000000	0.018875
315.000000	0.038768
316.000000	0.059097
317.000000	0.349003
318.000000	0.180552
319.000000	0.225975
320.000000	0.348818
321.000000	0.236007
322.000000	0.198548
323.000000	0.142552
324.000000	0.038710
325.000000	0.024161
326.000000	0.253307
327.000000	0.073294
328.000000	0.055461
329.000000	0.150956
330.000000	0.178524
331.000000	0.111809
332.000000	0.059125
333.000000	0.101795
334.000000	0.070436
335.000000	0.028757
336.000000	0.029433
337.000000	0.092845
338.000000	0.057768
339.000000	0.024339
340.000000	0.177683
341.000000	0.079897
342.000000	0.059290
343.000000	0.046485
344.000000	0.082248
345.000000	0.088656
346.000000	0.039559
347.000000	0.075679
348.000000	0.021175
349.000000	0.056385
350.000000	0.090860
351.000000	0.032998
352.000000	0.021936
353.000000	0.038262
354.000000	0.057710
355.000000	0.043964
356.000000	0.015846
357.000000	0.039780
358.000000	0.028743
359.000000	0.076440
360.000000	0.039331
361.000000	0.022018
362.000000	0.040397
363.000000	0.046593
364.000000	0.037769
365.000000	0.021413
366.000000	0.048092
367.000000	0.043573
368.000000	0.053986
369.000000	0.040300
370.000000	0.027522
371.000000	0.055641
372.000000	0.088776
373.000000	0.133007
374.000000	0.133753
375.000000	0.042307
376.000000	0.099337
377.000000	0.035440
378.000000	0.040880
379.000000	0.037857
380.000000	0.036362
381.000000	0.036861
382.000000	0.037662
383.000000	0.041182
384.000000	0.040154
385.000000	0.034813
386.000000	0.034260
387.000000	0.041162
388.000000	0.041265
389.000000	0.037434
390.000000	0.041177
391.000000	0.042725
392.000000	0.040788
393.000000	0.041307
394.000000	0.046341
395.000000	0.052882
396.000000	0.056338
397.000000	0.056499
398.000000	0.060337
399.000000	0.057513
400.000000	0.057651
401.000000	0.062729
402.000000	0.065017
403.000000	0.067344
404.000000	0.069601
405.000000	0.077462
406.000000	0.082500
407.000000	0.084566
408.000000	0.092344
409.000000	0.097435
410.000000	0.103087
411.000000	0.108954
412.000000	0.118816
413.000000	0.127116
414.000000	0.128204
415.000000	0.135379
416.000000	0.144346
417.000000	0.153141
418.000000	0.158527
419.000000	0.162375
420.000000	0.167934
421.000000	0.177451
422.000000	0.180043
423.000000	0.178927
424.000000	0.188456
425.000000	0.196351
426.000000	0.196352
427.000000	0.197348
428.000000	0.204708
429.000000	0.205148
430.000000	0.205054
431.000000	0.202808
432.000000	0.198867
433.000000	0.200531
434.000000	0.199852
435.000000	0.197104
436.000000	0.190596
437.000000	0.184508
438.000000	0.182819
439.000000	0.178244
440.000000	0.170317
441.000000	0.163641
442.000000	0.156009
443.000000	0.145837
444.000000	0.139650
445.000000	0.130694
446.000000	0.124782
447.000000	0.118781
448.000000	0.104851
449.000000	0.094236
450.000000	0.092753
451.000000	0.086444
452.000000	0.077389
453.000000	0.068494
454.000000	0.064952
455.000000	0.059720
456.000000	0.047807
457.000000	0.039135
458.000000	0.033116
459.000000	0.026082
460.000000	0.022896
461.000000	0.015856
462.000000	0.011140
463.000000	0.014748
464.000000	0.016606
465.000000	0.026255
466.000000	0.031116
467.000000	0.035455
468.000000	0.042801
469.000000	0.048824
470.000000	0.054151
471.000000	0.059548
472.000000	0.069603
473.000000	0.075730
474.000000	0.080079
475.000000	0.083944
476.000000	0.091520
477.000000	0.101997
478.000000	0.117297
479.000000	0.128413
480.000000	0.134864
481.000000	0.134857
482.000000	0.137811
483.000000	0.138931
484.000000	0.144491
485.000000	0.153963
486.000000	0.163054
487.000000	0.174978
488.000000	0.179964
489.000000	0.181157
490.000000	0.175991
491.000000	0.170980
492.000000	0.176308
493.000000	0.167526
494.000000	0.161609
495.000000	0.166824
496.000000	0.175595
497.000000	0.184886
498.000000	0.199446
499.000000	0.219164
500.000000	0.249646
501.000000	0.298677
502.000000	0.342804
503.000000	0.392322
504.000000	0.436299
505.000000	0.484851
506.000000	0.539290
507.000000	0.585905
508.000000	0.630503
509.000000	0.676526
510.000000	0.725473
511.000000	0.771742
512.000000	0.806307
513.000000	0.830458
514.000000	0.859122
515.000000	0.884568
516.000000	0.904656
517.000000	0.922073
518.000000	0.948203
519.000000	0.970479
520.000000	0.995691
521.000000	1.025536
522.000000	1.055231
523.000000	1.082619
524.000000	1.102017
525.000000	1.121098
526.000000	1.137559
527.000000	1.155584
528.000000	1.173557
529.000000	1.196599
530.000000	1.219684
531.000000	1.230799
532.000000	1.249131
533.000000	1.262412
534.000000	1.263572
535.000000	1.250732
536.000000	1.230371
537.000000	1.217386
538.000000	1.205849
539.000000	1.207885
540.000000	1.207899
541.000000	1.196350
542.000000	1.186450
543.000000	1.179155
544.000000	1.167707
545.000000	1.176985
546.000000	1.162202
547.000000	1.153536
548.000000	1.148180
549.000000	1.140111
550.000000	1.134215
551.000000	1.132901
552.000000	1.133008
553.000000	1.111251
554.000000	1.096773
555.000000	1.065801
556.000000	1.061431
557.000000	1.040350
558.000000	1.036005
559.000000	1.022985
560.000000	0.999310
561.000000	0.967612
562.000000	0.948754
563.000000	0.941739
564.000000	0.920870
565.000000	0.891013
566.000000	0.855430
567.000000	0.806496
568.000000	0.759875
569.000000	0.698398
570.000000	0.638310
571.000000	0.575396
572.000000	0.504118
573.000000	0.438958
574.000000	0.400371
575.000000	0.354280
576.000000	0.337785
577.000000	0.326769
578.000000	0.341562
579.000000	0.345816
580.000000	0.359410
581.000000	0.369539
582.000000	0.383494
583.000000	0.407259
584.000000	0.419152
585.000000	0.438387
586.000000	0.441517
587.000000	0.467291
588.000000	0.486861
589.000000	0.509119
590.000000	0.523471
591.000000	0.515456
592.000000	0.529329
593.000000	0.509813
594.000000	0.491022
595.000000	0.456905
596.000000	0.423929
597.000000	0.378940
598.000000	0.313247
599.000000	0.244858
600.000000	0.191973
601.000000	0.155392
602.000000	0.145385
603.000000	0.184571
604.000000	0.247814
605.000000	0.311600
606.000000	0.387930
607.000000	0.434682
608.000000	0.484046
609.000000	0.507875
610.000000	0.554382
611.000000	0.576369
612.000000	0.583443
613.000000	0.584097
614.000000	0.567907
615.000000	0.573170
616.000000	0.541319
617.000000	0.525684
618.000000	0.503172
619.000000	0.465412
620.000000	0.449199
621.000000	0.411778
622.000000	0.390376
623.000000	0.362143
624.000000	0.329036
625.000000	0.304610
626.000000	0.277106
627.000000	0.262822
628.000000	0.225374
629.000000	0.233921
630.000000	0.203958
631.000000	0.197034
632.000000	0.191071
633.000000	0.190825
634.000000	0.193279
635.000000	0.214499
636.000000	0.222628
637.000000	0.228019
638.000000	0.230710
639.000000	0.253195
640.000000	0.243648
641.000000	0.233505
642.000000	0.215791
643.000000	0.175444
644.000000	0.140942
645.000000	0.092135
646.000000	0.052390
647.000000	0.067635
648.000000	0.146212
649.000000	0.232141
650.000000	0.321124
651.000000	0.394648
652.000000	0.476130
653.000000	0.546326
654.000000	0.608113
655.000000	0.650365
656.000000	0.698983
657.000000	0.730591
658.000000	0.731737
659.000000	0.734572
660.000000	0.733568
661.000000	0.713545
662.000000	0.693608
663.000000	0.648937
664.000000	0.613091
665.000000	0.579971
666.000000	0.531120
667.000000	0.486813
668.000000	0.443073
669.000000	0.401516
670.000000	0.379645
671.000000	0.353843
672.000000	0.320764
673.000000	0.296182
674.000000	0.280702
675.000000	0.268694
676.000000	0.255909
677.000000	0.245072
678.000000	0.246407
679.000000	0.241238
680.000000	0.246222
681.000000	0.251799
682.000000	0.276105
683.000000	0.288008
684.000000	0.314529
685.000000	0.347544
686.000000	0.385626
687.000000	0.428749
688.000000	0.464327
689.000000	0.495801
690.000000	0.528597
691.000000	0.559291
692.000000	0.591782
693.000000	0.597606
694.000000	0.603879
695.000000	0.607103
696.000000	0.604621
697.000000	0.609764
698.000000	0.595887
699.000000	0.591815
700.000000	0.582791
701.000000	0.565433
702.000000	0.550384
703.000000	0.524750
704.000000	0.518487
705.000000	0.509105
706.000000	0.491538
707.000000	0.488311
708.000000	0.497485
709.000000	0.507303
710.000000	0.510783
711.000000	0.517429
712.000000	0.517115
713.000000	0.513651
714.000000	0.522036
715.000000	0.544898
716.000000	0.557359
717.000000	0.587823
718.000000	0.594762
719.000000	0.599713
720.000000	0.613540
721.000000	0.626770
722.000000	0.657297
723.000000	0.678739
724.000000	0.663383
725.000000	0.666511
726.000000	0.674887
727.000000	0.676913
728.000000	0.699889
729.000000	0.696337
730.000000	0.679418
731.000000	0.670424
732.000000	0.669743
733.000000	0.669307
734.000000	0.652662
735.000000	0.653281
736.000000	0.659682
737.000000	0.636476
738.000000	0.622755
739.000000	0.638490
740.000000	0.643662
741.000000	0.639302
742.000000	0.647065
743.000000	0.660744
744.000000	0.663360
745.000000	0.651411
746.000000	0.670062
747.000000	0.671636
748.000000	0.660726
749.000000	0.679716
750.000000	0.692528
751.000000	0.690543
752.000000	0.680986
753.000000	0.703946
754.000000	0.717671
755.000000	0.722150
756.000000	0.732474
757.000000	0.715399
758.000000	0.698378
759.000000	0.707194
760.000000	0.703014
761.000000	0.687257
762.000000	0.690022
763.000000	0.673992
764.000000	0.656149
765.000000	0.675129
766.000000	0.674241
767.000000	0.669930
768.000000	0.673477
769.000000	0.655500
770.000000	0.618944
771.000000	0.631428
772.000000	0.645465
773.000000	0.626827
774.000000	0.626661
775.000000	0.637922
776.000000	0.616669
777.000000	0.612270
778.000000	0.642177
779.000000	0.623730
780.000000	0.641382
781.000000	0.675096
782.000000	0.691565
783.000000	0.685116
784.000000	0.696798
785.000000	0.697944
786.000000	0.740777
787.000000	0.726036
788.000000	0.737300
789.000000	0.750426
790.000000	0.758172
791.000000	0.749746
792.000000	0.749544
793.000000	0.760870
794.000000	0.741134
795.000000	0.728292
796.000000	0.754157
797.000000	0.742407
798.000000	0.735764
799.000000	0.746311
800.000000	0.747802
801.000000	0.787511
802.000000	0.756148
803.000000	0.740273
804.000000	0.746102
805.000000	0.739927
806.000000	0.756684
807.000000	0.767933
808.000000	0.787966
809.000000	0.788100
810.000000	0.797252
811.000000	0.807283
812.000000	0.813832
813.000000	0.801184
814.000000	0.757176
815.000000	0.766018
816.000000	0.818926
817.000000	0.796374
818.000000	0.778388
819.000000	0.806172
820.000000	0.820337
821.000000	0.833418
822.000000	0.802319
823.000000	0.809963
824.000000	0.809831
825.000000	0.820807
826.000000	0.838092
827.000000	0.877389
828.000000	0.842980
829.000000	0.818154
830.000000	0.845418
831.000000	0.885490
832.000000	0.859529
833.000000	0.863097
834.000000	0.811723
835.000000	0.903878
836.000000	0.871072
837.000000	0.859190
838.000000	0.816546
839.000000	0.830678
840.000000	0.807351
841.000000	0.791001
842.000000	0.810240
843.000000	0.783631
844.000000	0.769004
845.000000	0.727434
846.000000	0.809737
847.000000	0.745767
848.000000	0.788580
849.000000	0.664833
850.000000	0.735955
851.000000	0.736831
852.000000	0.712364
853.000000	0.648495
854.000000	0.760836
855.000000	0.632014
856.000000	0.695322
857.000000	0.760990
858.000000	0.700299
859.000000	0.773939
860.000000	0.768837
861.000000	0.785469
862.000000	0.808744
863.000000	0.831665
864.000000	0.852502
865.000000	0.864069
866.000000	0.856224
867.000000	0.878079
868.000000	0.878064
869.000000	0.882740
870.000000	0.904191
871.000000	0.921558
872.000000	0.914510
873.000000	0.932058
874.000000	0.948228
875.000000	0.931402
876.000000	0.937968
877.000000	0.949406
878.000000	0.950501
879.000000	0.950341
880.000000	0.946594
881.000000	0.963625
882.000000	0.960411
883.000000	0.976585
884.000000	0.986302
885.000000	0.992413
886.000000	1.012637
887.000000	0.999291
888.000000	1.027985
889.000000	1.028334
890.000000	1.024604
891.000000	1.025254
892.000000	1.017288
893.000000	0.993790
894.000000	1.001927
895.000000	1.024811
896.000000	1.004364
897.000000	1.015212
898.000000	0.998710
899.000000	1.014955
900.000000	1.017831
901.000000	1.031009
902.000000	1.020220
903.000000	1.004218
904.000000	1.001473
905.000000	1.020670
906.000000	1.018259
907.000000	1.025252
908.000000	1.038637
909.000000	1.033360
910.000000	1.052664
911.000000	1.061283
912.000000	1.083919
913.000000	1.043652
914.000000	1.026638
915.000000	1.033739
916.000000	1.049572
917.000000	1.065326
918.000000	1.053765
919.000000	1.068371
920.000000	1.069425
921.000000	1.088536
922.000000	1.104366
923.000000	1.099940
924.000000	1.114520
925.000000	1.133341
926.000000	1.140966
927.000000	1.149621
928.000000	1.175285
929.000000	1.178613
930.000000	1.182315
931.000000	1.212440
932.000000	1.220941
933.000000	1.229273
934.000000	1.229829
935.000000	1.239814
936.000000	1.243800
937.000000	1.229895
938.000000	1.229313
939.000000	1.232672
940.000000	1.229958
941.000000	1.256547
942.000000	1.257283
943.000000	1.236143
944.000000	1.236299
945.000000	1.259303
946.000000	1.289499
947.000000	1.296301
948.000000	1.290878
949.000000	1.285613
950.000000	1.295678
951.000000	1.303324
952.000000	1.308671
953.000000	1.328875
954.000000	1.322391
955.000000	1.308599
956.000000	1.308846
957.000000	1.317711
958.000000	1.326404
959.000000	1.313334
960.000000	1.290616
961.000000	1.278478
962.000000	1.282945
963.000000	1.273198
964.000000	1.293824
965.000000	1.276045
966.000000	1.282343
967.000000	1.291658
968.000000	1.300113
969.000000	1.297919
970.000000	1.322458
971.000000	1.330795
972.000000	1.308965
973.000000	1.328286
974.000000	1.340883
975.000000	1.341368
976.000000	1.356480
977.000000	1.357289
978.000000	1.381989
979.000000	1.393384
980.000000	1.405758
981.000000	1.409539
982.000000	1.419905
983.000000	1.430666
984.000000	1.438725
985.000000	1.443479
986.000000	1.439876
987.000000	1.453821
988.000000	1.460025
989.000000	1.454659
990.000000	1.460703
991.000000	1.479517
992.000000	1.500729
993.000000	1.513335
994.000000	1.510980
995.000000	1.522799
996.000000	1.536504
997.000000	1.552229
998.000000	1.568609
999.000000	1.583528
1000.000000	1.603030
1001.000000	1.621423
1002.000000	1.619729
1003.000000	1.605228
1004.000000	1.611165
1005.000000	1.618326
1006.000000	1.614180
1007.000000	1.618959
1008.000000	1.624593
1009.000000	1.631647
1010.000000	1.633145
1011.000000	1.620977
1012.000000	1.611624
1013.000000	1.613314
1014.000000	1.615997
1015.000000	1.603862
1016.000000	1.604650
1017.000000	1.610704
1018.000000	1.587750
1019.000000	1.576219
1020.000000	1.571958
1021.000000	1.560414
1022.000000	1.563765
1023.000000	1.568632
1024.000000	1.552713
1025.000000	1.547602
1026.000000	1.551291
1027.000000	1.544342
1028.000000	1.543245
1029.000000	1.547363
1030.000000	1.549023
1031.000000	1.541584
1032.000000	1.538079
1033.000000	1.534688
1034.000000	1.531474
1035.000000	1.518203
1036.000000	1.511216
1037.000000	1.515477
1038.000000	1.524548
1039.000000	1.525152
1040.000000	1.521441
1041.000000	1.521499
1042.000000	1.513665
1043.000000	1.511102
1044.000000	1.510654
1045.000000	1.506392
1046.000000	1.507212
1047.000000	1.508695
1048.000000	1.515856
1049.000000	1.525303
1050.000000	1.539600
1051.000000	1.545661
1052.000000	1.562615
1053.000000	1.567458
1054.000000	1.558435
1055.000000	1.563498
1056.000000	1.575097
1057.000000	1.575046
1058.000000	1.576199
1059.000000	1.588274
1060.000000	1.597062
1061.000000	1.596084
1062.000000	1.597922
1063.000000	1.598907
1064.000000	1.602254
1065.000000	1.600825
1066.000000	1.613986
1067.000000	1.627575
1068.000000	1.634925
1069.000000	1.636969
1070.000000	1.646223
1071.000000	1.637197
1072.000000	1.632326
1073.000000	1.637862
1074.000000	1.655208
1075.000000	1.657832
1076.000000	1.648188
1077.000000	1.654031
1078.000000	1.650485
1079.000000	1.676349
1080.000000	1.685596
1081.000000	1.683015
1082.000000	1.682877
1083.000000	1.672147
1084.000000	1.674463
1085.000000	1.679893
1086.000000	1.669802
1087.000000	1.656008
1088.000000	1.656757
1089.000000	1.656883
1090.000000	1.655824
1091.000000	1.653201
1092.000000	1.660482
1093.000000	1.656293
1094.000000	1.651315
1095.000000	1.648573
1096.000000	1.646318
1097.000000	1.642385
1098.000000	1.646550
1099.000000	1.635023
1100.000000	1.626090
1101.000000	1.619992
1102.000000	1.622119
1103.000000	1.611122
1104.000000	1.604318
1105.000000	1.602636
1106.000000	1.601264
1107.000000	1.606203
1108.000000	1.604509
1109.000000	1.601916
1110.000000	1.597015
1111.000000	1.582066
1112.000000	1.582241
1113.000000	1.565076
1114.000000	1.552500
1115.000000	1.545495
1116.000000	1.547524
1117.000000	1.538515
1118.000000	1.555932
1119.000000	1.556091
1120.000000	1.547517
1121.000000	1.557122
1122.000000	1.537846
1123.000000	1.536740
1124.000000	1.534552
1125.000000	1.526464
1126.000000	1.511353
1127.000000	1.523879
1128.000000	1.517057
1129.000000	1.522407
1130.000000	1.513262
1131.000000	1.509012
1132.000000	1.496859
1133.000000	1.520977
1134.000000	1.530105
1135.000000	1.526929
1136.000000	1.484304
1137.000000	1.499097
1138.000000	1.501788
1139.000000	1.492691
1140.000000	1.499477
1141.000000	1.492355
1142.000000	1.494856
1143.000000	1.513199
1144.000000	1.505898
1145.000000	1.515954
1146.000000	1.509399
1147.000000	1.490304
1148.000000	1.505405
1149.000000	1.508827
1150.000000	1.496625
1151.000000	1.504232
1152.000000	1.508731
1153.000000	1.496823
1154.000000	1.495468
1155.000000	1.522705
1156.000000	1.530960
1157.000000	1.529569
1158.000000	1.530305
1159.000000	1.522340
1160.000000	1.502974
1161.000000	1.508529
1162.000000	1.504064
1163.000000	1.493110
1164.000000	1.502038
1165.000000	1.511098
1166.000000	1.489077
1167.000000	1.524253
1168.000000	1.518547
1169.000000	1.517756
1170.000000	1.518377
1171.000000	1.519747
1172.000000	1.507333
1173.000000	1.511367
1174.000000	1.526841
1175.000000	1.517245
1176.000000	1.528724
1177.000000	1.510246
1178.000000	1.511518
1179.000000	1.522240
1180.000000	1.511492
1181.000000	1.513853
1182.000000	1.523755
1183.000000	1.527936
1184.000000	1.535558
1185.000000	1.522178
1186.000000	1.506365
1187.000000	1.516222
1188.000000	1.514142
1189.000000	1.519352
1190.000000	1.530447
1191.000000	1.518208
1192.000000	1.513848
1193.000000	1.526238
1194.000000	1.525279
1195.000000	1.517016
1196.000000	1.527736
1197.000000	1.522488
1198.000000	1.520813
1199.000000	1.522737
1200.000000	1.527438
1201.000000	1.518309
1202.000000	1.519438
1203.000000	1.518853
1204.000000	1.529421
1205.000000	1.526880
1206.000000	1.538850
1207.000000	1.522582
1208.000000	1.513905
1209.000000	1.524443
1210.000000	1.512696
1211.000000	1.525929
1212.000000	1.515739
1213.000000	1.509784
1214.000000	1.511130
1215.000000	1.506302
1216.000000	1.503782
1217.000000	1.509296
1218.000000	1.503247
1219.000000	1.505018
1220.000000	1.511401
1221.000000	1.522553
1222.000000	1.507433
1223.000000	1.505971
1224.000000	1.499111
1225.000000	1.489227
1226.000000	1.487730
1227.000000	1.483497
1228.000000	1.487109
1229.000000	1.484793
1230.000000	1.482259
1231.000000	1.479137
1232.000000	1.472571
1233.000000	1.481861
1234.000000	1.480022
1235.000000	1.484990
1236.000000	1.479024
1237.000000	1.466408
1238.000000	1.471827
1239.000000	1.466942
1240.000000	1.469497
1241.000000	1.460535
1242.000000	1.467203
1243.000000	1.471624
1244.000000	1.474158
1245.000000	1.469520
1246.000000	1.469849
1247.000000	1.464194
1248.000000	1.462064
1249.000000	1.462097
1250.000000	1.468266
1251.000000	1.478705
1252.000000	1.472753
1253.000000	1.483445
1254.000000	1.493816
1255.000000	1.496870
1256.000000	1.481792
1257.000000	1.485414
1258.000000	1.490327
1259.000000	1.474776
1260.000000	1.484082
1261.000000	1.488886
1262.000000	1.494092
1263.000000	1.496751
1264.000000	1.483439
1265.000000	1.478499
1266.000000	1.479312
1267.000000	1.488611
1268.000000	1.498312
1269.000000	1.500109
1270.000000	1.502771
1271.000000	1.504781
1272.000000	1.500822
1273.000000	1.507358
1274.000000	1.506944
1275.000000	1.498728
1276.000000	1.499030
1277.000000	1.501839
1278.000000	1.498722
1279.000000	1.516599
1280.000000	1.520639
1281.000000	1.502124
1282.000000	1.507359
1283.000000	1.518985
1284.000000	1.521812
1285.000000	1.522614
1286.000000	1.524136
1287.000000	1.525259
1288.000000	1.524820
1289.000000	1.531351
1290.000000	1.528000
1291.000000	1.529403
1292.000000	1.530832
1293.000000	1.524959
1294.000000	1.516176
1295.000000	1.522658
1296.000000	1.526450
1297.000000	1.527456
1298.000000	1.528509
1299.000000	1.532635
1300.000000	1.536027
1301.000000	1.538844
1302.000000	1.534168
1303.000000	1.527415
1304.000000	1.531584
1305.000000	1.538377
1306.000000	1.538697
1307.000000	1.533638
1308.000000	1.528627
1309.000000	1.525575
1310.000000	1.528741
1311.000000	1.530064
1312.000000	1.523446
1313.000000	1.524313
1314.000000	1.523050
1315.000000	1.515254
1316.000000	1.511984
1317.000000	1.511468
1318.000000	1.505979
1319.000000	1.493443
1320.000000	1.500080
1321.000000	1.496454
1322.000000	1.487069
1323.000000	1.493455
1324.000000	1.493583
1325.000000	1.495411
1326.000000	1.492873
1327.000000	1.492215
1328.000000	1.491396
1329.000000	1.490894
1330.000000	1.496760
1331.000000	1.488854
1332.000000	1.473893
1333.000000	1.473335
1334.000000	1.479373
1335.000000	1.475908
1336.000000	1.472887
1337.000000	1.468998
1338.000000	1.452309
1339.000000	1.449272
1340.000000	1.450629
1341.000000	1.439631
1342.000000	1.433275
1343.000000	1.427681
1344.000000	1.415747
1345.000000	1.409475
1346.000000	1.409537
1347.000000	1.415637
1348.000000	1.414812
1349.000000	1.404840
1350.000000	1.400787
1351.000000	1.390913
1352.000000	1.383088
1353.000000	1.385165
1354.000000	1.398109
1355.000000	1.391366
1356.000000	1.374198
1357.000000	1.362512
1358.000000	1.358728
1359.000000	1.352290
1360.000000	1.382210
1361.000000	1.419376
1362.000000	1.376569
1363.000000	1.346640
1364.000000	1.369767
1365.000000	1.360856
1366.000000	1.315554
1367.000000	1.335327
1368.000000	1.332281
1369.000000	1.314869
1370.000000	1.322872
1371.000000	1.316866
1372.000000	1.275878
1373.000000	1.236294
1374.000000	1.229160
1375.000000	1.227797
1376.000000	1.195069
1377.000000	1.197681
1378.000000	1.168431
1379.000000	1.186926
1380.000000	1.191206
1381.000000	1.223705
1382.000000	1.221218
1383.000000	1.233140
1384.000000	1.193357
1385.000000	1.199661
1386.000000	1.207818
1387.000000	1.250324
1388.000000	1.263954
1389.000000	1.236677
1390.000000	1.212141
1391.000000	1.251002
1392.000000	1.252524
1393.000000	1.227801
1394.000000	1.236008
1395.000000	1.320205
1396.000000	1.280124
1397.000000	1.218604
1398.000000	1.210288
1399.000000	1.276902
1400.000000	1.325406
1401.000000	1.278238
1402.000000	1.228096
1403.000000	1.231426
1404.000000	1.288604
1405.000000	1.251541
1406.000000	1.249755
1407.000000	1.244550
1408.000000	1.246952
1409.000000	1.256096
1410.000000	1.233028
1411.000000	1.211986
1412.000000	1.229916
1413.000000	1.241420
1414.000000	1.251166
1415.000000	1.218285
1416.000000	1.208403
1417.000000	1.220509
1418.000000	1.242682
1419.000000	1.232166
1420.000000	1.230866
1421.000000	1.197703
1422.000000	1.219892
1423.000000	1.221742
1424.000000	1.238566
1425.000000	1.190576
1426.000000	1.219028
1427.000000	1.227946
1428.000000	1.236929
1429.000000	1.185354
1430.000000	1.207299
1431.000000	1.204061
1432.000000	1.193996
1433.000000	1.194767
1434.000000	1.200556
1435.000000	1.187629
1436.000000	1.194106
1437.000000	1.201699
1438.000000	1.199204
1439.000000	1.188782
1440.000000	1.210225
1441.000000	1.216732
1442.000000	1.200842
1443.000000	1.191564
1444.000000	1.221642
1445.000000	1.230822
1446.000000	1.196215
1447.000000	1.185162
1448.000000	1.185865
1449.000000	1.216774
1450.000000	1.213058
1451.000000	1.208075
1452.000000	1.193231
1453.000000	1.190354
1454.000000	1.183523
1455.000000	1.182985
1456.000000	1.184039
1457.000000	1.183111
1458.000000	1.184141
1459.000000	1.180822
1460.000000	1.175736
1461.000000	1.170956
1462.000000	1.170825
1463.000000	1.152004
1464.000000	1.167856
1465.000000	1.169393
1466.000000	1.154077
1467.000000	1.155630
1468.000000	1.157918
1469.000000	1.151904
1470.000000	1.161943
1471.000000	1.144290
1472.000000	1.155273
1473.000000	1.139487
1474.000000	1.131592
1475.000000	1.133175
1476.000000	1.143901
1477.000000	1.147578
1478.000000	1.144364
1479.000000	1.131418
1480.000000	1.136022
1481.000000	1.133072
1482.000000	1.126694
1483.000000	1.109855
1484.000000	1.101203
1485.000000	1.101567
1486.000000	1.119564
1487.000000	1.122732
1488.000000	1.114320
1489.000000	1.107456
1490.000000	1.097989
1491.000000	1.116635
1492.000000	1.104028
1493.000000	1.088927
1494.000000	1.090563
1495.000000	1.089958
1496.000000	1.089988
1497.000000	1.104600
1498.000000	1.086750
1499.000000	1.077237
1500.000000	1.069787
1501.000000	1.072085
1502.000000	1.076345
1503.000000	1.075374
1504.000000	1.071634
1505.000000	1.074356
1506.000000	1.084047
1507.000000	1.068387
1508.000000	1.076126
1509.000000	1.076348
1510.000000	1.083165
1511.000000	1.081867
1512.000000	1.072069
1513.000000	1.068198
1514.000000	1.071598
1515.000000	1.063827
1516.000000	1.060381
1517.000000	1.061560
1518.000000	1.051480
1519.000000	1.064198
1520.000000	1.072289
1521.000000	1.051826
1522.000000	1.059624
1523.000000	1.065465
1524.000000	1.068732
1525.000000	1.062114
1526.000000	1.062211
1527.000000	1.063953
1528.000000	1.059768
1529.000000	1.055881
1530.000000	1.057441
1531.000000	1.056012
1532.000000	1.055439
1533.000000	1.057212
1534.000000	1.054203
1535.000000	1.057754
1536.000000	1.054054
1537.000000	1.048848
1538.000000	1.051135
1539.000000	1.050406
1540.000000	1.063695
1541.000000	1.065358
1542.000000	1.066728
1543.000000	1.066303
1544.000000	1.049604
1545.000000	1.051386
1546.000000	1.048609
1547.000000	1.040717
1548.000000	1.038126
1549.000000	1.051509
1550.000000	1.056118
1551.000000	1.056120
1552.000000	1.061416
1553.000000	1.069420
1554.000000	1.062235
1555.000000	1.052157
1556.000000	1.061572
1557.000000	1.057984
1558.000000	1.039257
1559.000000	1.044054
1560.000000	1.052788
1561.000000	1.049395
1562.000000	1.051850
1563.000000	1.058759
1564.000000	1.061204
1565.000000	1.068338
1566.000000	1.063036
1567.000000	1.051664
1568.000000	1.061487
1569.000000	1.066946
1570.000000	1.061437
1571.000000	1.051829
1572.000000	1.035217
1573.000000	1.033407
1574.000000	1.036915
1575.000000	1.037487
1576.000000	1.040302
1577.000000	1.045234
1578.000000	1.049426
1579.000000	1.049994
1580.000000	1.054833
1581.000000	1.057526
1582.000000	1.053741
1583.000000	1.048164
1584.000000	1.051369
1585.000000	1.056725
1586.000000	1.055200
1587.000000	1.057188
1588.000000	1.056961
1589.000000	1.058632
1590.000000	1.058534
1591.000000	1.057335
1592.000000	1.061771
1593.000000	1.061992
1594.000000	1.070539
1595.000000	1.066016
1596.000000	1.064821
1597.000000	1.065302
1598.000000	1.059595
1599.000000	1.064336
1600.000000	1.064803
1601.000000	1.066240
1602.000000	1.068802
1603.000000	1.066981
1604.000000	1.064024
1605.000000	1.071786
1606.000000	1.073598
1607.000000	1.063059
1608.000000	1.063917
1609.000000	1.059563
1610.000000	1.058550
1611.000000	1.050593
1612.000000	1.043410
1613.000000	1.051600
1614.000000	1.053066
1615.000000	1.049243
1616.000000	1.055705
1617.000000	1.057566
1618.000000	1.057551
1619.000000	1.047194
1620.000000	1.047023
1621.000000	1.052727
1622.000000	1.055250
1623.000000	1.063347
1624.000000	1.079061
1625.000000	1.069236
1626.000000	1.065369
1627.000000	1.051509
1628.000000	1.058843
1629.000000	1.061573
1630.000000	1.049756
1631.000000	1.053497
1632.000000	1.053770
1633.000000	1.054744
1634.000000	1.058101
1635.000000	1.052533
1636.000000	1.049094
1637.000000	1.052319
1638.000000	1.043163
1639.000000	1.052242
1640.000000	1.052943
1641.000000	1.041428
1642.000000	1.047656
1643.000000	1.043240
1644.000000	1.039019
1645.000000	1.053658
1646.000000	1.049563
1647.000000	1.046231
1648.000000	1.048866
1649.000000	1.040356
1650.000000	1.052265
1651.000000	1.033597
1652.000000	1.039835
1653.000000	1.028366
1654.000000	1.019918
1655.000000	1.015757
1656.000000	1.004300
1657.000000	1.005493
1658.000000	1.002456
1659.000000	0.996351
1660.000000	0.990686
1661.000000	0.996073
1662.000000	0.989646
1663.000000	0.988367
1664.000000	0.967815
1665.000000	0.979588
1666.000000	0.969649
1667.000000	0.966054
1668.000000	0.977558
1669.000000	0.965953
1670.000000	0.969103
1671.000000	0.967786
1672.000000	0.949811
1673.000000	0.950137
1674.000000	0.951920
1675.000000	0.930368
1676.000000	0.912868
1677.000000	0.911282
1678.000000	0.917454
1679.000000	0.906557
1680.000000	0.901813
1681.000000	0.898481
1682.000000	0.894825
1683.000000	0.888642
1684.000000	0.893665
1685.000000	0.907517
1686.000000	0.887557
1687.000000	0.879979
1688.000000	0.897657
1689.000000	0.887004
1690.000000	0.870931
1691.000000	0.883457
1692.000000	0.876946
1693.000000	0.884447
1694.000000	0.867544
1695.000000	0.870104
1696.000000	0.876329
1697.000000	0.870499
1698.000000	0.880595
1699.000000	0.876098
1700.000000	0.874366
1701.000000	0.884627
1702.000000	0.881314
1703.000000	0.865030
1704.000000	0.869313
1705.000000	0.872096
1706.000000	0.864161
1707.000000	0.862716
1708.000000	0.866226
1709.000000	0.875401
1710.000000	0.882626
1711.000000	0.877207
1712.000000	0.868702
1713.000000	0.862419
1714.000000	0.881280
1715.000000	0.860603
1716.000000	0.872727
1717.000000	0.860649
1718.000000	0.879661
1719.000000	0.883707
1720.000000	0.865454
1721.000000	0.880829
1722.000000	0.888566
1723.000000	0.885261
1724.000000	0.877205
1725.000000	0.885097
1726.000000	0.882604
1727.000000	0.893675
1728.000000	0.895078
1729.000000	0.893846
1730.000000	0.892897
1731.000000	0.883860
1732.000000	0.884252
1733.000000	0.878475
1734.000000	0.891864
1735.000000	0.875208
1736.000000	0.874516
1737.000000	0.864068
1738.000000	0.871882
1739.000000	0.865471
1740.000000	0.863374
1741.000000	0.861840
1742.000000	0.863189
1743.000000	0.865685
1744.000000	0.857262
1745.000000	0.857792
1746.000000	0.870811
1747.000000	0.865338
1748.000000	0.867671
1749.000000	0.869702
1750.000000	0.862672
1751.000000	0.862096
1752.000000	0.867274
1753.000000	0.863044
1754.000000	0.861698
1755.000000	0.863153
1756.000000	0.874551
1757.000000	0.868420
1758.000000	0.869226
1759.000000	0.862428
1760.000000	0.881053
1761.000000	0.891598
1762.000000	0.882816
1763.000000	0.874553
1764.000000	0.881632
1765.000000	0.885223
1766.000000	0.889850
1767.000000	0.897263
1768.000000	0.878217
1769.000000	0.880013
1770.000000	0.873365
1771.000000	0.876757
1772.000000	0.878998
1773.000000	0.881659
1774.000000	0.886980
1775.000000	0.887106
1776.000000	0.881692
1777.000000	0.878396
1778.000000	0.881876
1779.000000	0.887009
1780.000000	0.881502
1781.000000	0.875740
1782.000000	0.881336
1783.000000	0.877424
1784.000000	0.887428
1785.000000	0.893895
1786.000000	0.891463
1787.000000	0.882289
1788.000000	0.881588
1789.000000	0.886412
1790.000000	0.891853
1791.000000	0.886328
1792.000000	0.885363
1793.000000	0.885922
1794.000000	0.894001
1795.000000	0.897895
1796.000000	0.896360
1797.000000	0.897255
1798.000000	0.879649
1799.000000	0.882792
1800.000000	0.896538
1801.000000	0.907449
1802.000000	0.903379
1803.000000	0.888119
1804.000000	0.881234
1805.000000	0.894497
1806.000000	0.906353
1807.000000	0.891215
1808.000000	0.868834
1809.000000	0.876425
1810.000000	0.905008
1811.000000	0.918685
1812.000000	0.904237
1813.000000	0.883083
1814.000000	0.889216
1815.000000	0.903701
1816.000000	0.896493
1817.000000	0.879888
1818.000000	0.868315
1819.000000	0.905523
1820.000000	0.951622
1821.000000	0.951289
1822.000000	0.903205
1823.000000	0.864698
1824.000000	0.868897
1825.000000	0.890016
1826.000000	0.906284
1827.000000	0.910222
1828.000000	0.912125
1829.000000	0.911678
1830.000000	0.923079
1831.000000	0.902364
1832.000000	0.872261
1833.000000	0.858004
1834.000000	0.867444
1835.000000	0.894309
1836.000000	0.905886
1837.000000	0.914574
1838.000000	0.901126
1839.000000	0.901996
1840.000000	0.935716
1841.000000	0.968140
1842.000000	0.933359
1843.000000	0.868227
1844.000000	0.832251
1845.000000	0.832935
1846.000000	0.892827
1847.000000	0.955928
1848.000000	0.959340
1849.000000	0.918606
1850.000000	0.871657
1851.000000	0.861247
1852.000000	0.887189
1853.000000	0.905515
1854.000000	0.911171
1855.000000	0.895467
1856.000000	0.859786
1857.000000	0.861578
1858.000000	0.911900
1859.000000	0.914748
1860.000000	0.896071
1861.000000	0.880044
1862.000000	0.860323
1863.000000	0.828388
1864.000000	0.822537
1865.000000	0.830887
1866.000000	0.823132
1867.000000	0.836372
1868.000000	0.834087
1869.000000	0.856816
1870.000000	0.877691
1871.000000	0.871333
1872.000000	0.873574
1873.000000	0.856617
1874.000000	0.857676
1875.000000	0.864057
1876.000000	0.846517
1877.000000	0.834520
1878.000000	0.832574
1879.000000	0.810757
1880.000000	0.792183
1881.000000	0.800881
1882.000000	0.803448
1883.000000	0.801525
1884.000000	0.803340
1885.000000	0.790535
1886.000000	0.773205
1887.000000	0.747251
1888.000000	0.746602
1889.000000	0.765865
1890.000000	0.775425
1891.000000	0.775382
1892.000000	0.782222
1893.000000	0.762610
1894.000000	0.751992
1895.000000	0.706912
1896.000000	0.690404
1897.000000	0.699214
1898.000000	0.733942
1899.000000	0.743188
1900.000000	0.719738
1901.000000	0.705281
1902.000000	0.683189
1903.000000	0.683353
1904.000000	0.697444
1905.000000	0.715909
1906.000000	0.706382
1907.000000	0.681316
1908.000000	0.658320
1909.000000	0.636452
1910.000000	0.630064
1911.000000	0.639352
1912.000000	0.650084
1913.000000	0.656840
1914.000000	0.649430
1915.000000	0.640690
1916.000000	0.630249
1917.000000	0.608071
1918.000000	0.596192
1919.000000	0.615547
1920.000000	0.612505
1921.000000	0.622999
1922.000000	0.619379
1923.000000	0.610225
1924.000000	0.583073
1925.000000	0.571571
1926.000000	0.583298
1927.000000	0.585828
1928.000000	0.590459
1929.000000	0.599280
1930.000000	0.593850
1931.000000	0.565136
1932.000000	0.570793
1933.000000	0.570233
1934.000000	0.563439
1935.000000	0.571419
1936.000000	0.568423
1937.000000	0.560244
1938.000000	0.562264
1939.000000	0.560377
1940.000000	0.569341
1941.000000	0.573000
1942.000000	0.553093
1943.000000	0.558450
1944.000000	0.564039
1945.000000	0.536740
1946.000000	0.557134
1947.000000	0.549448
1948.000000	0.550804
1949.000000	0.546672
1950.000000	0.548420
1951.000000	0.552736
1952.000000	0.551544
1953.000000	0.537296
1954.000000	0.547867
1955.000000	0.540294
1956.000000	0.540971
1957.000000	0.525874
1958.000000	0.531762
1959.000000	0.543784
1960.000000	0.531915
1961.000000	0.542362
1962.000000	0.526572
1963.000000	0.541954
1964.000000	0.534485
1965.000000	0.533111
1966.000000	0.531137
1967.000000	0.520419
1968.000000	0.540452
1969.000000	0.535724
1970.000000	0.538109
1971.000000	0.535105
1972.000000	0.518513
1973.000000	0.537047
1974.000000	0.524562
1975.000000	0.534613
1976.000000	0.531289
1977.000000	0.533764
1978.000000	0.522808
1979.000000	0.541161
1980.000000	0.541760
1981.000000	0.518067
1982.000000	0.536875
1983.000000	0.548348
1984.000000	0.552028
1985.000000	0.537232
1986.000000	0.525156
1987.000000	0.536763
1988.000000	0.538816
1989.000000	0.543485
1990.000000	0.534493
1991.000000	0.527733
1992.000000	0.534419
1993.000000	0.538934
1994.000000	0.526181
1995.000000	0.524621
1996.000000	0.529156
1997.000000	0.525353
1998.000000	0.534657
1999.000000	0.540931
2000.000000	0.524992
2001.000000	0.539298
2002.000000	0.549635
2003.000000	0.544575
2004.000000	0.552420
2005.000000	0.551457
2006.000000	0.547160
2007.000000	0.547620
2008.000000	0.539624
2009.000000	0.537259
2010.000000	0.552125
2011.000000	0.562430
2012.000000	0.549391
2013.000000	0.543069
2014.000000	0.546031
2015.000000	0.557620
2016.000000	0.545345
2017.000000	0.549110
2018.000000	0.549127
2019.000000	0.547880
2020.000000	0.542695
2021.000000	0.552446
2022.000000	0.540393
2023.000000	0.543392
2024.000000	0.552896
2025.000000	0.550373
2026.000000	0.548672
2027.000000	0.558966
2028.000000	0.551027
2029.000000	0.553357
2030.000000	0.552231
2031.000000	0.552170
2032.000000	0.559385
2033.000000	0.548068
2034.000000	0.535567
2035.000000	0.537441
2036.000000	0.527707
2037.000000	0.537400
2038.000000	0.543853
2039.000000	0.531887
2040.000000	0.532635
2041.000000	0.538643
2042.000000	0.542539
2043.000000	0.533540
2044.000000	0.525044
2045.000000	0.525221
2046.000000	0.520007
2047.000000	0.519697
2048.000000	0.517383
2049.000000	0.525249
2050.000000	0.527312
2051.000000	0.526914
2052.000000	0.525515
2053.000000	0.516018
2054.000000	0.522085
2055.000000	0.514539
2056.000000	0.499681
2057.000000	0.506228
2058.000000	0.511410
2059.000000	0.505437
2060.000000	0.503694
2061.000000	0.512155
2062.000000	0.503289
2063.000000	0.493411
2064.000000	0.497811
2065.000000	0.508199
2066.000000	0.499248
2067.000000	0.500750
2068.000000	0.500687
2069.000000	0.492376
2070.000000	0.485536
2071.000000	0.496522
2072.000000	0.502737
2073.000000	0.494802
2074.000000	0.489050
2075.000000	0.489002
2076.000000	0.490336
2077.000000	0.484864
2078.000000	0.488217
2079.000000	0.485630
2080.000000	0.485388
2081.000000	0.488333
2082.000000	0.488964
2083.000000	0.492815
2084.000000	0.491815
2085.000000	0.487477
2086.000000	0.484700
2087.000000	0.480711
2088.000000	0.480507
2089.000000	0.487498
2090.000000	0.491955
2091.000000	0.475236
2092.000000	0.471480
2093.000000	0.479431
2094.000000	0.474894
2095.000000	0.478044
2096.000000	0.480658
2097.000000	0.462365
2098.000000	0.462385
2099.000000	0.465261
2100.000000	0.463087
2101.000000	0.463272
2102.000000	0.460903
2103.000000	0.465925
2104.000000	0.470780
2105.000000	0.470730
2106.000000	0.471011
2107.000000	0.461544
2108.000000	0.452979
2109.000000	0.453452
2110.000000	0.462716
2111.000000	0.465439
2112.000000	0.456952
2113.000000	0.456627
2114.000000	0.452840
2115.000000	0.459809
2116.000000	0.464053
2117.000000	0.455416
2118.000000	0.445139
2119.000000	0.439167
2120.000000	0.443538
2121.000000	0.448745
2122.000000	0.451699
2123.000000	0.451149
2124.000000	0.440330
2125.000000	0.441828
2126.000000	0.444333
2127.000000	0.442524
2128.000000	0.439522
2129.000000	0.436878
2130.000000	0.445938
2131.000000	0.447242
2132.000000	0.446584
2133.000000	0.453389
2134.000000	0.447217
2135.000000	0.438736
2136.000000	0.440248
2137.000000	0.438854
2138.000000	0.440357
2139.000000	0.447587
2140.000000	0.445439
2141.000000	0.439751
2142.000000	0.437998
2143.000000	0.435594
2144.000000	0.426854
2145.000000	0.427389
2146.000000	0.432039
2147.000000	0.433717
2148.000000	0.429188
2149.000000	0.434899
2150.000000	0.431938
2151.000000	0.428867
2152.000000	0.445390
2153.000000	0.440442
2154.000000	0.438572
2155.000000	0.441761
2156.000000	0.444350
2157.000000	0.436752
2158.000000	0.440347
2159.000000	0.446044
2160.000000	0.446170
2161.000000	0.433998
2162.000000	0.430067
2163.000000	0.432385
2164.000000	0.444217
2165.000000	0.444647
2166.000000	0.445101
2167.000000	0.436396
2168.000000	0.424813
2169.000000	0.426763
2170.000000	0.427124
2171.000000	0.421343
2172.000000	0.430735
2173.000000	0.434510
2174.000000	0.440701
2175.000000	0.446588
2176.000000	0.441058
2177.000000	0.420425
2178.000000	0.434706
2179.000000	0.443743
2180.000000	0.437756
2181.000000	0.431150
2182.000000	0.428482
2183.000000	0.411620
2184.000000	0.421804
2185.000000	0.396449
2186.000000	0.405056
2187.000000	0.401647
2188.000000	0.403043
2189.000000	0.388847
2190.000000	0.373679
2191.000000	0.391298
2192.000000	0.358682
2193.000000	0.362843
2194.000000	0.372191
2195.000000	0.354173
2196.000000	0.331740
2197.000000	0.342262
2198.000000	0.321316
2199.000000	0.334100
2200.000000	0.324039
2201.000000	0.313634
2202.000000	0.312946
2203.000000	0.311941
2204.000000	0.306466
2205.000000	0.306539
2206.000000	0.314566
2207.000000	0.308474
2208.000000	0.302446
2209.000000	0.318074
2210.000000	0.323390
2211.000000	0.321341
2212.000000	0.323306
2213.000000	0.325085
2214.000000	0.336895
2215.000000	0.331133
2216.000000	0.328186
2217.000000	0.326607
2218.000000	0.343970
2219.000000	0.339251
2220.000000	0.341893
2221.000000	0.332918
2222.000000	0.345306
2223.000000	0.341153
2224.000000	0.341986
2225.000000	0.346853
2226.000000	0.357112
2227.000000	0.342867
2228.000000	0.343046
2229.000000	0.334955
2230.000000	0.349583
2231.000000	0.340072
2232.000000	0.341195
2233.000000	0.329446
2234.000000	0.333320
2235.000000	0.338893
2236.000000	0.330351
2237.000000	0.325976
2238.000000	0.319928
2239.000000	0.337065
2240.000000	0.315123
2241.000000	0.326131
2242.000000	0.338434
2243.000000	0.337943
2244.000000	0.332450
2245.000000	0.345447
2246.000000	0.309685
2247.000000	0.326712
2248.000000	0.333440
2249.000000	0.330436
2250.000000	0.341867
2251.000000	0.333025
2252.000000	0.328031
2253.000000	0.332820
2254.000000	0.346196
2255.000000	0.321196
2256.000000	0.341254
2257.000000	0.347188
2258.000000	0.342894
2259.000000	0.339359
2260.000000	0.338524
2261.000000	0.339922
2262.000000	0.345089
2263.000000	0.341615
2264.000000	0.340515
2265.000000	0.342608
2266.000000	0.344375
2267.000000	0.353948
2268.000000	0.351871
2269.000000	0.346624
2270.000000	0.361328
2271.000000	0.355543
2272.000000	0.377102
2273.000000	0.351562
2274.000000	0.352883
2275.000000	0.372383
2276.000000	0.363250
2277.000000	0.371444
2278.000000	0.362438
2279.000000	0.373731
2280.000000	0.359488
2281.000000	0.379949
2282.000000	0.385221
2283.000000	0.381986
2284.000000	0.384864
2285.000000	0.385845
2286.000000	0.389176
2287.000000	0.381818
2288.000000	0.384117
2289.000000	0.382572
2290.000000	0.388486
2291.000000	0.386705
2292.000000	0.388321
2293.000000	0.391982
2294.000000	0.395850
2295.000000	0.406130
2296.000000	0.407759
2297.000000	0.403342
2298.000000	0.405372
2299.000000	0.400691
2300.000000	0.412307
2301.000000	0.410270
2302.000000	0.419932
2303.000000	0.424469
2304.000000	0.413005
2305.000000	0.411693
2306.000000	0.411915
2307.000000	0.414801
2308.000000	0.424142
2309.000000	0.425538
2310.000000	0.436516
2311.000000	0.438650
2312.000000	0.427083
2313.000000	0.428302
2314.000000	0.432890
2315.000000	0.431389
2316.000000	0.427374
2317.000000	0.429154
2318.000000	0.437474
2319.000000	0.433880
2320.000000	0.430774
2321.000000	0.431290
2322.000000	0.432805
2323.000000	0.427107
2324.000000	0.422700
2325.000000	0.429379
2326.000000	0.432465
2327.000000	0.440286
2328.000000	0.437646
2329.000000	0.431468
2330.000000	0.438765
2331.000000	0.441666
2332.000000	0.446424
2333.000000	0.435645
2334.000000	0.436180
2335.000000	0.447728
2336.000000	0.451912
2337.000000	0.449714
2338.000000	0.444057
2339.000000	0.442202
2340.000000	0.441996
2341.000000	0.447576
2342.000000	0.453686
2343.000000	0.450492
2344.000000	0.443094
2345.000000	0.448078
2346.000000	0.462812
2347.000000	0.453806
2348.000000	0.448036
2349.000000	0.449813
2350.000000	0.453444
2351.000000	0.452057
2352.000000	0.441426
2353.000000	0.447127
2354.000000	0.450084
2355.000000	0.455598
2356.000000	0.460380
2357.000000	0.457074
2358.000000	0.453335
2359.000000	0.451005
2360.000000	0.451178
2361.000000	0.447999
2362.000000	0.449970
2363.000000	0.457712
2364.000000	0.457527
2365.000000	0.463909
2366.000000	0.467958
2367.000000	0.461190
2368.000000	0.455925
2369.000000	0.460673
2370.000000	0.458625
2371.000000	0.447724
2372.000000	0.452326
2373.000000	0.459040
2374.000000	0.454733
2375.000000	0.453488
2376.000000	0.462689
2377.000000	0.457871
2378.000000	0.451295
2379.000000	0.458317
2380.000000	0.446453
2381.000000	0.438733
2382.000000	0.447347
2383.000000	0.455021
2384.000000	0.453653
2385.000000	0.446635
2386.000000	0.446311
2387.000000	0.440232
2388.000000	0.441998
2389.000000	0.455584
2390.000000	0.463438
2391.000000	0.453302
2392.000000	0.441816
2393.000000	0.447828
2394.000000	0.454000
2395.000000	0.448788
2396.000000	0.439228
2397.000000	0.448812
2398.000000	0.447557
2399.000000	0.444639
2400.000000	0.432219
2401.000000	0.431343
2402.000000	0.425322
2403.000000	0.431127
2404.000000	0.441758
2405.000000	0.433326
2406.000000	0.430829
2407.000000	0.431774
2408.000000	0.431150
2409.000000	0.430096
2410.000000	0.428214
2411.000000	0.419609
2412.000000	0.422322
2413.000000	0.424596
2414.000000	0.427272
2415.000000	0.424827
2416.000000	0.418346
2417.000000	0.421353
2418.000000	0.412390
2419.000000	0.405856
2420.000000	0.410216
2421.000000	0.413529
2422.000000	0.403723
2423.000000	0.401695
2424.000000	0.394438
2425.000000	0.400046
2426.000000	0.399073
2427.000000	0.400366
2428.000000	0.401784
2429.000000	0.389783
2430.000000	0.385866
2431.000000	0.375269
2432.000000	0.377022
2433.000000	0.386713
2434.000000	0.386562
2435.000000	0.377590
2436.000000	0.367832
2437.000000	0.359847
2438.000000	0.366254
2439.000000	0.381700
2440.000000	0.377967
2441.000000	0.369867
2442.000000	0.372909
2443.000000	0.363107
2444.000000	0.362638
2445.000000	0.354490
2446.000000	0.361298
2447.000000	0.362234
2448.000000	0.366843
2449.000000	0.367637
2450.000000	0.367873
2451.000000	0.354662
2452.000000	0.353091
2453.000000	0.349239
2454.000000	0.348867
2455.000000	0.333002
2456.000000	0.353581
2457.000000	0.360182
2458.000000	0.332180
2459.000000	0.347037
2460.000000	0.326758
2461.000000	0.336189
2462.000000	0.314245
2463.000000	0.323070
2464.000000	0.334372
2465.000000	0.312538
2466.000000	0.312049
2467.000000	0.333030
2468.000000	0.316661
2469.000000	0.330215
2470.000000	0.324720
2471.000000	0.337023
2472.000000	0.354197
2473.000000	0.334473
2474.000000	0.307700
2475.000000	0.313929
2476.000000	0.323719
2477.000000	0.317776
2478.000000	0.286324
2479.000000	0.314344
2480.000000	0.331674
2481.000000	0.319036
2482.000000	0.314094
2483.000000	0.335845
2484.000000	0.295448
2485.000000	0.331436
2486.000000	0.336599
2487.000000	0.321379
2488.000000	0.288692
2489.000000	0.301886
2490.000000	0.356893
2491.000000	0.309168
2492.000000	0.220838
2493.000000	0.276956
2494.000000	0.308828
2495.000000	0.326711
2496.000000	0.343365
2497.000000	0.330701
2498.000000	0.285295
2499.000000	0.369850
2500.000000	0.312812
