PE UV       SUBTECH     SPECTRUM    ASCII       PEDS        4.00        
   -1
CICIMAUCR0225-3.Sample.ASC
24/05/27
16:32:59.00
24/05/27
16:32:59.00
Vinicio Soto Monge
C. resplendens, F
250,000000
1
Lambda 1050
1050L1511233
PerkinElmer UV WinLab 6.3.2.0749 / 2.02.05 Lambda 900 UV/VIS/NIR, Aug  7 2015 09:38:08

0
0
3350/servo 860,8/2
0
0
UV/VIS
1
1
1
DoubleDePol,CommonBeamDepol,RBeamAtt,SBeamAtt,60mm sphere, WB InGaAs Detector
0
0
0
0
Program
Program
3350/servo 860,8/2
3350/0,2 860,8/0,2
3350/0,2 860,8/0,2
0
15.00
 
 
 
0
 
860,8
319,2
860,8
Front
100
on
S:100 R:100
0
0
0
0
 
0
 
 
 
0
 
 
0
0
0
0
0
 
 
 
 
0
0


0
0
#HDR
-1
-1
#GR
nm
%R
1.0
0.0
2500,000000
-1,000000
2251
8
72,869500
5,660100
#DATA
250.000000	0.265672
251.000000	0.281253
252.000000	0.281358
253.000000	0.259954
254.000000	0.269448
255.000000	0.252893
256.000000	0.260347
257.000000	0.238200
258.000000	0.225106
259.000000	0.243475
260.000000	0.259060
261.000000	0.247256
262.000000	0.261461
263.000000	0.264668
264.000000	0.267913
265.000000	0.248554
266.000000	0.244823
267.000000	0.216888
268.000000	0.202399
269.000000	0.217629
270.000000	0.200891
271.000000	0.203115
272.000000	0.208921
273.000000	0.180523
274.000000	0.191951
275.000000	0.206164
276.000000	0.211423
277.000000	0.206433
278.000000	0.174606
279.000000	0.216395
280.000000	0.201370
281.000000	0.186577
282.000000	0.212240
283.000000	0.202492
284.000000	0.226021
285.000000	0.198294
286.000000	0.183754
287.000000	0.213451
288.000000	0.193604
289.000000	0.195048
290.000000	0.191711
291.000000	0.177089
292.000000	0.171989
293.000000	0.180862
294.000000	0.174956
295.000000	0.198766
296.000000	0.194821
297.000000	0.171494
298.000000	0.145124
299.000000	0.156866
300.000000	0.147752
301.000000	0.154845
302.000000	0.167161
303.000000	0.176810
304.000000	0.150526
305.000000	0.135572
306.000000	0.159501
307.000000	0.165931
308.000000	0.158825
309.000000	0.175371
310.000000	0.173986
311.000000	0.161745
312.000000	0.149810
313.000000	0.156424
314.000000	0.175698
315.000000	0.150476
316.000000	0.341762
317.000000	0.710055
318.000000	0.818035
319.000000	0.858698
320.000000	0.661981
321.000000	0.630550
322.000000	0.998298
323.000000	0.496251
324.000000	0.629004
325.000000	0.532952
326.000000	0.300358
327.000000	0.225972
328.000000	0.218670
329.000000	0.252423
330.000000	0.491916
331.000000	0.609519
332.000000	0.420825
333.000000	0.310566
334.000000	0.316801
335.000000	0.165819
336.000000	0.318373
337.000000	0.312857
338.000000	0.258776
339.000000	0.369073
340.000000	0.369290
341.000000	0.364475
342.000000	0.343765
343.000000	0.271972
344.000000	0.280605
345.000000	0.346836
346.000000	0.379317
347.000000	0.301796
348.000000	0.243116
349.000000	0.158954
350.000000	0.158499
351.000000	0.214958
352.000000	0.249501
353.000000	0.299850
354.000000	0.217192
355.000000	0.173589
356.000000	0.209728
357.000000	0.269006
358.000000	0.241916
359.000000	0.234102
360.000000	0.272549
361.000000	0.212889
362.000000	0.273816
363.000000	0.229367
364.000000	0.187331
365.000000	0.139493
366.000000	0.116067
367.000000	0.166897
368.000000	0.179846
369.000000	0.125322
370.000000	0.031960
371.000000	0.128497
372.000000	0.155130
373.000000	0.231299
374.000000	0.120220
375.000000	0.115496
376.000000	0.182201
377.000000	0.183541
378.000000	0.179730
379.000000	0.173975
380.000000	0.172438
381.000000	0.167580
382.000000	0.177511
383.000000	0.178786
384.000000	0.162481
385.000000	0.162286
386.000000	0.152916
387.000000	0.124238
388.000000	0.123211
389.000000	0.125603
390.000000	0.124875
391.000000	0.124097
392.000000	0.119343
393.000000	0.107919
394.000000	0.112499
395.000000	0.127016
396.000000	0.117933
397.000000	0.124673
398.000000	0.142957
399.000000	0.146882
400.000000	0.154103
401.000000	0.156615
402.000000	0.172788
403.000000	0.196152
404.000000	0.202492
405.000000	0.218721
406.000000	0.242231
407.000000	0.253666
408.000000	0.273990
409.000000	0.297759
410.000000	0.320082
411.000000	0.341364
412.000000	0.371943
413.000000	0.404089
414.000000	0.448406
415.000000	0.475181
416.000000	0.519221
417.000000	0.554019
418.000000	0.584794
419.000000	0.620192
420.000000	0.673436
421.000000	0.703704
422.000000	0.762487
423.000000	0.799920
424.000000	0.843398
425.000000	0.886385
426.000000	0.955232
427.000000	0.990842
428.000000	1.035087
429.000000	1.105116
430.000000	1.175029
431.000000	1.230055
432.000000	1.287894
433.000000	1.334428
434.000000	1.392222
435.000000	1.466847
436.000000	1.524121
437.000000	1.556611
438.000000	1.603492
439.000000	1.660803
440.000000	1.721406
441.000000	1.763862
442.000000	1.817409
443.000000	1.823511
444.000000	1.870064
445.000000	1.898912
446.000000	1.901740
447.000000	1.905119
448.000000	1.904975
449.000000	1.878351
450.000000	1.885115
451.000000	1.865481
452.000000	1.815855
453.000000	1.772986
454.000000	1.733195
455.000000	1.673635
456.000000	1.587125
457.000000	1.543323
458.000000	1.489625
459.000000	1.414383
460.000000	1.330993
461.000000	1.290052
462.000000	1.221574
463.000000	1.160670
464.000000	1.078754
465.000000	0.997247
466.000000	0.946426
467.000000	0.881246
468.000000	0.814101
469.000000	0.751563
470.000000	0.698689
471.000000	0.607357
472.000000	0.532901
473.000000	0.453713
474.000000	0.384864
475.000000	0.303790
476.000000	0.237207
477.000000	0.198304
478.000000	0.219648
479.000000	0.279588
480.000000	0.385339
481.000000	0.518330
482.000000	0.658538
483.000000	0.766223
484.000000	0.883129
485.000000	0.979851
486.000000	1.068941
487.000000	1.168536
488.000000	1.247636
489.000000	1.278800
490.000000	1.322214
491.000000	1.354757
492.000000	1.373365
493.000000	1.372547
494.000000	1.344631
495.000000	1.328236
496.000000	1.285938
497.000000	1.223603
498.000000	1.184339
499.000000	1.103761
500.000000	1.022377
501.000000	0.945756
502.000000	0.920858
503.000000	0.883488
504.000000	0.880387
505.000000	0.893060
506.000000	0.958831
507.000000	0.999566
508.000000	1.115775
509.000000	1.234835
510.000000	1.339479
511.000000	1.476273
512.000000	1.607018
513.000000	1.719628
514.000000	1.848442
515.000000	1.968496
516.000000	2.064925
517.000000	2.154774
518.000000	2.238895
519.000000	2.305643
520.000000	2.376968
521.000000	2.422454
522.000000	2.435760
523.000000	2.464705
524.000000	2.484496
525.000000	2.470165
526.000000	2.453028
527.000000	2.453378
528.000000	2.418574
529.000000	2.374487
530.000000	2.328506
531.000000	2.270656
532.000000	2.200212
533.000000	2.150908
534.000000	2.062208
535.000000	1.976810
536.000000	1.865700
537.000000	1.757767
538.000000	1.642811
539.000000	1.513822
540.000000	1.368197
541.000000	1.235063
542.000000	1.102220
543.000000	0.963470
544.000000	0.841261
545.000000	0.730200
546.000000	0.585639
547.000000	0.462553
548.000000	0.369385
549.000000	0.267335
550.000000	0.189242
551.000000	0.144536
552.000000	0.178903
553.000000	0.240009
554.000000	0.310358
555.000000	0.419143
556.000000	0.476529
557.000000	0.563755
558.000000	0.637603
559.000000	0.719405
560.000000	0.824306
561.000000	0.924151
562.000000	1.017499
563.000000	1.151998
564.000000	1.255273
565.000000	1.321438
566.000000	1.454705
567.000000	1.570300
568.000000	1.696678
569.000000	1.810628
570.000000	1.914970
571.000000	2.013932
572.000000	2.115562
573.000000	2.217896
574.000000	2.320902
575.000000	2.410489
576.000000	2.476411
577.000000	2.561435
578.000000	2.638360
579.000000	2.698393
580.000000	2.754967
581.000000	2.828925
582.000000	2.881466
583.000000	2.931801
584.000000	2.992997
585.000000	3.078903
586.000000	3.119687
587.000000	3.168306
588.000000	3.272160
589.000000	3.346191
590.000000	3.389141
591.000000	3.465729
592.000000	3.553683
593.000000	3.618288
594.000000	3.669781
595.000000	3.743645
596.000000	3.798804
597.000000	3.855293
598.000000	3.902879
599.000000	3.939033
600.000000	3.982459
601.000000	4.009593
602.000000	4.031861
603.000000	4.037593
604.000000	4.047997
605.000000	4.083188
606.000000	4.091580
607.000000	4.103744
608.000000	4.144404
609.000000	4.182201
610.000000	4.202629
611.000000	4.204522
612.000000	4.263097
613.000000	4.303229
614.000000	4.327542
615.000000	4.319121
616.000000	4.342184
617.000000	4.358789
618.000000	4.360241
619.000000	4.355847
620.000000	4.339342
621.000000	4.318830
622.000000	4.262032
623.000000	4.189980
624.000000	4.139882
625.000000	4.102972
626.000000	4.074529
627.000000	4.013985
628.000000	3.976735
629.000000	3.963286
630.000000	3.946716
631.000000	3.965368
632.000000	3.968082
633.000000	3.972116
634.000000	3.989359
635.000000	3.984329
636.000000	3.964808
637.000000	3.938664
638.000000	3.900111
639.000000	3.860921
640.000000	3.790831
641.000000	3.690523
642.000000	3.599717
643.000000	3.451681
644.000000	3.291312
645.000000	3.152137
646.000000	2.996580
647.000000	2.853460
648.000000	2.691893
649.000000	2.521047
650.000000	2.391013
651.000000	2.264087
652.000000	2.135402
653.000000	2.033422
654.000000	1.953169
655.000000	1.873906
656.000000	1.814387
657.000000	1.748960
658.000000	1.670399
659.000000	1.629860
660.000000	1.578721
661.000000	1.495579
662.000000	1.428257
663.000000	1.376697
664.000000	1.295090
665.000000	1.200485
666.000000	1.150286
667.000000	1.084414
668.000000	0.997841
669.000000	0.936054
670.000000	0.868287
671.000000	0.813602
672.000000	0.790380
673.000000	0.767517
674.000000	0.738331
675.000000	0.734206
676.000000	0.738749
677.000000	0.762820
678.000000	0.829624
679.000000	0.887287
680.000000	0.928533
681.000000	1.012273
682.000000	1.099229
683.000000	1.149159
684.000000	1.190630
685.000000	1.235367
686.000000	1.297678
687.000000	1.342331
688.000000	1.354609
689.000000	1.395215
690.000000	1.412585
691.000000	1.400807
692.000000	1.414305
693.000000	1.441589
694.000000	1.438169
695.000000	1.382240
696.000000	1.387007
697.000000	1.389612
698.000000	1.428795
699.000000	1.448320
700.000000	1.460629
701.000000	1.507262
702.000000	1.515601
703.000000	1.519964
704.000000	1.585539
705.000000	1.622207
706.000000	1.643539
707.000000	1.633341
708.000000	1.658673
709.000000	1.671745
710.000000	1.678006
711.000000	1.672518
712.000000	1.676342
713.000000	1.625173
714.000000	1.597606
715.000000	1.584562
716.000000	1.557786
717.000000	1.572675
718.000000	1.574956
719.000000	1.610342
720.000000	1.608745
721.000000	1.634318
722.000000	1.640442
723.000000	1.746055
724.000000	1.705538
725.000000	1.759503
726.000000	1.788882
727.000000	1.818832
728.000000	1.810186
729.000000	1.802923
730.000000	1.821673
731.000000	1.846783
732.000000	1.790638
733.000000	1.719253
734.000000	1.742206
735.000000	1.698933
736.000000	1.626704
737.000000	1.622061
738.000000	1.587526
739.000000	1.542121
740.000000	1.479493
741.000000	1.511578
742.000000	1.504914
743.000000	1.508013
744.000000	1.541035
745.000000	1.537747
746.000000	1.543071
747.000000	1.607870
748.000000	1.591279
749.000000	1.623143
750.000000	1.566643
751.000000	1.716878
752.000000	1.681628
753.000000	1.635002
754.000000	1.573571
755.000000	1.521911
756.000000	1.573003
757.000000	1.501209
758.000000	1.468392
759.000000	1.451328
760.000000	1.547291
761.000000	1.531311
762.000000	1.561006
763.000000	1.599382
764.000000	1.653369
765.000000	1.567146
766.000000	1.443899
767.000000	1.399283
768.000000	1.594999
769.000000	1.696262
770.000000	1.670653
771.000000	1.712150
772.000000	1.745432
773.000000	1.675493
774.000000	1.772736
775.000000	1.745304
776.000000	1.710958
777.000000	1.726236
778.000000	1.775921
779.000000	1.819769
780.000000	1.776426
781.000000	1.838065
782.000000	1.874557
783.000000	1.971025
784.000000	2.015954
785.000000	2.010671
786.000000	2.108885
787.000000	2.132865
788.000000	2.235089
789.000000	2.165013
790.000000	2.361757
791.000000	2.303688
792.000000	2.340367
793.000000	2.409169
794.000000	2.296550
795.000000	2.297677
796.000000	2.289133
797.000000	2.308100
798.000000	2.512544
799.000000	2.516846
800.000000	2.560105
801.000000	2.606748
802.000000	2.556167
803.000000	2.596919
804.000000	2.797882
805.000000	2.826068
806.000000	2.880268
807.000000	2.911125
808.000000	2.935854
809.000000	3.145708
810.000000	3.224454
811.000000	3.298815
812.000000	3.287262
813.000000	3.415403
814.000000	3.476670
815.000000	3.573922
816.000000	3.585598
817.000000	3.702570
818.000000	3.805352
819.000000	3.844440
820.000000	3.873395
821.000000	4.026066
822.000000	4.005651
823.000000	4.094254
824.000000	4.084254
825.000000	4.299555
826.000000	4.031332
827.000000	4.028924
828.000000	4.111763
829.000000	4.120406
830.000000	4.219849
831.000000	4.132982
832.000000	4.176723
833.000000	3.970793
834.000000	3.978135
835.000000	4.008223
836.000000	3.848310
837.000000	3.810445
838.000000	3.801525
839.000000	3.882838
840.000000	3.835080
841.000000	3.744998
842.000000	3.988557
843.000000	3.757067
844.000000	3.555499
845.000000	3.611167
846.000000	3.350148
847.000000	3.505652
848.000000	3.091487
849.000000	3.264731
850.000000	3.399997
851.000000	3.102265
852.000000	3.420174
853.000000	3.322891
854.000000	3.138690
855.000000	2.898602
856.000000	3.198269
857.000000	3.765165
858.000000	3.285546
859.000000	3.282230
860.000000	3.261797
861.000000	3.237087
862.000000	3.231835
863.000000	3.220175
864.000000	3.184632
865.000000	3.186264
866.000000	3.161740
867.000000	3.162821
868.000000	3.137862
869.000000	3.101904
870.000000	3.114914
871.000000	3.133585
872.000000	3.131276
873.000000	3.084667
874.000000	3.012833
875.000000	2.935728
876.000000	2.914074
877.000000	2.873723
878.000000	2.821129
879.000000	2.763222
880.000000	2.741537
881.000000	2.692527
882.000000	2.681735
883.000000	2.644762
884.000000	2.611008
885.000000	2.572805
886.000000	2.534081
887.000000	2.495430
888.000000	2.486163
889.000000	2.461542
890.000000	2.439637
891.000000	2.393059
892.000000	2.369305
893.000000	2.344087
894.000000	2.308128
895.000000	2.277328
896.000000	2.239618
897.000000	2.212847
898.000000	2.189029
899.000000	2.152551
900.000000	2.122527
901.000000	2.101687
902.000000	2.081449
903.000000	2.070705
904.000000	2.064135
905.000000	2.057484
906.000000	2.048482
907.000000	2.040645
908.000000	2.043050
909.000000	2.044737
910.000000	2.045766
911.000000	2.045340
912.000000	2.033878
913.000000	2.027763
914.000000	2.023514
915.000000	2.022507
916.000000	2.005806
917.000000	1.993124
918.000000	1.985947
919.000000	1.970084
920.000000	1.959999
921.000000	1.952349
922.000000	1.926661
923.000000	1.901759
924.000000	1.897475
925.000000	1.906626
926.000000	1.895466
927.000000	1.884827
928.000000	1.882180
929.000000	1.873209
930.000000	1.871903
931.000000	1.852838
932.000000	1.837075
933.000000	1.830071
934.000000	1.820978
935.000000	1.806183
936.000000	1.791330
937.000000	1.775018
938.000000	1.754419
939.000000	1.740951
940.000000	1.720505
941.000000	1.691003
942.000000	1.677883
943.000000	1.674125
944.000000	1.659846
945.000000	1.642873
946.000000	1.642577
947.000000	1.641233
948.000000	1.620879
949.000000	1.624488
950.000000	1.625342
951.000000	1.608114
952.000000	1.606162
953.000000	1.600844
954.000000	1.579083
955.000000	1.571529
956.000000	1.572230
957.000000	1.551321
958.000000	1.529942
959.000000	1.511096
960.000000	1.492169
961.000000	1.471366
962.000000	1.450239
963.000000	1.437690
964.000000	1.428403
965.000000	1.420851
966.000000	1.411969
967.000000	1.391484
968.000000	1.384471
969.000000	1.368999
970.000000	1.352284
971.000000	1.344552
972.000000	1.344213
973.000000	1.340616
974.000000	1.331812
975.000000	1.325101
976.000000	1.310406
977.000000	1.311043
978.000000	1.307857
979.000000	1.293206
980.000000	1.281230
981.000000	1.271921
982.000000	1.258317
983.000000	1.251551
984.000000	1.244592
985.000000	1.230196
986.000000	1.226069
987.000000	1.218329
988.000000	1.214728
989.000000	1.217910
990.000000	1.215375
991.000000	1.212227
992.000000	1.215060
993.000000	1.211330
994.000000	1.224361
995.000000	1.225868
996.000000	1.212260
997.000000	1.219327
998.000000	1.211487
999.000000	1.201685
1000.000000	1.205893
1001.000000	1.209322
1002.000000	1.208498
1003.000000	1.201284
1004.000000	1.196662
1005.000000	1.205375
1006.000000	1.196029
1007.000000	1.187672
1008.000000	1.189912
1009.000000	1.185756
1010.000000	1.179905
1011.000000	1.190723
1012.000000	1.185336
1013.000000	1.179028
1014.000000	1.183221
1015.000000	1.190451
1016.000000	1.202530
1017.000000	1.203163
1018.000000	1.198943
1019.000000	1.200745
1020.000000	1.209324
1021.000000	1.210798
1022.000000	1.223318
1023.000000	1.218577
1024.000000	1.214625
1025.000000	1.212759
1026.000000	1.219913
1027.000000	1.203200
1028.000000	1.207733
1029.000000	1.221783
1030.000000	1.220624
1031.000000	1.216358
1032.000000	1.215304
1033.000000	1.208489
1034.000000	1.211312
1035.000000	1.213468
1036.000000	1.205079
1037.000000	1.211352
1038.000000	1.204736
1039.000000	1.219263
1040.000000	1.217630
1041.000000	1.227532
1042.000000	1.216884
1043.000000	1.218609
1044.000000	1.221083
1045.000000	1.209613
1046.000000	1.217258
1047.000000	1.220438
1048.000000	1.217673
1049.000000	1.204337
1050.000000	1.198788
1051.000000	1.216509
1052.000000	1.212396
1053.000000	1.209298
1054.000000	1.206753
1055.000000	1.208490
1056.000000	1.203392
1057.000000	1.202086
1058.000000	1.202248
1059.000000	1.214498
1060.000000	1.217471
1061.000000	1.205185
1062.000000	1.206090
1063.000000	1.201762
1064.000000	1.206570
1065.000000	1.201850
1066.000000	1.198362
1067.000000	1.199929
1068.000000	1.184556
1069.000000	1.185274
1070.000000	1.187139
1071.000000	1.183455
1072.000000	1.194129
1073.000000	1.181089
1074.000000	1.184653
1075.000000	1.187186
1076.000000	1.176244
1077.000000	1.182393
1078.000000	1.189763
1079.000000	1.177389
1080.000000	1.178812
1081.000000	1.191916
1082.000000	1.192227
1083.000000	1.193958
1084.000000	1.201116
1085.000000	1.187447
1086.000000	1.170021
1087.000000	1.198674
1088.000000	1.191994
1089.000000	1.188615
1090.000000	1.186490
1091.000000	1.201684
1092.000000	1.187359
1093.000000	1.196329
1094.000000	1.191404
1095.000000	1.196414
1096.000000	1.182555
1097.000000	1.184130
1098.000000	1.176048
1099.000000	1.182524
1100.000000	1.180553
1101.000000	1.178487
1102.000000	1.174397
1103.000000	1.160208
1104.000000	1.157788
1105.000000	1.155583
1106.000000	1.158429
1107.000000	1.143049
1108.000000	1.132553
1109.000000	1.127045
1110.000000	1.127020
1111.000000	1.114913
1112.000000	1.119684
1113.000000	1.110777
1114.000000	1.103333
1115.000000	1.087468
1116.000000	1.074805
1117.000000	1.067859
1118.000000	1.054390
1119.000000	1.061573
1120.000000	1.032979
1121.000000	1.028586
1122.000000	1.005784
1123.000000	1.000561
1124.000000	0.981650
1125.000000	0.958239
1126.000000	0.948494
1127.000000	0.920464
1128.000000	0.884579
1129.000000	0.868931
1130.000000	0.824266
1131.000000	0.775104
1132.000000	0.735680
1133.000000	0.706027
1134.000000	0.680162
1135.000000	0.649646
1136.000000	0.605294
1137.000000	0.556021
1138.000000	0.535336
1139.000000	0.512947
1140.000000	0.463833
1141.000000	0.441892
1142.000000	0.419095
1143.000000	0.394264
1144.000000	0.381335
1145.000000	0.369239
1146.000000	0.361178
1147.000000	0.359782
1148.000000	0.360144
1149.000000	0.353690
1150.000000	0.334665
1151.000000	0.328023
1152.000000	0.309344
1153.000000	0.289327
1154.000000	0.281600
1155.000000	0.268188
1156.000000	0.257097
1157.000000	0.234419
1158.000000	0.233417
1159.000000	0.240498
1160.000000	0.236246
1161.000000	0.236754
1162.000000	0.259190
1163.000000	0.272966
1164.000000	0.282642
1165.000000	0.318058
1166.000000	0.344516
1167.000000	0.361030
1168.000000	0.368498
1169.000000	0.394728
1170.000000	0.424718
1171.000000	0.453587
1172.000000	0.482085
1173.000000	0.496787
1174.000000	0.511310
1175.000000	0.539152
1176.000000	0.570696
1177.000000	0.602128
1178.000000	0.627810
1179.000000	0.660754
1180.000000	0.696606
1181.000000	0.736430
1182.000000	0.771914
1183.000000	0.803482
1184.000000	0.809090
1185.000000	0.809135
1186.000000	0.818640
1187.000000	0.803554
1188.000000	0.791204
1189.000000	0.776001
1190.000000	0.745325
1191.000000	0.713236
1192.000000	0.688890
1193.000000	0.673904
1194.000000	0.659061
1195.000000	0.647763
1196.000000	0.645254
1197.000000	0.626939
1198.000000	0.615737
1199.000000	0.616368
1200.000000	0.614729
1201.000000	0.624593
1202.000000	0.623647
1203.000000	0.616713
1204.000000	0.616700
1205.000000	0.611166
1206.000000	0.610016
1207.000000	0.611739
1208.000000	0.613960
1209.000000	0.610686
1210.000000	0.598283
1211.000000	0.588191
1212.000000	0.580429
1213.000000	0.576436
1214.000000	0.571977
1215.000000	0.562084
1216.000000	0.560133
1217.000000	0.557385
1218.000000	0.552831
1219.000000	0.544714
1220.000000	0.530983
1221.000000	0.523307
1222.000000	0.525464
1223.000000	0.525690
1224.000000	0.513848
1225.000000	0.501578
1226.000000	0.493495
1227.000000	0.485501
1228.000000	0.480551
1229.000000	0.461988
1230.000000	0.448914
1231.000000	0.438810
1232.000000	0.432013
1233.000000	0.428514
1234.000000	0.417364
1235.000000	0.407524
1236.000000	0.392394
1237.000000	0.390997
1238.000000	0.395259
1239.000000	0.388888
1240.000000	0.381098
1241.000000	0.371142
1242.000000	0.370016
1243.000000	0.363109
1244.000000	0.358666
1245.000000	0.350192
1246.000000	0.343183
1247.000000	0.346921
1248.000000	0.353318
1249.000000	0.359966
1250.000000	0.351558
1251.000000	0.332353
1252.000000	0.334723
1253.000000	0.338645
1254.000000	0.335100
1255.000000	0.341808
1256.000000	0.342655
1257.000000	0.334835
1258.000000	0.327259
1259.000000	0.328793
1260.000000	0.332714
1261.000000	0.336158
1262.000000	0.339343
1263.000000	0.338446
1264.000000	0.335811
1265.000000	0.340428
1266.000000	0.348999
1267.000000	0.349200
1268.000000	0.337580
1269.000000	0.344446
1270.000000	0.346011
1271.000000	0.350267
1272.000000	0.363264
1273.000000	0.365858
1274.000000	0.362544
1275.000000	0.360491
1276.000000	0.359613
1277.000000	0.360964
1278.000000	0.375263
1279.000000	0.371714
1280.000000	0.371599
1281.000000	0.377439
1282.000000	0.391429
1283.000000	0.390589
1284.000000	0.397770
1285.000000	0.406737
1286.000000	0.401832
1287.000000	0.397033
1288.000000	0.402052
1289.000000	0.411855
1290.000000	0.409214
1291.000000	0.409488
1292.000000	0.422127
1293.000000	0.422156
1294.000000	0.428211
1295.000000	0.424610
1296.000000	0.419455
1297.000000	0.417878
1298.000000	0.419320
1299.000000	0.427862
1300.000000	0.431602
1301.000000	0.431495
1302.000000	0.428585
1303.000000	0.423972
1304.000000	0.434313
1305.000000	0.435614
1306.000000	0.426480
1307.000000	0.426147
1308.000000	0.427220
1309.000000	0.432394
1310.000000	0.430872
1311.000000	0.418966
1312.000000	0.419781
1313.000000	0.426436
1314.000000	0.434253
1315.000000	0.434809
1316.000000	0.439397
1317.000000	0.435133
1318.000000	0.436941
1319.000000	0.445718
1320.000000	0.448418
1321.000000	0.465278
1322.000000	0.454042
1323.000000	0.456376
1324.000000	0.467724
1325.000000	0.471840
1326.000000	0.480698
1327.000000	0.491446
1328.000000	0.492139
1329.000000	0.504650
1330.000000	0.511382
1331.000000	0.521421
1332.000000	0.540892
1333.000000	0.550203
1334.000000	0.551383
1335.000000	0.574928
1336.000000	0.583579
1337.000000	0.601782
1338.000000	0.629444
1339.000000	0.636299
1340.000000	0.661516
1341.000000	0.670342
1342.000000	0.699619
1343.000000	0.723012
1344.000000	0.743452
1345.000000	0.755149
1346.000000	0.785241
1347.000000	0.792906
1348.000000	0.826375
1349.000000	0.841408
1350.000000	0.893014
1351.000000	0.908456
1352.000000	0.957390
1353.000000	0.990376
1354.000000	1.011540
1355.000000	1.038553
1356.000000	1.047582
1357.000000	1.063428
1358.000000	1.082039
1359.000000	1.086453
1360.000000	1.086446
1361.000000	1.091724
1362.000000	1.083358
1363.000000	1.113593
1364.000000	1.131362
1365.000000	1.140939
1366.000000	1.155680
1367.000000	1.167249
1368.000000	1.178762
1369.000000	1.196688
1370.000000	1.196060
1371.000000	1.233694
1372.000000	1.245627
1373.000000	1.252743
1374.000000	1.283093
1375.000000	1.288288
1376.000000	1.300897
1377.000000	1.312499
1378.000000	1.324732
1379.000000	1.334052
1380.000000	1.357732
1381.000000	1.362282
1382.000000	1.389337
1383.000000	1.406328
1384.000000	1.416473
1385.000000	1.448590
1386.000000	1.466051
1387.000000	1.481023
1388.000000	1.501590
1389.000000	1.520058
1390.000000	1.528056
1391.000000	1.541344
1392.000000	1.550824
1393.000000	1.557831
1394.000000	1.564904
1395.000000	1.575241
1396.000000	1.594929
1397.000000	1.589667
1398.000000	1.608140
1399.000000	1.614112
1400.000000	1.633290
1401.000000	1.657985
1402.000000	1.680399
1403.000000	1.674641
1404.000000	1.694210
1405.000000	1.708939
1406.000000	1.712421
1407.000000	1.727213
1408.000000	1.738118
1409.000000	1.752604
1410.000000	1.763980
1411.000000	1.786194
1412.000000	1.787847
1413.000000	1.790924
1414.000000	1.817609
1415.000000	1.818623
1416.000000	1.823758
1417.000000	1.824322
1418.000000	1.831135
1419.000000	1.843566
1420.000000	1.851744
1421.000000	1.847931
1422.000000	1.856656
1423.000000	1.861224
1424.000000	1.870426
1425.000000	1.878006
1426.000000	1.878362
1427.000000	1.874868
1428.000000	1.879252
1429.000000	1.893471
1430.000000	1.897451
1431.000000	1.911936
1432.000000	1.899171
1433.000000	1.906686
1434.000000	1.905017
1435.000000	1.918564
1436.000000	1.925175
1437.000000	1.936555
1438.000000	1.929359
1439.000000	1.935081
1440.000000	1.940829
1441.000000	1.944057
1442.000000	1.950605
1443.000000	1.947005
1444.000000	1.951630
1445.000000	1.955016
1446.000000	1.967889
1447.000000	1.968129
1448.000000	1.966053
1449.000000	1.974630
1450.000000	1.991225
1451.000000	1.986175
1452.000000	1.999435
1453.000000	1.999968
1454.000000	2.002525
1455.000000	2.009894
1456.000000	2.006745
1457.000000	2.010023
1458.000000	2.010408
1459.000000	2.023605
1460.000000	2.021934
1461.000000	2.025066
1462.000000	2.036134
1463.000000	2.034585
1464.000000	2.029744
1465.000000	2.023082
1466.000000	2.030778
1467.000000	2.033768
1468.000000	2.033355
1469.000000	2.041262
1470.000000	2.048346
1471.000000	2.050666
1472.000000	2.059555
1473.000000	2.054851
1474.000000	2.041220
1475.000000	2.043154
1476.000000	2.047699
1477.000000	2.050230
1478.000000	2.049626
1479.000000	2.058152
1480.000000	2.052591
1481.000000	2.045549
1482.000000	2.053088
1483.000000	2.045595
1484.000000	2.043416
1485.000000	2.056877
1486.000000	2.048252
1487.000000	2.051589
1488.000000	2.057404
1489.000000	2.045448
1490.000000	2.043329
1491.000000	2.045925
1492.000000	2.044296
1493.000000	2.049940
1494.000000	2.052751
1495.000000	2.046059
1496.000000	2.033758
1497.000000	2.033577
1498.000000	2.029669
1499.000000	2.019985
1500.000000	2.018239
1501.000000	2.015757
1502.000000	2.012274
1503.000000	2.009097
1504.000000	2.013596
1505.000000	2.005715
1506.000000	1.997075
1507.000000	1.991784
1508.000000	1.985524
1509.000000	1.980492
1510.000000	1.980926
1511.000000	1.977449
1512.000000	1.974034
1513.000000	1.966933
1514.000000	1.969655
1515.000000	1.969225
1516.000000	1.957886
1517.000000	1.954273
1518.000000	1.952425
1519.000000	1.944204
1520.000000	1.946870
1521.000000	1.948672
1522.000000	1.942579
1523.000000	1.937327
1524.000000	1.934736
1525.000000	1.935141
1526.000000	1.937844
1527.000000	1.931523
1528.000000	1.915139
1529.000000	1.915452
1530.000000	1.923607
1531.000000	1.914472
1532.000000	1.913766
1533.000000	1.919652
1534.000000	1.915901
1535.000000	1.921600
1536.000000	1.922754
1537.000000	1.912881
1538.000000	1.905436
1539.000000	1.917846
1540.000000	1.922621
1541.000000	1.913717
1542.000000	1.911157
1543.000000	1.911634
1544.000000	1.913854
1545.000000	1.915742
1546.000000	1.921405
1547.000000	1.926589
1548.000000	1.924015
1549.000000	1.923700
1550.000000	1.917066
1551.000000	1.916007
1552.000000	1.919939
1553.000000	1.912864
1554.000000	1.919731
1555.000000	1.922563
1556.000000	1.921492
1557.000000	1.935851
1558.000000	1.938635
1559.000000	1.927520
1560.000000	1.934806
1561.000000	1.943134
1562.000000	1.938705
1563.000000	1.936719
1564.000000	1.944358
1565.000000	1.939691
1566.000000	1.936797
1567.000000	1.953235
1568.000000	1.951864
1569.000000	1.957700
1570.000000	1.958544
1571.000000	1.967433
1572.000000	1.966058
1573.000000	1.968517
1574.000000	1.959594
1575.000000	1.967192
1576.000000	1.975426
1577.000000	1.969214
1578.000000	1.988872
1579.000000	1.984043
1580.000000	1.990743
1581.000000	1.988184
1582.000000	1.981990
1583.000000	1.983546
1584.000000	1.990632
1585.000000	1.986652
1586.000000	1.992805
1587.000000	1.993330
1588.000000	1.983490
1589.000000	1.993002
1590.000000	1.994775
1591.000000	1.988842
1592.000000	1.990866
1593.000000	1.986454
1594.000000	1.993927
1595.000000	1.988032
1596.000000	1.977553
1597.000000	1.986102
1598.000000	1.986007
1599.000000	1.980271
1600.000000	1.983271
1601.000000	1.983495
1602.000000	1.978047
1603.000000	1.967366
1604.000000	1.980151
1605.000000	1.979035
1606.000000	1.965023
1607.000000	1.961627
1608.000000	1.964726
1609.000000	1.968527
1610.000000	1.966686
1611.000000	1.950210
1612.000000	1.953993
1613.000000	1.936094
1614.000000	1.948113
1615.000000	1.955269
1616.000000	1.959833
1617.000000	1.930482
1618.000000	1.933774
1619.000000	1.944741
1620.000000	1.940265
1621.000000	1.940026
1622.000000	1.930401
1623.000000	1.926890
1624.000000	1.925910
1625.000000	1.923931
1626.000000	1.916650
1627.000000	1.916136
1628.000000	1.913221
1629.000000	1.927542
1630.000000	1.899052
1631.000000	1.905576
1632.000000	1.907942
1633.000000	1.902618
1634.000000	1.902102
1635.000000	1.898457
1636.000000	1.897428
1637.000000	1.890429
1638.000000	1.888761
1639.000000	1.889134
1640.000000	1.886296
1641.000000	1.888014
1642.000000	1.870597
1643.000000	1.868061
1644.000000	1.883688
1645.000000	1.881514
1646.000000	1.881082
1647.000000	1.883460
1648.000000	1.865504
1649.000000	1.872957
1650.000000	1.870883
1651.000000	1.867403
1652.000000	1.880787
1653.000000	1.871505
1654.000000	1.875898
1655.000000	1.867677
1656.000000	1.874324
1657.000000	1.878092
1658.000000	1.876660
1659.000000	1.880214
1660.000000	1.878839
1661.000000	1.896419
1662.000000	1.895934
1663.000000	1.892421
1664.000000	1.893865
1665.000000	1.906147
1666.000000	1.926824
1667.000000	1.913333
1668.000000	1.933268
1669.000000	1.924017
1670.000000	1.944810
1671.000000	1.946199
1672.000000	1.949901
1673.000000	1.967121
1674.000000	1.968252
1675.000000	1.974695
1676.000000	1.984550
1677.000000	1.981119
1678.000000	2.001502
1679.000000	2.015863
1680.000000	2.029466
1681.000000	2.039901
1682.000000	2.062922
1683.000000	2.060452
1684.000000	2.053616
1685.000000	2.051143
1686.000000	2.047779
1687.000000	2.067739
1688.000000	2.057195
1689.000000	2.055325
1690.000000	2.038202
1691.000000	2.038203
1692.000000	2.033929
1693.000000	2.042596
1694.000000	2.049039
1695.000000	2.026406
1696.000000	2.037301
1697.000000	2.039625
1698.000000	2.036325
1699.000000	2.024538
1700.000000	2.023586
1701.000000	2.026754
1702.000000	2.031627
1703.000000	2.016338
1704.000000	2.014569
1705.000000	2.024925
1706.000000	2.030601
1707.000000	2.025843
1708.000000	2.011972
1709.000000	2.024334
1710.000000	2.029013
1711.000000	2.021080
1712.000000	2.029136
1713.000000	2.037184
1714.000000	2.036033
1715.000000	2.049062
1716.000000	2.058095
1717.000000	2.058961
1718.000000	2.054709
1719.000000	2.062682
1720.000000	2.065033
1721.000000	2.063986
1722.000000	2.074696
1723.000000	2.061744
1724.000000	2.064780
1725.000000	2.054793
1726.000000	2.059389
1727.000000	2.046192
1728.000000	2.043218
1729.000000	2.048475
1730.000000	2.054016
1731.000000	2.056488
1732.000000	2.055898
1733.000000	2.062656
1734.000000	2.066668
1735.000000	2.065293
1736.000000	2.060803
1737.000000	2.057194
1738.000000	2.060239
1739.000000	2.052310
1740.000000	2.055946
1741.000000	2.056064
1742.000000	2.052795
1743.000000	2.027285
1744.000000	2.026919
1745.000000	2.027212
1746.000000	2.021255
1747.000000	2.017279
1748.000000	2.023853
1749.000000	2.015119
1750.000000	2.014300
1751.000000	2.007872
1752.000000	2.010756
1753.000000	2.007535
1754.000000	2.012485
1755.000000	2.013406
1756.000000	2.017419
1757.000000	2.012099
1758.000000	2.014350
1759.000000	2.005669
1760.000000	2.000762
1761.000000	2.007675
1762.000000	2.005576
1763.000000	2.003370
1764.000000	2.002852
1765.000000	2.005627
1766.000000	2.007874
1767.000000	2.003819
1768.000000	2.003130
1769.000000	2.003003
1770.000000	1.992344
1771.000000	1.984637
1772.000000	1.981862
1773.000000	1.981312
1774.000000	1.975676
1775.000000	1.970187
1776.000000	1.961709
1777.000000	1.955389
1778.000000	1.951394
1779.000000	1.945578
1780.000000	1.956741
1781.000000	1.958362
1782.000000	1.941163
1783.000000	1.935830
1784.000000	1.938518
1785.000000	1.931567
1786.000000	1.928769
1787.000000	1.927522
1788.000000	1.928225
1789.000000	1.924285
1790.000000	1.911178
1791.000000	1.900411
1792.000000	1.899117
1793.000000	1.894859
1794.000000	1.889382
1795.000000	1.890206
1796.000000	1.887613
1797.000000	1.878629
1798.000000	1.870034
1799.000000	1.865209
1800.000000	1.874603
1801.000000	1.877080
1802.000000	1.862248
1803.000000	1.857416
1804.000000	1.856107
1805.000000	1.849412
1806.000000	1.845074
1807.000000	1.847612
1808.000000	1.843948
1809.000000	1.838750
1810.000000	1.831553
1811.000000	1.825157
1812.000000	1.824174
1813.000000	1.835502
1814.000000	1.845619
1815.000000	1.831886
1816.000000	1.826469
1817.000000	1.822789
1818.000000	1.813794
1819.000000	1.815005
1820.000000	1.815392
1821.000000	1.825864
1822.000000	1.832062
1823.000000	1.815908
1824.000000	1.807716
1825.000000	1.816589
1826.000000	1.813936
1827.000000	1.807854
1828.000000	1.809763
1829.000000	1.805715
1830.000000	1.805443
1831.000000	1.809481
1832.000000	1.801306
1833.000000	1.784677
1834.000000	1.784299
1835.000000	1.783626
1836.000000	1.785896
1837.000000	1.801417
1838.000000	1.798682
1839.000000	1.798383
1840.000000	1.789292
1841.000000	1.800917
1842.000000	1.795664
1843.000000	1.785318
1844.000000	1.775229
1845.000000	1.763704
1846.000000	1.762120
1847.000000	1.770947
1848.000000	1.795644
1849.000000	1.786301
1850.000000	1.774914
1851.000000	1.775378
1852.000000	1.774255
1853.000000	1.778675
1854.000000	1.781799
1855.000000	1.781216
1856.000000	1.777258
1857.000000	1.769586
1858.000000	1.774229
1859.000000	1.795336
1860.000000	1.782667
1861.000000	1.783959
1862.000000	1.786157
1863.000000	1.768952
1864.000000	1.770402
1865.000000	1.765610
1866.000000	1.752638
1867.000000	1.756802
1868.000000	1.758891
1869.000000	1.765860
1870.000000	1.778909
1871.000000	1.796788
1872.000000	1.805515
1873.000000	1.826893
1874.000000	1.836536
1875.000000	1.840736
1876.000000	1.850487
1877.000000	1.848338
1878.000000	1.849272
1879.000000	1.853072
1880.000000	1.836601
1881.000000	1.835928
1882.000000	1.834429
1883.000000	1.841213
1884.000000	1.849126
1885.000000	1.866701
1886.000000	1.855768
1887.000000	1.849998
1888.000000	1.831650
1889.000000	1.833513
1890.000000	1.829454
1891.000000	1.840446
1892.000000	1.839535
1893.000000	1.839175
1894.000000	1.813637
1895.000000	1.805223
1896.000000	1.783790
1897.000000	1.775436
1898.000000	1.772666
1899.000000	1.758991
1900.000000	1.752609
1901.000000	1.751370
1902.000000	1.736746
1903.000000	1.708673
1904.000000	1.719509
1905.000000	1.705414
1906.000000	1.711405
1907.000000	1.702057
1908.000000	1.687415
1909.000000	1.674724
1910.000000	1.652341
1911.000000	1.627604
1912.000000	1.619041
1913.000000	1.617568
1914.000000	1.601233
1915.000000	1.607807
1916.000000	1.603130
1917.000000	1.582792
1918.000000	1.547012
1919.000000	1.560817
1920.000000	1.534442
1921.000000	1.527550
1922.000000	1.536623
1923.000000	1.540820
1924.000000	1.541706
1925.000000	1.511337
1926.000000	1.525802
1927.000000	1.489356
1928.000000	1.508711
1929.000000	1.495462
1930.000000	1.499206
1931.000000	1.501704
1932.000000	1.506300
1933.000000	1.496448
1934.000000	1.497552
1935.000000	1.491280
1936.000000	1.478245
1937.000000	1.498398
1938.000000	1.484915
1939.000000	1.498643
1940.000000	1.516840
1941.000000	1.500595
1942.000000	1.504186
1943.000000	1.494221
1944.000000	1.495593
1945.000000	1.494609
1946.000000	1.513172
1947.000000	1.513479
1948.000000	1.519439
1949.000000	1.524820
1950.000000	1.521692
1951.000000	1.522442
1952.000000	1.517357
1953.000000	1.522368
1954.000000	1.519900
1955.000000	1.524210
1956.000000	1.528222
1957.000000	1.519375
1958.000000	1.519830
1959.000000	1.513113
1960.000000	1.522984
1961.000000	1.513461
1962.000000	1.532170
1963.000000	1.535550
1964.000000	1.527418
1965.000000	1.517083
1966.000000	1.541086
1967.000000	1.536554
1968.000000	1.540216
1969.000000	1.540740
1970.000000	1.533083
1971.000000	1.536053
1972.000000	1.543833
1973.000000	1.543652
1974.000000	1.542703
1975.000000	1.539618
1976.000000	1.547115
1977.000000	1.540427
1978.000000	1.554867
1979.000000	1.533200
1980.000000	1.528146
1981.000000	1.546981
1982.000000	1.548600
1983.000000	1.538689
1984.000000	1.535157
1985.000000	1.534236
1986.000000	1.531442
1987.000000	1.551149
1988.000000	1.535028
1989.000000	1.522356
1990.000000	1.536002
1991.000000	1.527171
1992.000000	1.523392
1993.000000	1.526406
1994.000000	1.538940
1995.000000	1.536604
1996.000000	1.532759
1997.000000	1.530506
1998.000000	1.516710
1999.000000	1.513136
2000.000000	1.514959
2001.000000	1.504274
2002.000000	1.495318
2003.000000	1.490903
2004.000000	1.484042
2005.000000	1.480854
2006.000000	1.497603
2007.000000	1.492961
2008.000000	1.473017
2009.000000	1.483505
2010.000000	1.467465
2011.000000	1.460108
2012.000000	1.456101
2013.000000	1.463490
2014.000000	1.465308
2015.000000	1.447627
2016.000000	1.446888
2017.000000	1.445040
2018.000000	1.436157
2019.000000	1.448852
2020.000000	1.443469
2021.000000	1.441634
2022.000000	1.438440
2023.000000	1.429440
2024.000000	1.424581
2025.000000	1.417264
2026.000000	1.413189
2027.000000	1.409751
2028.000000	1.408740
2029.000000	1.402699
2030.000000	1.391421
2031.000000	1.379354
2032.000000	1.369025
2033.000000	1.366953
2034.000000	1.365698
2035.000000	1.365444
2036.000000	1.354382
2037.000000	1.346612
2038.000000	1.333910
2039.000000	1.331275
2040.000000	1.327675
2041.000000	1.325784
2042.000000	1.319780
2043.000000	1.307970
2044.000000	1.302657
2045.000000	1.307640
2046.000000	1.298597
2047.000000	1.282975
2048.000000	1.280879
2049.000000	1.290547
2050.000000	1.303340
2051.000000	1.300125
2052.000000	1.296916
2053.000000	1.303548
2054.000000	1.299591
2055.000000	1.293180
2056.000000	1.297189
2057.000000	1.303221
2058.000000	1.300909
2059.000000	1.299633
2060.000000	1.317399
2061.000000	1.311449
2062.000000	1.311926
2063.000000	1.310901
2064.000000	1.311085
2065.000000	1.316639
2066.000000	1.318419
2067.000000	1.320093
2068.000000	1.311603
2069.000000	1.316573
2070.000000	1.319350
2071.000000	1.317871
2072.000000	1.320819
2073.000000	1.317641
2074.000000	1.315965
2075.000000	1.323652
2076.000000	1.317030
2077.000000	1.309725
2078.000000	1.307667
2079.000000	1.310976
2080.000000	1.313670
2081.000000	1.306466
2082.000000	1.306212
2083.000000	1.304635
2084.000000	1.304838
2085.000000	1.301175
2086.000000	1.288852
2087.000000	1.290426
2088.000000	1.296546
2089.000000	1.289038
2090.000000	1.288546
2091.000000	1.284426
2092.000000	1.276189
2093.000000	1.273016
2094.000000	1.274518
2095.000000	1.275556
2096.000000	1.272265
2097.000000	1.264950
2098.000000	1.256828
2099.000000	1.261398
2100.000000	1.255834
2101.000000	1.237165
2102.000000	1.242199
2103.000000	1.249268
2104.000000	1.247491
2105.000000	1.233387
2106.000000	1.218880
2107.000000	1.215792
2108.000000	1.217356
2109.000000	1.215392
2110.000000	1.199398
2111.000000	1.192038
2112.000000	1.195404
2113.000000	1.195550
2114.000000	1.184460
2115.000000	1.164932
2116.000000	1.163609
2117.000000	1.170856
2118.000000	1.165649
2119.000000	1.158021
2120.000000	1.155345
2121.000000	1.139811
2122.000000	1.138494
2123.000000	1.142136
2124.000000	1.140596
2125.000000	1.127604
2126.000000	1.111019
2127.000000	1.112487
2128.000000	1.113704
2129.000000	1.105365
2130.000000	1.096420
2131.000000	1.094537
2132.000000	1.095114
2133.000000	1.085091
2134.000000	1.079062
2135.000000	1.078280
2136.000000	1.080641
2137.000000	1.072406
2138.000000	1.064101
2139.000000	1.057744
2140.000000	1.057059
2141.000000	1.048870
2142.000000	1.046003
2143.000000	1.045919
2144.000000	1.035344
2145.000000	1.030245
2146.000000	1.044658
2147.000000	1.036795
2148.000000	1.035553
2149.000000	1.040237
2150.000000	1.046337
2151.000000	1.033855
2152.000000	1.020516
2153.000000	1.016874
2154.000000	1.020836
2155.000000	1.020648
2156.000000	1.018081
2157.000000	1.010945
2158.000000	1.027241
2159.000000	1.018480
2160.000000	1.028223
2161.000000	1.022138
2162.000000	1.011234
2163.000000	1.015176
2164.000000	1.030879
2165.000000	1.033616
2166.000000	1.013782
2167.000000	1.015717
2168.000000	1.024618
2169.000000	1.037937
2170.000000	1.040367
2171.000000	1.042158
2172.000000	1.042993
2173.000000	1.029459
2174.000000	1.036651
2175.000000	1.045341
2176.000000	1.050676
2177.000000	1.047679
2178.000000	1.055918
2179.000000	1.051423
2180.000000	1.062153
2181.000000	1.074333
2182.000000	1.072628
2183.000000	1.072097
2184.000000	1.081066
2185.000000	1.066529
2186.000000	1.086307
2187.000000	1.095003
2188.000000	1.094771
2189.000000	1.095635
2190.000000	1.089505
2191.000000	1.092078
2192.000000	1.097538
2193.000000	1.099895
2194.000000	1.098829
2195.000000	1.096147
2196.000000	1.097674
2197.000000	1.092379
2198.000000	1.080349
2199.000000	1.094685
2200.000000	1.120797
2201.000000	1.103999
2202.000000	1.103222
2203.000000	1.084451
2204.000000	1.101499
2205.000000	1.107519
2206.000000	1.099525
2207.000000	1.094830
2208.000000	1.096507
2209.000000	1.118748
2210.000000	1.099330
2211.000000	1.112772
2212.000000	1.124000
2213.000000	1.116003
2214.000000	1.113217
2215.000000	1.129969
2216.000000	1.117052
2217.000000	1.135415
2218.000000	1.114448
2219.000000	1.122696
2220.000000	1.129705
2221.000000	1.144981
2222.000000	1.138261
2223.000000	1.141035
2224.000000	1.136705
2225.000000	1.146613
2226.000000	1.133426
2227.000000	1.136646
2228.000000	1.138908
2229.000000	1.125473
2230.000000	1.139834
2231.000000	1.131315
2232.000000	1.136203
2233.000000	1.131716
2234.000000	1.128264
2235.000000	1.126460
2236.000000	1.118886
2237.000000	1.123176
2238.000000	1.123718
2239.000000	1.113676
2240.000000	1.115509
2241.000000	1.086869
2242.000000	1.087320
2243.000000	1.079787
2244.000000	1.074834
2245.000000	1.073761
2246.000000	1.066169
2247.000000	1.057198
2248.000000	1.048887
2249.000000	1.034262
2250.000000	1.032165
2251.000000	1.012486
2252.000000	1.009714
2253.000000	1.003030
2254.000000	0.976572
2255.000000	0.969918
2256.000000	0.951136
2257.000000	0.937924
2258.000000	0.920034
2259.000000	0.919510
2260.000000	0.909142
2261.000000	0.902497
2262.000000	0.878314
2263.000000	0.859278
2264.000000	0.860996
2265.000000	0.861006
2266.000000	0.838950
2267.000000	0.824492
2268.000000	0.817533
2269.000000	0.816331
2270.000000	0.815875
2271.000000	0.788075
2272.000000	0.813886
2273.000000	0.804359
2274.000000	0.814700
2275.000000	0.793898
2276.000000	0.815976
2277.000000	0.811305
2278.000000	0.787021
2279.000000	0.779869
2280.000000	0.796579
2281.000000	0.801699
2282.000000	0.803059
2283.000000	0.811785
2284.000000	0.804916
2285.000000	0.799861
2286.000000	0.811237
2287.000000	0.813688
2288.000000	0.797652
2289.000000	0.799817
2290.000000	0.802531
2291.000000	0.788857
2292.000000	0.797974
2293.000000	0.791854
2294.000000	0.775586
2295.000000	0.776525
2296.000000	0.767420
2297.000000	0.761638
2298.000000	0.749211
2299.000000	0.737355
2300.000000	0.733956
2301.000000	0.735357
2302.000000	0.732455
2303.000000	0.728159
2304.000000	0.716124
2305.000000	0.723297
2306.000000	0.728582
2307.000000	0.726827
2308.000000	0.731680
2309.000000	0.728660
2310.000000	0.743421
2311.000000	0.761894
2312.000000	0.761455
2313.000000	0.768964
2314.000000	0.777281
2315.000000	0.793945
2316.000000	0.801531
2317.000000	0.816519
2318.000000	0.817257
2319.000000	0.820618
2320.000000	0.825138
2321.000000	0.832021
2322.000000	0.842452
2323.000000	0.851358
2324.000000	0.843911
2325.000000	0.840900
2326.000000	0.837695
2327.000000	0.840261
2328.000000	0.841530
2329.000000	0.835802
2330.000000	0.829498
2331.000000	0.831659
2332.000000	0.832309
2333.000000	0.826378
2334.000000	0.823947
2335.000000	0.828261
2336.000000	0.831552
2337.000000	0.821083
2338.000000	0.808151
2339.000000	0.801114
2340.000000	0.799544
2341.000000	0.804984
2342.000000	0.798888
2343.000000	0.789378
2344.000000	0.785519
2345.000000	0.791467
2346.000000	0.784984
2347.000000	0.788807
2348.000000	0.796762
2349.000000	0.788949
2350.000000	0.784712
2351.000000	0.788834
2352.000000	0.785842
2353.000000	0.792159
2354.000000	0.802569
2355.000000	0.802153
2356.000000	0.801899
2357.000000	0.806369
2358.000000	0.815412
2359.000000	0.818074
2360.000000	0.809806
2361.000000	0.804420
2362.000000	0.817718
2363.000000	0.827792
2364.000000	0.823432
2365.000000	0.829380
2366.000000	0.829049
2367.000000	0.824507
2368.000000	0.826531
2369.000000	0.825728
2370.000000	0.830675
2371.000000	0.833118
2372.000000	0.838215
2373.000000	0.832062
2374.000000	0.823482
2375.000000	0.833386
2376.000000	0.840841
2377.000000	0.833024
2378.000000	0.833108
2379.000000	0.840147
2380.000000	0.841310
2381.000000	0.838571
2382.000000	0.840582
2383.000000	0.833203
2384.000000	0.830022
2385.000000	0.840566
2386.000000	0.847579
2387.000000	0.841271
2388.000000	0.836391
2389.000000	0.841218
2390.000000	0.844367
2391.000000	0.841206
2392.000000	0.843089
2393.000000	0.841050
2394.000000	0.833733
2395.000000	0.824043
2396.000000	0.816256
2397.000000	0.821546
2398.000000	0.823428
2399.000000	0.817342
2400.000000	0.815694
2401.000000	0.817245
2402.000000	0.816974
2403.000000	0.813187
2404.000000	0.799199
2405.000000	0.797377
2406.000000	0.796502
2407.000000	0.802317
2408.000000	0.806767
2409.000000	0.799841
2410.000000	0.793030
2411.000000	0.787254
2412.000000	0.787980
2413.000000	0.787784
2414.000000	0.785215
2415.000000	0.791806
2416.000000	0.796589
2417.000000	0.792056
2418.000000	0.791406
2419.000000	0.780314
2420.000000	0.781357
2421.000000	0.786591
2422.000000	0.785158
2423.000000	0.769733
2424.000000	0.771387
2425.000000	0.775981
2426.000000	0.764140
2427.000000	0.758825
2428.000000	0.761453
2429.000000	0.758159
2430.000000	0.765034
2431.000000	0.758812
2432.000000	0.761422
2433.000000	0.761773
2434.000000	0.738842
2435.000000	0.740411
2436.000000	0.728475
2437.000000	0.726693
2438.000000	0.721591
2439.000000	0.709544
2440.000000	0.724549
2441.000000	0.714796
2442.000000	0.703946
2443.000000	0.690952
2444.000000	0.691530
2445.000000	0.673574
2446.000000	0.674370
2447.000000	0.678921
2448.000000	0.668233
2449.000000	0.647426
2450.000000	0.641334
2451.000000	0.653316
2452.000000	0.640427
2453.000000	0.637935
2454.000000	0.633128
2455.000000	0.615068
2456.000000	0.629422
2457.000000	0.636611
2458.000000	0.626746
2459.000000	0.615517
2460.000000	0.619178
2461.000000	0.608741
2462.000000	0.625689
2463.000000	0.622236
2464.000000	0.620240
2465.000000	0.641592
2466.000000	0.596960
2467.000000	0.614390
2468.000000	0.600737
2469.000000	0.632144
2470.000000	0.610843
2471.000000	0.642491
2472.000000	0.633407
2473.000000	0.649813
2474.000000	0.606315
2475.000000	0.617064
2476.000000	0.582388
2477.000000	0.569490
2478.000000	0.639154
2479.000000	0.636913
2480.000000	0.584381
2481.000000	0.621972
2482.000000	0.654965
2483.000000	0.645675
2484.000000	0.665240
2485.000000	0.647544
2486.000000	0.614983
2487.000000	0.620115
2488.000000	0.600458
2489.000000	0.591025
2490.000000	0.657492
2491.000000	0.647380
2492.000000	0.622368
2493.000000	0.603240
2494.000000	0.671835
2495.000000	0.727640
2496.000000	0.607216
2497.000000	0.647828
2498.000000	0.660400
2499.000000	0.587426
2500.000000	0.749620
