0076 ELITRO
Integration time [ms]:   8,000
Averaging Nr. [scans]: 10
Smoothing Nr. [pixels]: 0
Data measured with spectrometer [name]: 7314920SP
Wave   ;Sample   ;Dark     ;Reference;Reflectance
[nm]   ;[counts] ;[counts] ;[counts] ;[%]

 199,42;   95,834;   63,873;  150,055;37,08494
 200,02;  112,602;   92,669;  145,732;37,56574
 200,62;   70,320;   67,563;   88,793;12,98815
 201,22;   98,767;   86,969;  138,011;23,11414
 201,82;   94,727;   66,174;  141,790;37,76030
 202,42;  119,281;  101,668;  154,973;33,04119
 203,03;   75,873;   60,168;   91,775;49,68921
 203,63;   92,887;   69,967;  109,037;58,66391
 204,23;   92,189;   70,671;  129,903;36,32909
 204,83;   88,644;   74,567;  123,718;28,64060
 205,43;   95,034;   56,673;  123,555;57,35565
 206,03;   68,823;   50,167;   90,459;46,30173
 206,63;   78,879;   68,865;  100,007;32,15528
 207,24;  107,899;   74,675;  162,566;37,80123
 207,84;   65,501;   39,967;   83,699;58,38780
 208,44;   71,667;   50,669;   95,011;47,35470
 209,04;   47,500;   47,365;   85,066; 0,35870
 209,64;   98,704;   69,972;  127,998;49,51645
 210,24;   65,944;   45,367;   97,218;39,68510
 210,84;   68,188;   51,469;  101,970;33,10670
 211,44;  102,074;   86,470;  122,908;42,82487
 212,05;   81,600;   60,865;   99,266;53,99584
 212,65;   92,573;   66,368;  112,975;56,22597
 213,25;  110,681;   93,768;  142,073;35,01216
 213,85;  105,586;   84,465;  114,904;69,38716
 214,45;   72,744;   53,367;  100,418;41,18323
 215,05;   53,288;   39,369;  100,070;22,93078
 215,65;   74,810;   55,169;  105,630;38,92282
 216,25;   56,244;   40,267;   82,518;37,81478
 216,85;   55,545;   34,069;   89,651;38,63906
 217,45;   54,973;   49,068;   97,375;12,22476
 218,05;   78,739;   58,270;  112,886;37,47738
 218,66;   47,824;   28,769;   75,692;40,60935
 219,26;   43,087;   26,567;   79,337;31,30562
 219,86;   61,946;   36,771;   81,584;56,17913
 220,46;   75,117;   54,270;  104,127;41,81439
 221,06;   77,089;   51,871;  115,903;39,38414
 221,66;   77,354;   43,471;  103,481;56,46150
 222,26;   61,704;   39,772;  102,398;35,02114
 222,86;   93,638;   67,268;  118,954;51,01935
 223,46;   76,144;   51,767;   88,918;65,61615
 224,06;   87,568;   64,971;  120,343;40,80911
 224,66;   78,282;   57,570;  105,805;42,93873
 225,26;   69,553;   48,169;  113,748;32,60695
 225,86;   77,669;   42,173;  112,376;50,56194
 226,46;   67,759;   49,968;  102,913;33,60283
 227,06;   61,182;   27,670;   87,705;55,81989
 227,66;   62,565;   37,665;   74,845;66,97046
 228,27;   56,717;   29,270;   96,227;40,99259
 228,87;  118,260;   89,170;  143,046;53,99490
 229,47;   60,726;   29,172;   92,357;49,93845
 230,07;   35,853;   11,169;   59,648;50,91546
 230,67;   54,845;   38,169;   84,651;35,87705
 231,27;   48,417;   27,670;   76,327;42,64012
 231,87;   54,145;   43,169;  100,751;19,06222
 232,47;   95,456;   43,775;  132,047;58,54747
 233,07;   48,857;   42,965;   75,547;18,08463
 233,67;   65,173;   53,768;   94,275;28,15651
 234,27;   42,123;    0,567;   53,259;78,86573
 234,87;   59,246;   34,771;  106,084;34,32138
 235,47;   48,353;   16,169;   74,148;55,50856
 236,07;   43,572;   30,266;   72,042;31,85106
 236,67;   62,158;   49,966;   85,180;34,62199
 237,27;   68,877;   28,873;  109,074;49,87902
 237,87;   58,782;   25,370;   99,805;44,88680
 238,47;   40,002;   14,269;   68,032;47,86461
 239,07;   49,983;   33,272;   95,738;26,75177
 239,67;   75,736;   43,477;  131,421;36,68132
 240,27;   76,369;   46,773;  119,176;40,87684
 240,87;   83,698;   50,773;  119,533;47,88346
 241,47;   54,306;   39,164;   76,131;40,96284
 242,07;   56,016;   39,968;   92,894;30,32192
 242,67;   23,355;  -11,027;   77,914;38,65685
 243,27;   31,144;    7,767;   46,418;60,48244
 243,87;   80,968;   48,671;  108,343;54,12378
 244,47;   61,089;   22,371;   99,703;50,06784
 245,07;   19,888;    2,669;   55,770;32,42729
 245,67;   46,273;   31,068;   85,575;27,89615
 246,27;   44,879;   34,965;   69,007;29,12228
 246,87;   37,138;   26,668;   63,154;28,69523
 247,46;   16,520;   19,663;   23,793;-76,09459
 248,06;   42,039;   20,470;   69,786;43,73554
 248,66;   50,704;   31,072;  105,898;26,23727
 249,26;   44,372;   32,366;   70,742;31,28544
 249,86;   65,069;   42,873;  102,176;37,42825
 250,46;   51,578;   16,775;   93,507;45,35616
 251,06;   37,573;   22,168;   65,375;35,65470
 251,66;   28,825;   20,771;   64,724;18,32447
 252,26;   46,715;   38,866;   70,261;25,00063
 252,86;   47,588;   35,969;   89,070;21,88134
 253,46;    8,844;   -8,033;   22,118;55,97519
 254,06;   50,451;   31,766;   79,483;39,15762
 254,66;   53,634;   34,973;  100,155;28,62833
 255,26;   71,890;   39,073;  118,836;41,14400
 255,86;   36,306;   37,464;   55,631;-6,36930
 256,46;   34,474;   19,870;   70,208;29,01305
 257,05;   35,203;   23,570;   59,565;32,31864
 257,65;   75,646;   38,071;   97,684;63,03246
 258,25;   58,626;   37,372;  101,457;33,16469
 258,85;   32,488;   15,669;   51,770;46,58935
 259,45;   23,445;    6,869;   42,951;45,94075
 260,05;   56,344;   46,667;   85,818;24,71751
 260,65;   42,215;   45,066;   83,561;-7,40620
 261,25;   47,268;   29,371;   85,943;31,63557
 261,85;   27,532;   -0,129;   47,622;57,92838
 262,45;   65,088;   46,169;  109,270;29,98243
 263,04;   66,512;   53,073;  116,295;21,25681
 263,64;   54,009;   33,767;   77,097;46,71511
 264,24;   59,111;   37,671;   89,062;41,71875
 264,84;  102,584;   58,974;  138,671;54,71969
 265,44;   40,052;   26,368;   67,716;33,09490
 266,04;   59,708;   48,865;   71,464;47,97747
 266,64;   57,258;   39,866;   86,780;37,07164
 267,24;   39,258;   40,166;   68,980;-3,15222
 267,84;   50,381;   24,668;   76,573;49,53808
 268,43;   68,995;   48,368;   95,935;43,36399
 269,03;   65,824;   46,969;   87,892;46,07465
 269,63;   71,794;   58,566;   92,402;39,09356
 270,23;   20,565;   10,765;   39,045;34,65167
 270,83;   64,615;   55,266;   83,161;33,51476
 271,43;   32,730;   23,967;   58,856;25,11621
 272,03;   61,552;   64,168;   99,116;-7,48515
 272,62;   42,010;   23,269;   68,730;41,22404
 273,22;   33,060;   11,970;   61,046;42,97472
 273,82;   10,890;   17,460;   26,403;-73,46854
 274,42;   23,728;   25,164;   46,890;-6,60828
 275,02;   47,436;   34,864;   60,388;49,25316
 275,62;   67,426;   31,972;  100,457;51,76844
 276,21;   43,296;   22,770;   69,267;44,14424
 276,81;   50,001;   46,767;   71,099;13,29278
 277,41;   52,775;   22,971;   96,341;40,62176
 278,01;   36,636;   21,364;   42,788;71,28217
 278,61;   55,067;   38,869;   83,811;36,04195
 279,20;   83,969;   65,473;  119,076;34,50570
 279,80;    0,184;    6,762;   11,539;-137,69644
 280,40;   56,972;   36,866;   79,742;46,89346
 281,00;   16,467;   -4,331;   33,311;55,25224
 281,60;   54,763;   20,774;   74,812;62,89794
 282,20;   44,774;   36,670;   70,108;24,23771
 282,79;   33,895;   29,568;   70,135;10,66597
 283,39;   33,194;   17,466;   44,702;57,74615
 283,99;   28,957;   23,165;   34,347;51,79808
 284,59;   30,231;   16,869;   45,289;47,01655
 285,19;   31,523;   27,067;   57,759;14,51799
 285,78;   44,074;   23,270;   63,808;51,32098
 286,38;   41,679;   39,665;   59,207;10,30519
 286,98;   52,995;   35,168;   73,535;46,46429
 287,58;   26,789;    4,771;   61,403;38,87988
 288,17;   36,990;    8,973;   80,336;39,26081
 288,77;   55,785;   19,976;   92,504;49,37292
 289,37;   25,088;   11,269;   57,670;29,78214
 289,97;   38,957;   48,965;   66,647;-56,59457
 290,57;   59,618;   46,672;   93,260;27,78968
 291,16;   78,652;   63,868;  102,616;38,15442
 291,76;   23,560;    5,570;   47,346;43,06366
 292,36;   42,987;   34,367;   58,137;36,26410
 292,96;   18,847;   -3,127;   60,117;34,74613
 293,55;   30,101;   24,267;   65,399;14,18456
 294,15;   48,096;   26,870;   62,567;59,46054
 294,75;   39,979;   42,065;   66,207;-8,64106
 295,35;   20,452;   21,068;   52,016;-1,99015
 295,94;   55,880;   42,967;   66,740;54,31791
 296,54;   33,459;   30,768;   70,613; 6,75359
 297,14;   51,054;   29,971;   76,881;44,94254
 297,73;   11,943;   12,165;   40,085;-0,79519
 298,33;   51,751;   28,066;   57,583;80,24129
 298,93;   46,238;   41,968;   82,554;10,51998
 299,53;   38,761;   24,872;   69,079;31,41921
 300,12;   18,554;  -12,229;   59,481;42,92644
 300,72;   62,109;   41,567;   91,197;41,38953
 301,32;   58,946;   25,771;   99,584;44,94544
 301,92;   15,749;    3,664;   33,050;41,12707
 302,51;   33,166;   11,567;   49,978;56,23080
 303,11;   32,023;   14,667;   48,759;50,90901
 303,71;   40,302;   21,369;   82,132;31,15966
 304,30;   24,529;    5,466;   38,423;57,84230
 304,90;   22,051;   19,666;   44,283; 9,68783
 305,50;   36,365;   18,565;   64,345;38,88053
 306,09;   34,772;   15,466;   49,042;57,49940
 306,69;   58,911;   34,171;   90,262;44,10631
 307,29;   21,169;   18,760;   33,144;16,74515
 307,88;   66,331;   43,269;   72,489;78,92609
 308,48;   33,417;    0,070;   49,727;67,15545
 309,08;   -3,823;   -4,437;   11,774; 3,79139
 309,68;   29,143;   22,365;   39,585;39,36052
 310,27;   34,510;   20,169;   49,830;48,34938
 310,87;   37,859;   23,468;   54,813;45,91177
 311,47;   60,044;   54,967;   92,918;13,37826
 312,06;   48,122;   47,865;   68,426; 1,24802
 312,66;   73,952;   51,168;  100,016;46,64280
 313,26;   64,625;   48,571;   96,224;33,68942
 313,85;   53,723;   38,267;   65,959;55,81361
 314,45;   57,667;   42,969;   86,611;33,67848
 315,04;   62,422;   52,165;   81,826;34,57956
 315,64;   30,109;   21,267;   47,897;33,20152
 316,24;   59,317;   40,770;   85,627;41,34784
 316,83;   54,172;   40,366;   76,742;37,95381
 317,43;   36,630;   35,167;   68,156; 4,43398
 318,03;   52,163;   39,063;   70,012;42,32862
 318,62;   78,241;   73,061;   94,820;23,80481
 319,22;   30,181;    7,668;   66,973;37,96079
 319,82;   63,652;   40,768;   93,516;43,38377
 320,41;   79,402;   59,069;   98,732;51,26548
 321,01;   94,065;   80,465;  115,945;38,33008
 321,60;   75,728;   81,164;  102,790;-25,13448
 322,20;   91,334;   67,673;  132,855;36,29920
 322,80;   66,109;   54,567;   91,797;31,00067
 323,39;   67,314;   65,764;   94,828; 5,33213
 323,99;   72,415;   61,766;  102,661;26,03972
 324,59;   68,763;   73,063;   97,512;-17,58743
 325,18;   69,666;   40,967;   92,178;56,04034
 325,78;   92,643;   76,365;  108,885;50,05491
 326,37;   89,273;   74,868;  108,075;43,38030
 326,97;   89,109;   63,267;  111,497;53,58014
 327,57;   58,420;   42,263;   76,493;47,20251
 328,16;   65,306;   60,864;   93,631;13,55883
 328,76;   72,780;   50,467;  110,140;37,39218
 329,35;   95,046;   56,871;  137,484;47,35659
 329,95;   67,574;   27,470;   91,308;62,82223
 330,54;   64,244;   52,167;   94,018;28,85749
 331,14;   46,801;   26,967;   82,599;35,65265
 331,74;   80,465;   54,165;   96,145;62,64792
 332,33;   56,617;   35,370;  108,127;29,20326
 332,93;   51,249;   43,764;   79,250;21,09455
 333,52;   64,394;   42,466;   93,102;43,30458
 334,12;  105,024;   72,069;  140,392;48,23432
 334,71;   68,072;   50,666;   87,942;46,69503
 335,31;   91,523;   63,267;  119,859;49,92914
 335,90;   45,291;   32,362;   53,836;60,20898
 336,50;   44,079;   30,665;   77,207;28,82087
 337,10;   67,910;   38,769;  121,530;35,21081
 337,69;   61,879;   51,765;   93,707;24,11382
 338,29;   56,887;   30,467;  101,037;37,43798
 338,88;   59,738;   22,468;   99,854;48,16096
 339,48;   78,370;   57,862;  111,677;38,10831
 340,07;   74,437;   48,566;  107,321;44,03129
 340,67;   72,446;   31,171;  124,784;44,09172
 341,26;   72,072;   48,466;   98,942;46,76686
 341,86;   92,953;   61,469;  138,348;40,95177
 342,45;   78,331;   45,669;  142,689;33,66528
 343,05;   65,831;   27,269;  115,689;43,61241
 343,64;   80,058;   47,366;  122,480;43,52292
 344,24;   54,379;   28,765;   92,107;40,43729
 344,83;   83,357;   71,365;  121,747;23,80273
 345,43;   58,780;   29,667;  114,240;34,42356
 346,02;   64,745;   41,469;  124,351;28,08377
 346,62;   88,925;   40,971;  140,424;48,21764
 347,21;   71,643;   42,165;  131,985;32,81886
 347,81;   70,218;   26,172;  140,560;38,50636
 348,40;   46,406;   29,064;  100,731;24,19913
 349,00;   63,863;   49,163;  137,712;16,60118
 349,59;  105,860;   65,870;  177,846;35,71324
 350,19;   61,925;   32,571;  139,424;27,47145
 350,78;   56,723;   55,467;  140,759; 1,47241
 351,38;   56,045;   15,869;  140,951;32,12003
 351,97;   59,880;   26,767;  136,040;30,30304
 352,57;   61,917;   42,570;  155,827;17,08277
 353,16;   50,814;   30,564;  134,328;19,51517
 353,76;   72,160;   38,770;  169,846;25,47395
 354,35;   59,253;   27,669;  160,148;23,84024
 354,95;   81,796;   43,970;  182,067;27,39080
 355,54;   78,481;   38,368;  163,973;31,93551
 356,14;   67,553;   40,069;  164,749;22,04326
 356,73;   58,170;   29,162;  145,176;25,00359
 357,32;   45,602;   13,769;  164,432;21,12901
 357,92;   66,840;   17,772;  181,419;29,98400
 358,51;  101,861;   43,372;  214,179;34,24303
 359,11;   92,618;   36,772;  212,360;31,80550
 359,70;   68,703;   28,470;  189,965;24,91288
 360,30;   87,584;   54,562;  188,039;24,74005
 360,89;   58,738;   31,168;  188,054;17,57307
 361,48;   98,396;   55,570;  216,467;26,61695
 362,08;   66,530;   19,867;  187,156;27,89353
 362,67;   84,420;   39,763;  192,693;29,20120
 363,27;  108,766;   60,767;  247,678;25,67997
 363,86;   90,365;   35,765;  215,745;30,33641
 364,46;  106,606;   44,664;  257,231;29,14035
 365,05;  127,632;   64,659;  254,989;33,08635
 365,64;  112,683;   50,960;  269,706;28,21676
 366,24;  117,803;   38,558;  309,432;29,25532
 366,83;  145,351;   43,255;  335,383;34,94919
 367,43;  152,774;   51,545;  352,843;33,59768
 368,02;  150,532;   34,646;  399,757;31,73990
 368,61;  207,828;   62,239;  475,425;35,23560
 369,21;  181,809;   32,419;  445,299;36,18233
 369,80;  227,466;   43,007;  526,947;38,11602
 370,39;  266,394;   62,006;  604,971;37,64288
 370,99;  269,062;   42,089;  615,416;39,58880
 371,58;  276,253;   22,974;  630,953;41,65923
 372,18;  306,206;   37,166;  701,603;40,49142
 372,77;  300,360;   42,449;  679,385;40,49244
 373,36;  323,009;   42,747;  690,836;43,24435
 373,96;  301,723;   35,135;  639,498;44,11059
 374,55;  291,600;   29,844;  621,406;44,24829
 375,14;  290,239;   42,849;  573,826;46,59142
 375,74;  289,586;   69,157;  543,276;46,49235
 376,33;  242,848;   45,964;  464,589;47,03102
 376,92;  225,020;   33,278;  447,997;46,23417
 377,52;  302,628;   86,103;  548,460;46,83063
 378,11;  250,199;   46,703;  457,203;49,57273
 378,71;  278,997;   73,011;  514,270;46,68137
 379,30;  279,422;   59,517;  553,928;44,47811
 379,89;  298,798;   59,813;  556,103;48,15430
 380,49;  297,151;   31,018;  568,185;49,54378
 381,08;  327,737;   70,306;  570,990;51,41575
 381,67;  311,559;   55,008;  555,483;51,26157
 382,26;  313,637;   41,706;  539,390;54,63917
 382,86;  308,185;   54,003;  516,041;55,01318
 383,45;  339,690;   50,412;  562,105;56,53351
 384,04;  329,947;   38,712;  553,886;56,53141
 384,64;  343,327;   49,014;  566,760;56,84509
 385,23;  350,380;   64,406;  560,509;57,64394
 385,82;  376,885;   59,615;  592,774;59,50759
 386,42;  402,340;   61,024;  659,022;57,07650
 387,01;  381,584;   55,414;  580,541;62,11265
 387,60;  399,288;   69,009;  590,140;63,37745
 388,20;  379,590;   37,712;  590,805;61,81203
 388,79;  440,315;   72,418;  665,563;62,02478
 389,38;  389,137;   32,106;  564,890;67,01222
 389,97;  432,842;   45,415;  640,955;65,05478
 390,57;  460,292;   71,114;  654,038;66,76295
 391,16;  470,092;   62,514;  655,838;68,69388
 391,75;  471,719;   52,713;  638,562;71,52119
 392,34;  496,324;   60,821;  696,694;68,48901
 392,94;  506,858;   44,718;  689,683;71,65357
 393,53;  513,471;   41,016;  666,612;75,52085
 394,12;  541,990;   53,023;  719,105;73,40934
 394,72;  531,941;   54,213;  706,122;73,28139
 395,31;  540,285;   42,115;  694,874;76,31764
 395,90;  574,762;   42,924;  732,881;77,08270
 396,49;  597,042;   58,028;  779,187;74,74276
 397,09;  585,243;   47,417;  749,188;76,63847
 397,68;  638,548;   44,025;  800,719;78,56844
 398,27;  660,349;   54,626;  809,652;80,22541
 398,86;  640,834;   43,125;  807,657;78,17967
 399,45;  673,094;   56,630;  844,037;78,29041
 400,05;  659,552;   23,820;  799,518;81,95612
 400,64;  691,301;   56,419;  831,001;81,96446
 401,23;  701,538;   53,920;  859,956;80,34604
 401,82;  726,638;   67,220;  868,256;82,32063
 402,42;  734,045;   62,921;  873,953;82,74941
 403,01;  791,548;   81,525;  912,919;85,40146
 403,60;  791,266;   68,532;  940,513;82,88420
 404,19;  789,705;   76,024;  931,900;83,38597
 404,78;  767,917;   57,522;  909,929;83,33992
 405,38;  827,774;   68,332;  984,210;82,91951
 405,97;  805,706;   63,226;  953,933;83,35847
 406,56;  851,607;   71,528; 1004,366;83,62427
 407,15;  842,979;   68,829;  989,442;84,09072
 407,74;  877,729;   80,730; 1026,758;84,24690
 408,34;  861,317;   50,933; 1018,629;83,74362
 408,93;  912,002;   59,531; 1016,234;89,10502
 409,52;  888,625;   51,435; 1041,359;84,57113
 410,11;  961,145;   84,931; 1090,453;87,14016
 410,70;  915,613;   54,727; 1027,230;88,52271
 411,29;  924,564;   58,628; 1030,847;89,06799
 411,89;  958,590;   60,535; 1093,938;86,90268
 412,48;  962,885;   48,228; 1051,606;91,15777
 413,07;  982,267;   65,033; 1101,446;88,50087
 413,66;  987,347;   78,135; 1102,119;88,79161
 414,25; 1016,869;   63,337; 1142,311;88,37398
 414,84; 1009,202;   69,431; 1102,434;90,97460
 415,44; 1030,586;   91,530; 1155,939;88,22325
 416,03; 1035,583;   76,637; 1161,173;88,41995
 416,62; 1046,541;   76,138; 1168,687;88,82011
 417,21; 1071,375;   75,334; 1158,843;91,92731
 417,80; 1064,191;   65,037; 1162,871;91,01140
 418,39; 1081,600;   78,440; 1179,201;91,13328
 418,98; 1058,289;   55,634; 1143,405;92,17516
 419,58; 1038,803;   64,033; 1142,067;90,42105
 420,17; 1067,082;   52,735; 1164,540;91,23425
 420,76; 1096,483;   72,537; 1192,873;91,39636
 421,35; 1062,711;   60,236; 1155,197;91,55350
 421,94; 1097,700;   88,340; 1223,501;88,91774
 422,53; 1068,343;   61,540; 1195,320;88,80052
 423,12; 1088,206;   64,039; 1190,766;90,89756
 423,71; 1059,990;   60,835; 1162,138;90,72479
 424,30; 1081,719;   85,236; 1210,695;88,54014
 424,90; 1042,077;   39,438; 1163,809;89,17335
 425,49; 1092,478;   70,140; 1216,242;89,20135
 426,08; 1087,978;   80,240; 1209,641;89,22762
 426,67; 1063,533;   57,436; 1168,257;90,57238
 427,26; 1077,330;   60,343; 1230,391;86,91839
 427,85; 1068,598;   63,238; 1209,968;87,67193
 428,44; 1091,422;   68,442; 1218,093;88,98177
 429,03; 1095,836;   85,341; 1233,155;88,03646
 429,62; 1081,615;   78,941; 1240,296;86,33654
 430,21; 1090,680;   81,443; 1277,807;84,35868
 430,80; 1064,960;   70,445; 1235,381;85,37080
 431,39; 1076,223;   53,344; 1246,926;85,69827
 431,99; 1038,490;   78,535; 1206,838;85,07953
 432,58; 1071,906;   82,639; 1251,166;84,65935
 433,17; 1043,347;   69,735; 1238,319;83,31553
 433,76; 1081,861;   71,347; 1288,314;83,03547
 434,35; 1092,917;   88,245; 1292,462;83,42949
 434,94; 1105,041;   70,849; 1318,887;82,86539
 435,53; 1081,394;   78,643; 1278,669;83,56077
 436,12; 1087,202;   70,044; 1294,267;83,08601
 436,71; 1097,486;   87,740; 1303,239;83,07251
 437,30; 1089,972;   76,941; 1299,177;82,88339
 437,89; 1129,195;   76,245; 1320,802;84,60442
 438,48; 1129,208;   65,942; 1305,731;85,76183
 439,07; 1121,063;   95,238; 1347,147;81,94088
 439,66; 1174,668;   83,648; 1375,711;84,44020
 440,25; 1189,802;   85,844; 1390,567;84,61244
 440,84; 1200,448;   79,850; 1387,984;85,66384
 441,43; 1227,844;   78,054; 1440,985;84,36153
 442,02; 1243,734;   79,650; 1411,022;87,43490
 442,61; 1257,923;   93,344; 1397,226;89,31628
 443,20; 1275,727;   94,249; 1446,625;87,36310
 443,79; 1278,932;   74,546; 1412,957;89,98628
 444,38; 1320,333;   84,248; 1461,789;89,73124
 444,97; 1349,424;   84,146; 1466,359;91,54004
 445,56; 1393,389;  101,846; 1477,038;93,91731
 446,15; 1401,485;   81,651; 1522,539;91,59865
 446,74; 1392,945;   58,644; 1462,286;95,05993
 447,33; 1461,232;   82,646; 1538,357;94,70192
 447,92; 1500,042;   78,151; 1570,720;95,26468
 448,51; 1526,946;   89,746; 1586,019;96,05201
 449,10; 1554,581;   92,045; 1608,840;96,42280
 449,69; 1581,277;   73,950; 1627,741;97,00963
 450,28; 1621,147;   66,948; 1608,251;100,83666
 450,87; 1638,004;   78,647; 1656,333;98,83827
 451,46; 1683,376;   96,048; 1702,208;98,82749
 452,05; 1710,448;   70,950; 1715,384;99,69982
 452,64; 1742,456;   70,850; 1725,182;101,04416
 453,23; 1810,292;  113,752; 1794,936;100,91341
 453,82; 1799,520;   83,451; 1800,660;99,93361
 454,40; 1820,356;   65,450; 1786,682;101,95638
 454,99; 1928,629;  101,253; 1871,891;103,20439
 455,58; 1899,518;   69,747; 1832,095;103,82577
 456,17; 1939,100;   63,852; 1873,634;103,61735
 456,76; 1973,542;   67,751; 1918,820;102,95623
 457,35; 2021,433;   78,348; 1930,490;104,91018
 457,94; 2013,515;   66,954; 1978,929;101,80893
 458,53; 2035,799;   67,350; 2010,101;101,32276
 459,12; 2136,252;   82,657; 2111,116;101,23919
 459,71; 2135,890;   58,148; 2060,071;103,78734
 460,30; 2152,868;   84,448; 2087,511;103,26287
 460,89; 2197,742;   57,551; 2129,920;103,27268
 461,48; 2242,715;   75,954; 2173,829;103,28362
 462,06; 2228,291;   68,050; 2187,303;101,93406
 462,65; 2227,119;   48,249; 2176,527;102,37712
 463,24; 2321,659;   87,456; 2288,680;101,49819
 463,83; 2279,891;   54,450; 2229,803;102,30251
 464,42; 2330,041;   88,349; 2333,687;99,83760
 465,01; 2357,856;   73,050; 2336,482;100,94431
 465,60; 2347,034;   64,050; 2384,322;98,39294
 466,19; 2395,215;   73,354; 2462,829;97,17035
 466,77; 2405,285;   81,551; 2462,939;97,57897
 467,36; 2422,831;   69,457; 2459,256;98,47580
 467,95; 2407,506;   79,551; 2466,098;97,54489
 468,54; 2441,101;   71,954; 2513,866;97,02014
 469,13; 2435,671;   69,452; 2535,977;95,93330
 469,72; 2479,930;   67,555; 2582,723;95,91306
 470,31; 2461,773;   87,855; 2629,242;93,41031
 470,90; 2454,170;   76,750; 2652,044;92,31644
 471,48; 2471,274;   32,057; 2671,875;92,40095
 472,07; 2537,339;  125,747; 2686,454;94,17681
 472,66; 2505,764;   67,853; 2748,412;90,94787
 473,25; 2531,085;   68,351; 2723,339;92,75876
 473,84; 2575,865;   55,955; 2766,545;92,96539
 474,43; 2596,554;   55,459; 2843,049;91,15741
 475,01; 2635,222;   69,254; 2885,926;91,09930
 475,60; 2673,908;   49,755; 2882,364;92,64086
 476,19; 2706,903;   74,158; 2956,932;91,32678
 476,78; 2740,931;   71,057; 2964,456;92,27465
 477,37; 2763,308;   59,355; 2945,364;93,69178
 477,95; 2806,816;   75,656; 3018,661;92,80173
 478,54; 2827,029;   63,253; 3023,691;93,35700
 479,13; 2865,129;   56,253; 3070,291;93,19313
 479,72; 2944,358;   81,154; 3090,147;95,15487
 480,31; 2994,397;   63,459; 3167,468;94,42427
 480,89; 2953,222;   60,254; 3171,026;92,99840
 481,48; 3020,747;   46,260; 3214,084;93,89685
 482,07; 3067,401;   61,654; 3233,866;94,75238
 482,66; 3053,950;   52,853; 3253,650;93,76094
 483,25; 3135,947;   78,960; 3319,884;94,32456
 483,83; 3157,744;   59,954; 3325,385;94,86617
 484,42; 3189,615;   54,354; 3355,129;94,98560
 485,01; 3229,760;   65,958; 3400,413;94,88212
 485,60; 3288,328;   73,764; 3490,590;94,08040
 486,18; 3279,716;   66,956; 3490,761;93,83594
 486,77; 3305,392;   67,252; 3519,736;93,79160
 487,36; 3349,449;   58,464; 3561,750;93,93996
 487,95; 3369,355;   59,161; 3640,781;92,42168
 488,53; 3364,733;   54,461; 3642,522;92,25796
 489,12; 3411,042;   50,563; 3722,252;91,52405
 489,71; 3383,827;   38,062; 3680,357;91,85869
 490,30; 3426,490;   61,460; 3742,503;91,41512
 490,88; 3447,076;   87,561; 3859,141;89,07447
 491,47; 3422,063;   60,663; 3867,512;88,29876
 492,06; 3430,756;   62,563; 3920,615;87,30295
 492,65; 3437,019;   59,161; 3947,060;86,88133
 493,23; 3419,626;   54,860; 3982,825;85,66181
 493,82; 3414,607;   65,853; 4018,031;84,73187
 494,41; 3371,662;   51,361; 4066,179;82,70117
 494,99; 3428,965;   73,655; 4126,945;82,77993
 495,58; 3434,390;   86,060; 4224,403;80,90992
 496,17; 3413,559;   56,356; 4198,681;81,04635
 496,76; 3377,016;   65,356; 4276,761;78,63551
 497,34; 3329,396;   54,557; 4305,235;77,04273
 497,93; 3330,774;   66,057; 4350,675;76,19622
 498,52; 3337,640;   60,059; 4454,387;74,58662
 499,10; 3309,348;   75,862; 4533,217;72,54272
 499,69; 3293,783;   55,360; 4537,006;72,25968
 500,28; 3246,797;   37,959; 4592,068;70,46027
 500,86; 3240,884;   62,862; 4698,539;68,55573
 501,45; 3240,784;   53,462; 4730,438;68,14920
 502,04; 3196,027;   53,362; 4813,958;66,01411
 502,62; 3204,259;   70,956; 4856,181;65,47870
 503,21; 3161,002;   57,856; 4939,699;63,56505
 503,80; 3162,170;   69,662; 5015,577;62,52651
 504,38; 3145,226;   58,460; 5081,425;61,45307
 504,97; 3151,470;   49,962; 5122,776;61,13979
 505,56; 3118,532;   70,859; 5194,989;59,47689
 506,14; 3150,371;   64,064; 5263,709;59,35611
 506,73; 3125,779;   23,565; 5292,507;58,87736
 507,32; 3146,665;   62,865; 5376,045;58,04056
 507,90; 3162,647;   70,860; 5443,284;57,54920
 508,49; 3174,600;   58,865; 5500,366;57,25874
 509,08; 3224,406;   67,264; 5571,931;57,35393
 509,66; 3261,369;   69,960; 5677,644;56,91135
 510,25; 3259,698;   63,561; 5737,400;56,33111
 510,83; 3294,779;   45,165; 5855,607;55,92714
 511,42; 3323,359;   61,968; 5895,913;55,90370
 512,01; 3346,714;   59,164; 5980,328;55,52202
 512,59; 3397,770;   46,562; 6041,676;55,89898
 513,18; 3427,462;   59,961; 6114,379;55,62056
 513,77; 3460,709;   42,257; 6171,797;55,77013
 514,35; 3498,134;   37,763; 6190,255;56,24341
 514,94; 3571,348;   58,662; 6323,517;56,06972
 515,52; 3589,672;   48,166; 6358,342;56,12373
 516,11; 3690,657;   80,665; 6474,047;56,46451
 516,69; 3636,418;   41,959; 6446,727;56,12161
 517,28; 3712,781;   83,358; 6541,973;56,19508
 517,87; 3716,339;   45,558; 6604,054;55,96986
 518,45; 3710,625;   74,858; 6626,192;55,49658
 519,04; 3766,089;   54,258; 6707,970;55,78586
 519,62; 3785,356;   55,863; 6774,114;55,51286
 520,21; 3843,694;   24,466; 6828,002;56,13592
 520,79; 3907,373;   52,068; 7000,875;55,48154
 521,38; 3890,712;   52,960; 6995,363;55,27987
 521,97; 3984,138;   43,068; 7141,554;55,51986
 522,55; 3992,311;   67,759; 7195,230;55,06233
 523,14; 4019,932;   26,759; 7180,289;55,82102
 523,72; 4142,933;   77,561; 7383,422;55,64536
 524,31; 4175,479;   71,665; 7406,107;55,95264
 524,89; 4215,352;   48,468; 7526,815;55,71931
 525,48; 4278,058;   21,666; 7603,580;56,13875
 526,06; 4325,714;   56,264; 7633,128;56,34850
 526,65; 4447,682;   72,370; 7803,105;56,59632
 527,23; 4433,913;   46,262; 7840,596;56,29283
 527,82; 4531,565;   37,967; 7905,978;57,11226
 528,41; 4619,137;   67,366; 8041,021;57,08512
 528,99; 4684,600;   66,365; 8108,167;57,42787
 529,58; 4703,091;   42,562; 8168,736;57,35207
 530,16; 4841,063;   49,461; 8315,379;57,96817
 530,75; 4951,692;   73,964; 8417,069;58,46418
 531,33; 4991,458;   45,566; 8440,980;58,91182
 531,92; 5056,269;   48,560; 8567,344;58,78431
 532,50; 5210,596;   87,770; 8706,468;59,43851
 533,09; 5275,686;   65,665; 8807,204;59,60073
 533,67; 5341,368;   63,458; 8952,011;59,37873
 534,26; 5449,304;   65,760; 9007,665;60,20579
 534,84; 5486,319;   68,461; 9127,061;59,80901
 535,42; 5589,092;   61,564; 9205,969;60,44711
 536,01; 5669,956;   79,263; 9330,215;60,43371
 536,59; 5721,394;   43,366; 9482,202;60,15601
 537,18; 5861,183;   77,360; 9568,605;60,93850
 537,76; 5935,097;   56,972; 9764,700;60,55098
 538,35; 5998,916;   59,368; 9892,694;60,40223
 538,93; 6107,014;   72,664; 9941,828;61,14348
 539,52; 6166,382;   57,370;10111,405;60,76179
 540,10; 6252,610;   63,269;10309,029;60,40880
 540,69; 6397,785;   68,763;10444,071;61,00081
 541,27; 6412,448;   58,262;10514,917;60,76691
 541,85; 6490,650;   47,366;10658,783;60,72030
 542,44; 6493,147;   56,460;10765,484;60,10526
 543,02; 6664,810;   80,369;10952,729;60,56128
 543,61; 6724,944;   77,067;11102,218;60,29738
 544,19; 6815,029;   55,066;11264,023;60,30858
 544,78; 6878,215;   62,766;11296,562;60,66916
 545,36; 6977,867;   77,469;11521,011;60,29949
 545,94; 6983,493;   54,564;11563,069;60,20702
 546,53; 7024,054;   52,771;11724,882;59,72598
 547,11; 7119,281;   90,668;11879,873;59,61905
 547,70; 7164,283;   75,860;11954,706;59,67266
 548,28; 7198,600;   47,965;12093,066;59,36550
 548,86; 7366,800;   81,365;12327,767;59,49041
 549,45; 7356,638;   33,768;12364,953;59,38496
 550,03; 7441,187;   76,467;12507,537;59,24446
 550,62; 7535,672;   63,566;12662,842;59,30584
 551,20; 7632,944;   61,467;12808,418;59,39834
 551,78; 7641,950;   61,164;12952,850;58,80368
 552,37; 7689,192;   55,864;13112,469;58,46335
 552,95; 7792,657;   56,765;13214,547;58,79329
 553,54; 7828,079;   49,965;13393,207;58,29253
 554,12; 7907,009;   67,167;13498,797;58,36851
 554,70; 8064,781;   67,568;13736,973;58,50447
 555,29; 8088,343;   61,965;13856,285;58,18611
 555,87; 8090,439;   60,170;13987,786;57,65717
 556,45; 8180,027;   57,162;14154,058;57,62166
 557,04; 8282,701;   43,667;14376,600;57,48324
 557,62; 8355,401;   68,867;14525,499;57,31995
 558,20; 8479,275;   42,671;14799,940;57,16914
 558,79; 8596,373;  100,368;14905,875;57,38409
 559,37; 8588,744;   49,867;15000,418;57,11413
 559,95; 8705,924;   46,669;15169,691;57,25876
 560,54; 8793,659;   71,768;15324,613;57,18206
 561,12; 8803,615;   50,866;15485,562;56,70827
 561,70; 8908,146;   50,369;15679,551;56,67460
 562,29; 9062,716;   61,768;15810,994;57,15168
 562,87; 9100,737;   73,168;16023,953;56,59639
 563,45; 9206,638;   71,068;16194,754;56,65931
 564,04; 9192,313;   54,362;16227,195;56,50185
 564,62; 9285,902;   37,769;16438,332;56,38912
 565,20; 9400,284;   59,962;16715,838;56,07824
 565,78; 9511,121;   70,765;16797,326;56,43931
 566,37; 9516,551;   71,066;17011,283;55,75776
 566,95; 9648,010;   52,969;17124,330;56,20548
 567,53; 9682,427;   67,262;17308,857;55,76726
 568,12; 9763,000;   62,265;17367,766;56,05579
 568,70; 9881,535;   85,264;17565,889;56,04074
 569,28;10006,745;   61,069;17745,252;56,24052
 569,86;10048,623;   67,767;17910,758;55,93713
 570,45;10218,031;   78,569;18124,689;56,18638
 571,03;10177,405;   53,962;18259,898;55,60518
 571,61;10336,825;   46,571;18424,824;55,99147
 572,19;10279,178;   54,263;18395,773;55,74740
 572,78;10413,373;   70,668;18668,975;55,61100
 573,36;10450,292;   84,264;18797,668;55,39360
 573,94;10601,649;   44,064;18892,750;56,01232
 574,52;10641,896;   54,559;19030,768;55,79269
 575,11;10672,507;   37,264;19159,830;55,61619
 575,69;10764,658;   53,566;19268,680;55,74306
 576,27;10813,354;   47,161;19391,381;55,65587
 576,85;10984,792;   43,264;19549,668;56,09198
 577,44;10978,026;   30,262;19814,158;55,33675
 578,02;10977,239;   32,159;19753,887;55,49757
 578,60;11113,028;   50,464;20073,791;55,24838
 579,18;11225,242;   51,963;20160,752;55,56416
 579,76;11236,014;   40,264;20300,129;55,26073
 580,35;11314,975;   60,170;20436,707;55,23414
 580,93;11460,830;   59,667;20641,557;55,39415
 581,51;11508,896;   24,770;20697,168;55,55294
 582,09;11521,635;   58,663;20755,756;55,38445
 582,67;11605,244;   49,567;20971,318;55,23284
 583,26;11743,259;   28,568;21227,014;55,26203
 583,84;11809,071;   14,164;21413,709;55,11756
 584,42;11938,936;   48,064;21513,287;55,39598
 585,00;12054,658;   81,366;21772,180;55,19983
 585,58;12037,501;   25,167;21912,299;54,88309
 586,17;12089,033;   46,761;21948,521;54,98313
 586,75;12015,693;    6,666;22026,902;54,53632
 587,33;12165,065;   47,767;22191,678;54,72068
 587,91;12208,693;   74,866;22390,201;54,37439
 588,49;12278,526;   63,962;22349,758;54,80874
 589,07;12200,651;   45,468;22403,215;54,36676
 589,65;12265,080;   28,267;22444,439;54,58922
 590,24;12255,205;   42,562;22447,799;54,50799
 590,82;12296,319;   28,261;22484,160;54,63178
 591,40;12221,771;   41,464;22520,209;54,18588
 591,98;12244,118;   45,759;22558,227;54,18490
 592,56;12326,220;   61,161;22699,961;54,17716
 593,14;12295,918;   43,359;22728,928;54,01037
 593,72;12385,679;   29,765;22889,107;54,05192
 594,30;12291,140;   36,759;22797,486;53,84002
 594,89;12332,914;   41,364;22862,428;53,86055
 595,47;12325,434;   38,961;22922,623;53,69103
 596,05;12353,301;   30,267;23003,799;53,64014
 596,63;12402,501;   31,167;23056,199;53,72993
 597,21;12409,072;   36,766;23145,441;53,53966
 597,79;12506,180;   35,467;23166,039;53,91442
 598,37;12489,553;   36,669;23222,748;53,70845
 598,95;12455,894;   50,766;23305,301;53,34498
 599,53;12456,010;   46,757;23207,996;53,57767
 600,11;12533,457;   48,665;23341,947;53,59825
 600,70;12414,964;   57,363;23315,111;53,13326
 601,28;12360,371;   38,564;23424,809;52,68827
 601,86;12328,094;   61,766;23355,102;52,66025
 602,44;12297,319;   23,661;23449,660;52,39332
 603,02;12218,237;   38,656;23576,521;51,74463
 603,60;12236,403;   54,858;23663,232;51,59841
 604,18;12146,398;   69,263;23594,734;51,33642
 604,76;11949,935;   59,263;23642,154;50,42075
 605,34;11825,808;   27,565;23530,764;50,19845
 605,92;11610,341;   59,561;23453,719;49,37463
 606,50;11462,205;   17,662;23498,998;48,73889
 607,08;11285,658;   31,666;23394,881;48,16971
 607,66;11114,572;   39,266;23561,643;47,08413
 608,24;11058,923;   46,067;23522,059;46,91114
 608,82;10927,007;   26,164;23532,031;46,37499
 609,40;10732,036;   46,466;23471,021;45,61696
 609,98;10696,914;   18,864;23505,928;45,46354
 610,56;10729,611;   43,861;23497,662;45,56085
 611,14;10726,243;   30,765;23481,086;45,60909
 611,72;10851,800;   42,665;23572,467;45,93806
 612,30;10801,613;   24,962;23468,496;45,96854
 612,88;10933,911;   60,659;23517,730;46,35384
 613,46;10965,005;   21,862;23505,697;46,59862
 614,04;10998,581;   30,068;23461,873;46,81036
 614,62;10983,755;   41,561;23489,982;46,66495
 615,20;11027,151;   52,768;23402,416;47,00021
 615,78;11074,310;   25,569;23463,430;47,14057
 616,36;11044,850;   41,364;23400,150;47,10641
 616,94;10978,772;    7,666;23272,242;47,15799
 617,52;10963,030;   24,067;23373,656;46,84863
 618,10;10912,476;   63,559;23336,107;46,61680
 618,68;10810,150;   17,966;23253,184;46,44753
 619,26;10800,694;   39,268;23398,834;46,06861
 619,84;10618,999;   18,963;23277,133;45,57554
 620,42;10543,078;   31,165;23313,506;45,14973
 621,00;10504,278;   28,865;23209,607;45,19016
 621,58;10433,383;   38,760;23216,406;44,84762
 622,16;10361,703;   49,270;23335,164;44,28618
 622,74;10351,372;   47,066;23327,742;44,26120
 623,32;10234,429;   42,166;23291,223;43,83947
 623,90;10217,347;   66,971;23311,484;43,66784
 624,48;10093,306;   32,662;23196,598;43,43236
 625,05;10048,205;   34,562;23105,098;43,40447
 625,63;10027,205;   52,962;23188,799;43,11166
 626,21; 9988,113;   38,262;23117,596;43,11152
 626,79;10006,145;   53,967;23219,719;42,96074
 627,37; 9823,448;   28,162;23090,717;42,47269
 627,95; 9855,651;   72,768;23200,215;42,29989
 628,53; 9759,578;   49,365;23176,607;41,98604
 629,11; 9666,454;   48,259;23043,449;41,82699
 629,69; 9716,502;   53,369;23256,932;41,64504
 630,27; 9541,099;   80,763;23105,434;41,08782
 630,84; 9424,306;   43,862;23021,197;40,82477
 631,42; 9411,230;   54,367;23319,656;40,21813
 632,00; 9289,696;   45,459;23125,768;40,05249
 632,58; 9216,485;   50,263;23105,172;39,75822
 633,16; 9150,582;   49,870;23096,906;39,48756
 633,74; 9014,836;   56,264;23018,488;39,01439
 634,32; 8866,876;   45,661;23007,842;38,41628
 634,90; 8891,761;   51,970;23195,746;38,19511
 635,47; 8751,169;   38,860;23035,645;37,88490
 636,05; 8733,076;   37,461;22989,342;37,88629
 636,63; 8697,979;   45,965;23104,807;37,52146
 637,21; 8807,514;   67,464;23150,529;37,86347
 637,79; 8795,486;   71,465;23192,904;37,73131
 638,37; 8749,951;   54,055;23070,883;37,78060
 638,94; 8750,143;   33,265;23100,686;37,78870
 639,52; 8782,343;   41,665;23195,285;37,75080
 640,10; 8867,274;   64,264;23215,900;38,02328
 640,68; 8885,539;   54,164;23175,334;38,19606
 641,26; 8917,704;   35,864;23250,268;38,26004
 641,84; 8975,470;   39,164;23235,002;38,52547
 642,41; 8959,734;   28,264;23192,936;38,55643
 642,99; 8969,500;   48,464;23145,568;38,62405
 643,57; 8900,364;   22,064;23158,402;38,37383
 644,15; 8861,830;   27,064;23178,035;38,16154
 644,73; 8922,395;   37,564;23277,568;38,23076
 645,30; 8868,860;   55,264;23230,303;38,03056
 645,88; 8771,125;   44,964;23362,635;37,42295
 646,46; 8713,390;   59,264;23447,568;37,00194
 647,04; 8627,155;   51,864;23367,902;36,77851
 647,61; 8465,420;   46,564;23396,336;36,05541
 648,19; 8382,686;   61,664;23433,369;35,60297
 648,77; 8276,450;   26,264;23442,002;35,23351
 649,35; 8263,915;   51,064;23590,137;34,89029
 649,92; 8118,680;   42,464;23596,070;34,28866
 650,50; 8095,045;   30,064;23551,104;34,28837
 651,08; 7990,710;   39,964;23450,537;33,96220
 651,66; 7983,275;   21,864;23534,770;33,85975
 652,23; 8036,341;   39,064;23561,004;33,99922
 652,81; 8077,306;   36,464;23644,137;34,06029
 653,39; 8071,571;   56,164;23647,170;33,97654
 653,97; 8134,336;   37,065;23882,504;33,95732
 654,54; 8141,901;   23,565;23823,137;34,11127
 655,12; 8302,366;   30,965;23831,971;34,75232
 655,70; 8338,231;   42,065;23962,805;34,68190
 656,28; 8351,996;   32,765;23947,037;34,78773
 656,85; 8426,661;   44,065;24051,070;34,91729
 657,43; 8436,326;   -1,035;23831,305;35,40299
 658,01; 8530,591;   21,465;24078,539;35,37058
 658,58; 8602,057;   55,165;24234,371;35,34811
 659,16; 8583,621;   51,965;24154,105;35,39792
 659,74; 8585,387;   59,465;24338,039;35,11706
 660,32; 8596,651;   71,665;24327,672;35,14588
 660,89; 8553,316;   34,265;24347,305;35,03902
 661,47; 8564,382;   51,665;24464,939;34,86921
 662,05; 8512,247;   25,365;24587,373;34,55288
 662,62; 8551,812;   59,665;24584,006;34,62742
 663,20; 8527,477;   80,665;24740,139;34,25382
 663,78; 8482,942;   47,965;24902,773;33,93700
 664,35; 8424,207;   52,465;24921,006;33,66399
 664,93; 8408,372;   64,465;25123,539;33,29695
 665,51; 8363,137;   49,565;25170,973;33,09357
 666,08; 8357,103;   30,165;25185,707;33,10180
 666,66; 8483,268;   47,465;25667,539;32,92653
 667,23; 8520,732;   51,765;25732,773;32,97755
 667,81; 8587,997;   65,865;25889,307;33,00153
 668,39; 8688,962;   43,265;26047,141;33,24772
 668,96; 8777,827;   54,665;26309,074;33,22551
 669,54; 8893,692;   38,765;26408,408;33,58000
 670,12; 9067,558;   51,165;26808,740;33,69660
 670,69; 9216,522;   64,165;26950,674;34,04071
 671,27; 9274,388;   25,565;27096,008;34,16576
 671,84; 9319,953;   40,665;27105,240;34,28573
 672,42; 9471,918;   66,265;27253,875;34,59536
 673,00; 9625,183;   57,165;27531,408;34,82541
 673,57; 9660,148;   59,965;27276,441;35,27342
 674,15; 9738,513;   64,065;27613,475;35,11671
 674,72; 9604,778;   58,565;27536,209;34,74174
 675,30; 9639,144;   69,466;27513,541;34,86974
 675,88; 9630,608;   36,266;27573,176;34,84176
 676,45; 9609,873;   59,466;27677,309;34,58057
 677,03; 9555,438;   67,866;27525,043;34,55407
 677,60; 9497,003;   41,466;27770,576;34,09968
 678,18; 9506,169;   59,466;27877,510;33,95891
 678,76; 9438,334;   40,766;27809,143;33,84270
 679,33; 9394,999;   57,666;27813,176;33,64137
 679,91; 9272,164;   44,266;27813,311;33,23088
 680,48; 9298,729;   28,766;27740,242;33,45171
 681,06; 9217,594;   50,866;27735,176;33,11164
 681,63; 9074,858;   37,566;27736,209;32,62720
 682,21; 9163,324;   67,966;27797,543;32,80021
 682,78; 9069,688;   20,566;27459,576;32,97904
 683,36; 9094,654;   46,966;27565,510;32,87851
 683,93; 9135,919;   30,466;27450,645;33,20713
 684,51; 9146,484;   26,166;27477,277;33,22386
 685,08; 9312,549;   38,966;27733,711;33,48499
 685,66; 9329,614;   53,066;27694,045;33,56085
 686,24; 9523,879;   33,766;27796,578;34,18282
 686,81; 9647,145;   57,666;27899,910;34,44219
 687,39; 9681,209;   38,866;27807,844;34,72343
 687,96; 9812,875;   54,166;27850,479;35,10793
 688,54; 9867,840;   30,866;27984,811;35,18993
 689,11;10041,305;   26,966;28043,545;35,74433
 689,69;10058,170;   29,666;28019,279;35,82938
 690,26;10260,935;   59,466;28289,313;36,13717
 690,84;10240,899;   50,066;28239,846;36,15081
 691,41;10343,965;   35,966;28403,879;36,33682
 691,98;10349,530;   31,466;28427,912;36,33576
 692,56;10385,195;   32,866;28437,445;36,44599
 693,13;10499,460;   64,866;28655,080;36,49708
 693,71;10461,525;   24,466;28657,912;36,45059
 694,28;10553,490;   41,966;28715,945;36,65876
 694,86;10521,056;   47,266;28928,879;36,26456
 695,43;10465,021;   61,366;29100,912;35,82582
 696,01;10428,585;   36,266;29145,547;35,70105
 696,58;10398,450;   42,167;29083,879;35,66003
 697,16;10437,915;   38,067;29126,414;35,75263
 697,73;10447,881;   63,467;29338,246;35,47222
 698,30;10443,546;   51,867;29223,980;35,62196
 698,88;10482,911;   40,467;29558,613;35,37636
 699,45;10539,376;   35,367;29765,848;35,33077
 700,03;10634,641;   56,067;29750,980;35,62419
 700,60;10784,506;   56,267;29850,613;36,00763
 701,18;10880,471;   61,867;29963,947;36,18010
 701,75;11012,136;   74,367;30094,682;36,43456
 702,32;11056,602;   50,367;29901,914;36,86990
 702,90;11226,066;   52,467;30254,148;36,99661
 703,47;11388,631;   51,367;30428,881;37,32124
 704,05;11548,496;   67,767;30546,715;37,66773
 704,62;11647,762;   39,867;30587,848;37,99889
 705,19;11759,927;   43,667;30586,982;38,35949
 705,77;11918,392;   29,967;30618,314;38,86586
 706,34;11998,356;   61,667;30627,049;39,05297
 706,91;12205,922;   46,367;30673,883;39,70141
 707,49;12387,887;   57,267;30976,316;39,88033
 708,06;12444,252;   66,367;31089,049;39,89947
 708,64;12430,316;   25,767;31093,582;39,92733
 709,21;12581,282;   58,167;31179,316;40,23989
 709,78;12711,247;   41,367;31281,150;40,55688
 710,36;12782,312;   61,667;31419,684;40,56585
 710,93;12879,377;   50,567;31562,416;40,71107
 711,50;12982,342;   44,467;31506,049;41,12277
 712,08;13118,107;   76,567;31925,383;40,94827
 712,65;13072,372;   73,667;31775,916;41,00247
 713,22;13056,938;   69,067;31900,250;40,80235
 713,80;13215,702;   84,167;31966,883;41,18700
 714,37;13059,167;   55,767;31827,018;40,92820
 714,94;13128,633;   53,967;31727,551;41,27940
 715,52;13206,397;   47,867;31732,984;41,52906
 716,09;13352,963;   65,467;31891,918;41,74985
 716,66;13287,428;   73,467;31935,051;41,47302
 717,23;13403,093;   66,867;31908,484;41,88300
 717,81;13520,158;   50,168;31812,018;42,40934
 718,38;13438,423;   47,468;31671,252;42,34457
 718,95;13562,788;   59,068;31618,984;42,78757
 719,53;13596,653;   56,568;31661,418;42,84180
 720,10;13592,018;   59,968;31481,252;43,06651
 720,67;13599,083;   35,768;31355,984;43,30530
 721,24;13729,648;   59,468;31256,020;43,81952
 721,82;13807,913;   49,968;31236,053;44,11565
 722,39;13974,778;   64,068;31235,885;44,62592
 722,96;14057,844;   64,968;31261,420;44,85406
 723,53;14165,809;   88,268;31151,953;45,31832
 724,11;14288,474;   61,568;31207,486;45,67823
 724,68;14272,839;   71,568;31242,020;45,56004
 725,25;14490,504;   72,768;31399,953;46,02308
 725,82;14646,769;   96,068;31564,387;46,23921
 726,40;14689,233;   62,668;31714,820;46,21033
 726,97;14914,898;   62,168;31875,354;46,68734
 727,54;14939,063;   46,968;31801,486;46,89756
 728,11;15011,329;   49,568;32045,820;46,76098
 728,69;15071,294;   39,568;31938,953;47,12231
 729,26;15191,559;   53,568;32105,088;47,23018
 729,83;15250,324;   53,268;32264,621;47,17919
 730,40;15237,089;   66,768;32291,754;47,07627
 730,97;15384,154;   44,268;32590,588;47,13248
 731,55;15496,119;   41,468;32755,820;47,24120
 732,12;15504,984;   86,268;32841,656;47,07231
 732,69;15679,550;   66,968;32889,988;47,56595
 733,26;15656,914;   55,168;32930,520;47,45727
 733,83;15802,079;   41,168;32979,055;47,85040
 734,41;15911,645;   65,468;32991,590;48,12646
 734,98;15933,909;   51,368;33155,621;47,97734
 735,55;16045,475;   43,168;33183,656;48,28627
 736,12;16129,840;   65,968;33377,289;48,22346
 736,69;16271,505;   76,968;33377,922;48,63085
 737,26;16331,870;   57,468;33552,254;48,58787
 737,84;16438,834;   70,768;33487,188;48,98211
 738,41;16504,100;   63,168;33492,422;49,18127
 738,98;16462,266;   63,569;33375,055;49,22836
 739,55;16537,330;   49,669;33377,789;49,47072
 740,12;16688,295;   62,969;33678,023;49,45798
 740,69;16775,160;   70,569;33575,656;49,85688
 741,26;16779,725;   56,269;33557,391;49,91909
 741,83;16846,291;   53,869;33719,523;49,87998
 742,41;17089,455;   56,169;33833,055;50,42882
 742,98;17236,920;   91,469;33874,590;50,75153
 743,55;17270,785;   53,569;33836,824;50,96376
 744,12;17382,250;   50,469;33859,855;51,26322
 744,69;17356,615;   59,569;33848,492;51,19147
 745,26;17217,781;   42,169;33677,723;51,06386
 745,83;17401,646;   58,769;33854,355;51,31699
 746,40;17355,410;   57,969;33844,789;51,19582
 746,97;17403,875;   44,769;33828,125;51,38360
 747,55;17497,041;   62,269;33966,957;51,42289
 748,12;17424,707;   57,869;33910,191;51,30176
 748,69;17481,971;   68,769;33877,625;51,50485
 749,26;17610,836;   65,069;33958,559;51,76737
 749,83;17582,701;   42,569;33911,992;51,78751
 750,40;17671,967;   89,669;34158,824;51,60767
 750,97;17717,230;   96,269;34144,160;51,75346
 751,54;17642,496;   40,569;33980,793;51,86155
 752,11;17531,061;   52,969;33874,727;51,67706
 752,68;17517,627;   87,869;33912,859;51,52923
 753,25;17545,992;   60,269;33774,594;51,86437
 753,82;17641,156;   65,069;33810,527;52,08430
 754,39;17641,621;   75,169;33727,160;52,20033
 754,96;17582,986;   60,069;33616,395;52,21942
 755,53;17641,752;   29,469;33796,527;52,15818
 756,10;17683,316;   64,169;33720,961;52,34946
 756,67;17625,482;   73,369;33813,395;52,02164
 757,24;17596,646;   72,769;33740,426;52,04959
 757,81;17551,213;   16,469;33677,762;52,09171
 758,38;17604,678;   54,569;33822,695;51,97241
 758,95;17763,143;   79,469;33743,426;52,52999
 759,52;17821,508;   57,469;33615,859;52,93472
 760,09;17692,473;   68,570;33306,992;53,02268
 760,66;17535,838;   59,570;33309,727;52,55996
 761,23;17642,703;   91,070;33353,961;52,76641
 761,80;17726,668;   56,270;33295,793;53,16081
 762,37;17720,934;   68,970;33167,727;53,33120
 762,94;17613,797;   70,970;33187,461;52,97309
 763,51;17750,662;   36,070;32949,793;53,82130
 764,08;17706,527;   66,270;32998,527;53,56528
 764,65;17623,293;   69,570;32798,961;53,63290
 765,22;17624,457;   54,670;32804,496;53,64849
 765,79;17584,623;   77,370;32691,928;53,67926
 766,36;17504,889;   73,170;32743,063;53,35714
 766,93;17513,053;   68,970;32551,295;53,70331
 767,50;17550,318;   89,470;32828,328;53,33371
 768,07;17529,584;   63,870;32699,262;53,51771
 768,64;17532,748;   86,470;32572,596;53,70378
 769,21;17503,213;   57,970;32359,729;54,00710
 769,78;17331,279;   78,770;32244,963;53,63553
 770,34;17202,344;   45,570;32031,195;53,63901
 770,91;17086,309;   58,470;31921,430;53,44086
 771,48;17124,873;   62,370;31836,863;53,69874
 772,05;17051,539;   66,470;31610,697;53,84525
 772,62;16913,305;   42,670;31443,029;53,72752
 773,19;16939,869;   59,370;31579,764;53,55421
 773,76;16867,033;   71,070;31506,297;53,43039
 774,33;16881,898;   74,170;31447,330;53,57359
 774,90;16713,465;   52,870;31206,064;53,47957
 775,47;16711,129;   59,970;30957,498;53,89156
 776,03;16686,494;   73,470;30984,330;53,74494
 776,60;16587,160;   55,970;30757,863;53,84420
 777,17;16584,924;   65,470;30698,098;53,92764
 777,74;16443,090;   30,870;30522,031;53,82615
 778,31;16491,254;   68,970;30582,064;53,82045
 778,88;16465,420;   30,470;30366,898;54,17563
 779,45;16321,284;   75,770;30358,131;53,64679
 780,01;16341,649;   58,370;30299,664;53,84452
 780,58;16240,314;   60,570;30177,998;53,72220
 781,15;16198,180;   38,771;29979,432;53,97145
 781,72;16269,045;   66,771;29962,266;54,19637
 782,29;16144,710;   51,771;29667,100;54,33990
 782,86;15980,274;   55,571;29617,732;53,86854
 783,42;15944,040;   56,171;29598,166;53,78062
 783,99;15932,005;   66,671;29482,100;53,93542
 784,56;15910,271;   55,171;29320,232;54,17757
 785,13;15889,936;   40,271;29247,266;54,26667
 785,70;15785,601;   49,071;29060,299;54,24289
 786,26;15756,965;   51,671;28910,732;54,42067
 786,83;15748,330;   84,371;28889,166;54,37969
 787,40;15613,995;   57,171;28783,500;54,15528
 787,97;15685,960;   43,971;28581,133;54,81270
 788,54;15587,126;   70,371;28515,268;54,55022
 789,10;15444,690;   57,971;28344,400;54,39612
 789,67;15371,456;   70,371;28245,334;54,30738
 790,24;15363,121;   51,071;28193,768;54,40861
 790,81;15118,086;   88,271;27914,400;54,01332
 791,37;15212,551;   73,671;27872,135;54,45941
 791,94;15081,916;   70,771;27886,367;53,96665
 792,51;15054,581;   46,271;27539,201;54,58971
 793,08;14947,746;   69,771;27555,234;54,13034
 793,64;14857,211;   71,271;27455,168;53,99502
 794,21;14741,977;   69,671;27250,602;53,98014
 794,78;14714,441;   53,071;27147,035;54,11305
 795,35;14697,406;   73,471;27007,969;54,29444
 795,91;14625,171;   48,071;26789,301;54,51170
 796,48;14532,536;   55,771;26710,734;54,31170
 797,05;14472,102;   57,671;26624,369;54,25752
 797,62;14474,667;   41,971;26600,701;54,34257
 798,18;14301,031;   57,471;26410,736;54,04856
 798,75;14259,196;   56,571;26279,770;54,16054
 799,32;14225,361;   60,771;26209,102;54,17015
 799,88;14164,427;   55,971;26051,535;54,27255
 800,45;14016,092;   33,971;25945,270;53,96148
 801,02;14085,557;   65,271;25880,104;54,31097
 801,58;14042,521;   90,872;25660,436;54,56350
 802,15;13882,587;   72,872;25615,270;54,06585
 802,72;13876,952;   66,172;25404,703;54,50506
 803,28;13764,617;   49,172;25288,938;54,34062
 803,85;13715,982;   41,972;25144,871;54,47184
 804,42;13616,947;   77,772;24948,004;54,43928
 804,98;13594,912;  100,672;24935,537;54,33587
 805,55;13504,678;   56,972;24702,371;54,56477
 806,12;13440,242;   83,572;24611,004;54,45605
 806,68;13356,607;   66,472;24493,738;54,40697
 807,25;13354,173;   74,972;24436,271;54,50941
 807,82;13405,938;   86,872;24407,805;54,76379
 808,38;13292,603;   73,672;24367,037;54,41375
 808,95;13209,968;   62,972;24166,971;54,54280
 809,52;13224,433;   50,272;24162,004;54,63797
 810,08;13074,298;   55,172;23994,938;54,38285
 810,65;13123,363;   77,172;24169,672;54,15043
 811,21;13127,228;   69,972;24123,404;54,28438
 811,78;13133,893;   92,472;24337,539;53,79000
 812,35;13108,059;   64,972;24173,871;54,10071
 812,91;13214,823;   90,072;24239,705;54,34762
 813,48;13197,188;   68,172;24202,738;54,39922
 814,04;13090,753;   64,172;24088,373;54,22274
 814,61;12971,019;   77,572;24176,006;53,50325
 815,18;12878,384;   67,772;23892,539;53,77014
 815,74;12861,748;   69,772;23709,172;54,11295
 816,31;12853,514;   83,372;23614,406;54,26936
 816,87;12802,379;   43,272;23489,641;54,41826
 817,44;12724,144;   76,972;23452,273;54,10485
 818,00;12491,209;   43,272;23159,506;53,84933
 818,57;12492,474;   71,872;23076,340;53,99213
 819,14;12485,539;   82,872;22924,273;54,29906
 819,70;12348,804;   72,672;22792,707;54,03219
 820,27;12307,669;   62,972;22691,941;54,11071
 820,83;12156,834;   70,072;22541,373;53,78755
 821,40;12135,699;   98,072;22431,908;53,89861
 821,96;12117,464;   75,272;22315,541;54,14589
 822,53;11962,329;   70,973;22257,574;53,59702
 823,09;12028,494;   81,073;22073,309;54,32563
 823,66;11887,959;   68,173;21862,541;54,23321
 824,22;11852,225;   77,173;21851,674;54,07725
 824,79;11814,789;   75,473;21561,408;54,63721
 825,35;11675,154;   65,173;21648,041;53,79258
 825,92;11628,120;   75,173;21398,875;54,17890
 826,48;11645,385;   87,673;21501,309;53,97361
 827,05;11583,950;   89,573;21448,242;53,81598
 827,61;11489,215;   75,273;21249,076;53,90596
 828,18;11401,280;   60,873;21191,209;53,66885
 828,74;11303,245;   91,673;21053,543;53,48555
 829,31;11326,410;   83,373;21002,176;53,74608
 829,87;11205,275;   73,073;20733,709;53,88122
 830,44;11172,040;   85,173;20631,443;53,96048
 831,00;11215,505;   91,273;20673,977;54,04651
 831,57;11136,070;  101,573;20631,609;53,74807
 832,13;10969,335;   72,073;20323,344;53,81026
 832,69;10953,400;   58,173;20309,477;53,80013
 833,26;10895,165;   85,473;20322,711;53,41486
 833,82;10794,830;   93,073;20197,744;53,23020
 834,39;10845,596;   78,773;20137,477;53,67656
 834,95;10711,961;   57,173;19959,410;53,53563
 835,52;10700,525;   87,873;19851,744;53,69723
 836,08;10629,491;   95,573;19951,877;53,05075
 836,64;10629,156;   76,273;19800,711;53,50157
 837,21;10493,821;   88,673;19552,443;53,45906
 837,77;10423,586;   91,873;19491,777;53,25651
 838,34;10389,151;   67,473;19470,012;53,19757
 838,90;10292,116;   64,473;19306,045;53,15389
 839,46;10250,381;   83,873;19312,479;52,87179
 840,03;10262,746;   76,173;19300,811;52,98707
 840,59;10200,211;   85,873;19175,645;52,98302
 841,16;10247,677;  105,173;19156,578;53,23756
 841,72;10140,441;   59,373;18965,512;53,32167
 842,28;10143,106;   77,873;18857,246;53,59728
 842,85;10134,571;   95,573;18812,578;53,63571
 843,41;10095,137;  105,374;18740,813;53,60627
 843,97;10015,701;   89,174;18686,846;53,37511
 844,54; 9912,667;  104,774;18624,979;52,95780
 845,10; 9916,132;   89,174;18523,713;53,30732
 845,67; 9872,997;   68,774;18413,445;53,44453
 846,23; 9798,662;   78,674;18361,080;53,16580
 846,79; 9688,227;   90,474;18265,613;52,80704
 847,36; 9593,892;   55,774;18179,047;52,62911
 847,92; 9618,657;   84,874;18034,680;53,11357
 848,48; 9609,322;   41,874;18039,213;53,16035
 849,04; 9633,087;   62,374;17949,447;53,50631
 849,61; 9591,652;   56,274;17918,580;53,38268
 850,17; 9506,917;   68,174;17819,514;53,17200
 850,73; 9413,482;   71,474;17764,848;52,79948
 851,30; 9345,848;   46,074;17669,881;52,76825
 851,86; 9328,013;   75,874;17597,914;52,80286
 852,42; 9327,678;   51,174;17568,348;52,95662
 852,99; 9313,843;   79,274;17583,082;52,75748
 853,55; 9285,107;   83,174;17542,514;52,70493
 854,11; 9219,973;   70,074;17432,049;52,70079
 854,67; 9202,438;   85,474;17420,881;52,59157
 855,24; 9132,703;   51,874;17213,414;52,91384
 855,80; 9100,368;   76,874;17244,848;52,56004
 856,36; 9020,933;   80,574;17175,881;52,29715
 856,92; 9003,298;   54,474;17027,215;52,72468
 857,49; 9025,063;   81,274;17048,248;52,71293
 858,05; 8903,229;   67,274;16968,482;52,28002
 858,61; 8942,593;   65,774;17003,316;52,40913
 859,17; 8917,759;   77,374;16904,250;52,53729
 859,74; 8907,424;   82,074;16836,883;52,67353
 860,30; 8936,788;   93,074;16663,016;53,37203
 860,86; 8878,554;   72,074;16692,350;52,98636
 861,42; 8803,919;   74,674;16545,883;52,99699
 861,99; 8713,384;   54,674;16506,717;52,63000
 862,55; 8672,049;   66,374;16393,051;52,70929
 863,11; 8790,714;   75,174;16437,283;53,26660
 863,67; 8682,379;   61,274;16290,117;53,12211
 864,23; 8690,144;   80,175;16199,351;53,41445
 864,80; 8642,909;   69,175;16081,384;53,54498
 865,36; 8586,374;   71,875;16120,817;53,05334
 865,92; 8484,939;   96,175;16088,751;52,45412
 866,48; 8432,604;   67,375;15987,384;52,54538
 867,04; 8419,569;   60,675;15891,418;52,80166
 867,60; 8391,034;   99,375;15884,451;52,52847
 868,17; 8347,299;   93,675;15884,685;52,26787
 868,73; 8337,664;   82,775;15672,618;52,95043
 869,29; 8293,029;   59,475;15470,151;53,42760
 869,85; 8276,395;  100,475;15369,685;53,54514
 870,41; 8176,459;   80,575;15293,418;53,21743
 870,97; 8118,125;   92,975;15232,252;53,00880
 871,54; 8080,590;   84,175;15178,686;52,97565
 872,10; 7975,955;   84,275;15055,419;52,71260
 872,66; 7890,420;   66,775;14910,652;52,70621
 873,22; 7898,685;   81,975;14890,586;52,78490
 873,78; 7797,850;   65,275;14742,419;52,68447
 874,34; 7732,015;   95,075;14662,652;52,42423
 874,90; 7777,115;  109,775;14536,053;53,14843
 875,46; 7728,615;   96,375;14412,952;53,31051
 876,03; 7656,615;   86,475;14363,353;53,02378
 876,59; 7604,715;   64,475;14153,253;53,51947
 877,15; 7554,615;  101,475;14166,853;52,98927
 877,71; 7517,215;   78,275;14064,652;53,18704
 878,27; 7494,015;   95,675;13910,553;53,55342
 878,83; 7500,915;  114,275;13971,753;53,30436
 879,39; 7459,015;   91,075;14082,753;52,65945
 879,95; 7454,515;   86,275;13964,253;53,09304
 880,51; 7418,315;   75,175;13927,253;53,01111
 881,07; 7415,915;   82,375;13978,753;52,77303
 881,63; 7481,215;   92,575;13971,253;53,23735
 882,19; 7477,315;   82,675;13921,553;53,43381
 882,75; 7530,815;   86,275;14019,553;53,42993
 883,31; 7519,115;   95,575;14187,853;52,67807
 883,88; 7568,015;   96,375;14174,353;53,07325
 884,44; 7551,115;   76,175;14175,753;53,01535
 885,00; 7653,715;  106,075;14266,952;53,29924
 885,56; 7621,515;  101,675;14299,452;52,96491
 886,12; 7710,715;  109,875;14421,152;53,11084
 886,68; 7648,215;   90,775;14436,753;52,67985
 887,24; 7744,915;  102,475;14574,952;52,80672
 887,80; 7690,715;   86,975;14671,753;52,13477
 888,36; 7837,415;  106,275;14715,652;52,91902
 888,92; 7813,215;   98,975;14773,353;52,56945
 889,48; 7918,215;   99,575;14973,853;52,56484
 890,04; 7882,415;   95,275;14803,053;52,94573
 890,60; 7965,715;  117,475;15014,652;52,68273
 891,16; 7992,115;   99,875;15075,853;52,69933
 891,72; 8033,615;  113,275;15058,452;52,99596
 892,28; 8071,715;  112,475;15126,053;53,01361
 892,84; 8053,415;   93,775;15039,853;53,25571
 893,39; 8039,515;  117,575;15112,952;52,82922
 893,95; 7998,115;  112,975;15044,753;52,80778
 894,51; 7850,015;   66,375;14891,253;52,50391
 895,07; 7998,915;  127,375;14906,353;53,26174
 895,63; 7849,315;   74,275;14689,952;53,19658
 896,19; 7797,515;   90,375;14601,952;53,11029
 896,75; 7766,515;  105,175;14460,152;53,37062
 897,31; 7642,215;   82,775;14295,853;53,18651
 897,87; 7578,315;   98,175;14146,853;53,24444
 898,43; 7556,615;   87,775;14075,753;53,39471
 898,99; 7487,715;  109,175;14002,753;53,10756
 899,55; 7403,215;  109,475;13940,652;52,73405
 900,11; 7279,615;  104,975;13747,553;52,59006
 900,67; 7244,015;   91,375;13658,652;52,71979
 901,22; 7267,315;  108,375;13601,952;53,05443
 901,78; 7141,115;   91,275;13560,053;52,34209
 902,34; 7116,215;  103,075;13451,152;52,54045
 902,90; 6994,315;   73,575;13350,652;52,12548
 903,46; 6969,115;   95,775;13236,353;52,30623
 904,02; 6916,615;   88,075;13091,553;52,51318
 904,58; 6751,815;   67,075;12918,152;52,01696
 905,14; 6706,715;   63,975;12874,553;51,85355
 905,70; 6678,115;   66,775;12696,053;52,34931
 906,25; 6639,615;   84,375;12708,452;51,92649
 906,81; 6632,015;   87,675;12732,152;51,75651
 907,37; 6595,415;   79,275;12616,152;51,97578
 907,93; 6511,215;   74,775;12588,152;51,43647
 908,49; 6523,715;  101,875;12497,652;51,80667
 909,05; 6530,015;   89,675;12425,553;52,20820
 909,60; 6452,715;   86,575;12340,452;51,95205
 910,16; 6411,015;   67,675;12291,853;51,89175
 910,72; 6440,315;  100,475;12207,753;52,36388
 911,28; 6328,715;   90,875;12156,053;51,70118
 911,84; 6317,115;   79,575;12106,753;51,86204
 912,39; 6293,215;   73,475;12049,353;51,93557
 912,95; 6317,315;  104,475;12001,452;52,22200
 913,51; 6276,915;   85,375;11945,253;52,20577
 914,07; 6154,315;   83,775;11813,452;51,75368
 914,63; 6156,415;   64,775;11748,053;52,13982
 915,18; 6097,415;   77,475;11617,853;52,16415
 915,74; 6055,415;   63,975;11632,652;51,79019
 916,30; 5972,415;   61,475;11588,553;51,27874
 916,86; 6006,115;   83,575;11514,652;51,81087
 917,42; 5951,415;   82,275;11425,152;51,74296
 917,97; 5849,915;   75,375;11265,452;51,60411
 918,53; 5776,615;   67,775;11196,253;51,29938
 919,09; 5783,315;   88,975;11223,753;51,14013
 919,65; 5754,715;   83,375;11083,452;51,55727
 920,20; 5650,815;   61,875;10983,053;51,17525
 920,76; 5619,115;   65,475;10849,452;51,49900
 921,32; 5598,415;   82,675;10770,952;51,60551
 921,87; 5500,115;   97,475;10670,253;51,09953
 922,43; 5406,115;   64,675;10561,353;50,88696
 922,99; 5298,915;   61,875;10406,753;50,62447
 923,55; 5243,015;   63,775;10357,353;50,31526
 924,10; 5189,515;   73,575;10282,853;50,11070
 924,66; 5144,315;   78,675;10170,152;50,19721
 925,22; 5065,615;   43,275;10093,952;49,97017
 925,77; 5006,415;   66,075; 9927,053;50,09990
 926,33; 4994,315;   90,375; 9903,253;49,97453
 926,89; 4929,915;   71,975; 9692,753;50,49425
 927,44; 4852,515;   52,175; 9580,553;50,37941
 928,00; 4831,915;   66,875; 9533,753;50,33381
 928,56; 4795,015;   80,375; 9372,253;50,73937
 929,12; 4756,515;   72,775; 9275,152;50,89707
 929,67; 4599,215;   67,575; 9091,053;50,22055
 930,23; 4556,115;   50,975; 8915,253;50,82354
 930,78; 4491,315;  100,675; 8842,553;50,22536
 931,34; 4395,715;   61,975; 8632,152;50,56768
 931,90; 4312,015;   61,675; 8494,353;50,40321
 932,45; 4230,215;   78,775; 8290,753;50,55347
 933,01; 4117,215;   52,975; 8024,453;50,98477
 933,57; 3933,915;   72,175; 7753,252;50,27602
 934,12; 3766,715;   70,475; 7399,553;50,43254
 934,68; 3561,215;   59,075; 7020,252;50,30959
 935,24; 3411,715;   67,875; 6614,752;51,07534
 935,79; 3193,715;   72,975; 6254,853;50,48208
 936,35; 3006,415;   91,375; 5812,252;50,95442
 936,90; 2763,815;   80,275; 5348,752;50,93578
 937,46; 2508,815;   72,775; 4956,953;49,87615
 938,02; 2341,515;   63,375; 4549,152;50,78584
 938,57; 2196,415;   73,175; 4265,053;50,65129
 939,13; 2033,715;   70,575; 3986,752;50,12898
 939,68; 1862,315;   57,375; 3713,452;49,36821
 940,24; 1771,615;   68,775; 3504,052;49,56921
 940,79; 1740,315;   91,875; 3391,052;49,96518
 941,35; 1647,615;   79,675; 3217,552;49,96817
 941,91; 1603,515;   71,375; 3122,252;50,21965
 942,46; 1576,115;   75,075; 3063,552;50,22758
 943,02; 1553,415;   65,375; 3050,752;49,84428
 943,57; 1501,915;   61,275; 2982,452;49,31710
 944,13; 1525,315;   67,375; 2974,452;50,15140
 944,68; 1523,115;   65,975; 3041,752;48,96670
 945,24; 1566,915;   82,275; 3060,052;49,85732
 945,79; 1576,515;   68,775; 3104,052;49,67388
 946,35; 1586,115;   51,775; 3194,752;48,81804
 946,90; 1655,015;   98,575; 3283,552;48,86816
 947,46; 1655,615;   52,175; 3311,052;49,20222
 948,01; 1678,415;   51,575; 3390,052;48,73000
 948,57; 1745,215;   86,775; 3552,952;47,84637
 949,12; 1782,115;   65,875; 3613,353;48,37916
 949,68; 1838,515;   76,275; 3732,653;48,19634
 950,23; 1877,515;   70,075; 3833,252;48,02963
 950,79; 1936,615;   75,775; 3933,452;48,23731
 951,34; 1989,915;   83,275; 4070,952;47,81330
 951,90; 2009,015;   57,475; 4140,853;47,79230
 952,45; 2076,015;   81,075; 4292,152;47,37362
 953,01; 2094,015;   65,975; 4364,252;47,18262
 953,56; 2190,115;   87,975; 4500,853;47,63649
 954,12; 2152,715;   42,075; 4567,553;46,63906
 954,67; 2235,215;   70,875; 4720,453;46,54918
 955,23; 2258,815;   61,975; 4804,553;46,32164
 955,78; 2268,015;   67,175; 4882,953;45,70061
 956,33; 2254,415;   58,575; 4947,252;44,91685
 956,89; 2283,515;   53,475; 5038,553;44,73431
 957,44; 2351,215;   53,675; 5170,752;44,89946
 958,00; 2346,215;   49,475; 5238,353;44,26275
 958,55; 2360,215;   70,475; 5313,953;43,66835
 959,10; 2404,515;   52,375; 5370,252;44,23080
 959,66; 2417,115;   74,275; 5488,752;43,26992
 960,21; 2457,115;   78,475; 5567,453;43,33485
 960,77; 2474,215;   54,275; 5606,152;43,58778
 961,32; 2476,715;   48,375; 5663,453;43,24678
 961,87; 2503,515;   79,775; 5738,752;42,83000
 962,43; 2487,915;   68,975; 5780,652;42,35078
 962,98; 2526,315;   76,175; 5828,652;42,59278
 963,54; 2464,415;   27,075; 5820,652;42,06969
 964,09; 2511,915;   56,275; 5873,953;42,20997
 964,64; 2526,815;   64,975; 5901,053;42,18312
 965,20; 2538,115;   44,375; 5966,652;42,10779
 965,75; 2541,715;   66,575; 5976,353;41,88212
 966,30; 2535,915;   75,275; 6068,553;41,05667
 966,86; 2549,215;   62,975; 6121,953;41,03399
 967,41; 2536,315;   81,075; 6084,453;40,89764
 967,96; 2534,515;   75,175; 6108,953;40,75954
 968,52; 2572,215;   81,775; 6126,353;41,20123
 969,07; 2515,115;   72,975; 6120,152;40,38479
 969,62; 2507,415;   77,175; 6134,953;40,11768
 970,18; 2495,815;   57,575; 6147,652;40,03627
 970,73; 2488,515;   66,475; 6203,553;39,46569
 971,28; 2492,715;   95,775; 6197,053;39,28587
 971,84; 2428,115;   55,075; 6118,752;39,13533
 972,39; 2413,115;   95,875; 6148,652;38,28391
 972,94; 2394,915;   54,975; 6140,652;38,44995
 973,49; 2379,815;   64,575; 6141,252;38,10043
 974,05; 2348,815;   64,375; 6178,053;37,36605
 974,60; 2336,115;   88,575; 6213,252;36,69646
 975,15; 2325,815;   77,675; 6231,553;36,53209
 975,71; 2251,515;   62,375; 6121,453;36,12992
 976,26; 2244,215;   77,575; 6110,252;35,91507
 976,81; 2245,715;   90,675; 6134,152;35,65894
 977,36; 2225,115;   84,775; 6156,953;35,24831
 977,92; 2257,415;   90,175; 6209,353;35,41718
 978,47; 2166,715;   77,175; 6060,252;34,92417
 979,02; 2205,515;   95,475; 6085,652;35,22500
 979,57; 2172,215;   86,775; 6058,453;34,92218
 980,13; 2129,215;   76,175; 6038,752;34,43209
 980,68; 2154,615;   77,075; 6010,553;35,01387
 981,23; 2138,015;   89,175; 6054,652;34,34494
 981,78; 2099,315;   82,075; 5974,152;34,23648
 982,33; 2097,415;   79,275; 5893,252;34,71187
 982,89; 2081,215;   94,375; 5938,152;33,99924
 983,44; 2061,515;   65,675; 5935,853;33,99965
 983,99; 2088,715;  104,775; 5949,453;33,94439
 984,54; 2057,815;   81,475; 5900,053;33,96603
 985,09; 2011,815;   87,275; 5873,752;33,25927
 985,65; 1965,715;   69,375; 5811,853;33,02303
 986,20; 1973,915;  106,575; 5791,152;32,84923
 986,75; 1955,215;   95,875; 5823,953;32,46010
 987,30; 1911,815;   97,175; 5726,053;32,23804
 987,85; 1913,515;   92,475; 5721,353;32,35174
 988,40; 1873,715;   96,675; 5693,953;31,74829
 988,96; 1849,115;  114,875; 5666,553;31,23812
 989,51; 1819,415;  108,875; 5644,053;30,90307
 990,06; 1831,615;  128,275; 5680,853;30,67656
 990,61; 1753,815;   93,575; 5569,053;30,32137
 991,16; 1719,415;  104,375; 5558,053;29,61378
 991,71; 1679,215;   79,875; 5505,853;29,47561
 992,26; 1653,715;   93,475; 5457,252;29,08845
 992,81; 1604,315;   75,075; 5427,053;28,57336
 993,37; 1619,215;  113,475; 5390,553;28,53359
 993,92; 1613,715;  108,375; 5368,953;28,61549
 994,47; 1584,615;  117,475; 5329,652;28,14831
 995,02; 1610,615;  118,475; 5313,252;28,72385
 995,57; 1533,615;   90,875; 5274,652;27,83183
 996,12; 1537,515;  133,575; 5247,553;27,45299
 996,67; 1510,215;  132,375; 5191,652;27,23393
 997,22; 1498,315;   99,875; 5128,652;27,80875
 997,77; 1523,415;  115,275; 5110,553;28,18942
 998,32; 1466,515;  103,775; 5015,652;27,74377
 998,87; 1455,415;  114,275; 5018,752;27,34522
 999,42; 1462,115;  101,675; 4972,553;27,93008
 999,97; 1422,415;  109,975; 4956,353;27,08085
1000,53; 1444,515;  123,475; 4993,752;27,12453
1001,08; 1392,315;   98,375; 4879,053;27,06604
1001,63; 1406,715;  144,475; 4878,053;26,66566
1002,18; 1314,715;   85,075; 4777,453;26,20505
1002,73; 1386,915;  131,375; 4813,853;26,81358
1003,28; 1349,615;  103,575; 4811,953;26,46432
1003,83; 1312,415;  119,075; 4691,752;26,09718
1004,38; 1336,715;  137,775; 4703,152;26,26157
1004,93; 1279,515;  114,375; 4680,953;25,51451
1005,48; 1263,015;  104,075; 4573,053;25,93300
1006,03; 1240,615;  112,775; 4525,652;25,55793
1006,58; 1211,915;  111,475; 4486,553;25,15247
1007,13; 1184,415;   94,475; 4466,252;24,93128
1007,68; 1174,515;  104,975; 4462,453;24,54493
1008,23; 1156,715;  114,575; 4425,853;24,17242
1008,78; 1137,615;  107,375; 4384,152;24,08917
1009,33; 1107,315;  121,875; 4307,752;23,54202
1009,88; 1063,515;   84,775; 4329,553;23,05751
1010,43; 1070,315;  118,875; 4320,752;22,64321
1010,98; 1047,115;  100,675; 4310,053;22,48408
1011,52; 1042,115;   97,075; 4264,953;22,67437
1012,07; 1059,115;  144,475; 4319,252;21,90871
1012,62; 1017,915;  103,875; 4259,152;21,99709
1013,17; 1008,415;   97,175; 4172,053;22,36239
1013,72;  965,115;   94,575; 4143,453;21,50077
1014,27;  976,615;  100,275; 4105,853;21,87799
1014,82;  934,415;   86,875; 4042,952;21,42375
1015,37;  922,715;   84,375; 3964,853;21,60404
1015,92;  923,715;  109,475; 3894,252;21,51355
1016,47;  893,815;   90,275; 3819,452;21,54738
1017,02;  870,715;   81,075; 3732,153;21,62759
1017,57;  885,815;   96,475; 3718,853;21,79066
1018,11;  831,915;   77,275; 3656,252;21,08535
1018,66;  851,415;  120,175; 3636,552;20,79526
1019,21;  827,615;  109,675; 3579,552;20,69064
1019,76;  788,515;   77,675; 3497,353;20,78676
1020,31;  772,615;   71,975; 3446,452;20,76292
1020,86;  783,215;   96,175; 3448,052;20,49717
1021,41;  748,815;   80,175; 3387,052;20,21968
1021,96;  765,615;   83,675; 3385,853;20,65122
1022,50;  785,915;  105,975; 3332,952;21,07049
1023,05;  732,815;   94,675; 3288,052;19,98323
1023,60;  729,215;   97,975; 3251,353;20,01790
1024,15;  698,215;   81,075; 3184,853;19,88351
1024,70;  703,215;   95,075; 3176,252;19,73726
1025,25;  676,115;   81,175; 3127,452;19,53007
1025,79;  683,815;  101,175; 3110,752;19,35953
1026,34;  648,915;   83,475; 3044,653;19,09511
1026,89;  654,215;  102,175; 3039,052;18,79684
1027,44;  618,815;   95,875; 2952,952;18,30332
1027,99;  624,115;   93,475; 2944,552;18,61191
1028,53;  607,815;   89,675; 2900,052;18,43667
1029,08;  605,615;  114,775; 2876,653;17,77197
1029,63;  596,115;  114,875; 2854,952;17,56301
1030,18;  577,115;   92,075; 2788,552;17,98791
1030,73;  542,315;   91,175; 2739,552;17,03458
1031,27;  529,815;   85,875; 2715,252;16,88384
1031,82;  529,215;   81,875; 2686,452;17,17515
1032,37;  543,615;   98,875; 2688,853;17,17158
1032,92;  527,215;  100,575; 2675,452;16,56933
1033,46;  512,315;   99,775; 2599,252;16,50505
1034,01;  493,415;   78,375; 2582,952;16,57126
1034,56;  513,515;   98,875; 2559,252;16,85270
1035,11;  505,215;   92,375; 2523,552;16,98107
1035,65;  481,615;   87,575; 2478,052;16,48374
1036,20;  492,315;   99,375; 2454,452;16,68480
1036,75;  493,815;  118,675; 2446,353;16,11649
1037,29;  470,515;   90,275; 2398,252;16,47503
1037,84;  457,015;   78,375; 2347,252;16,68843
1038,39;  473,515;   91,075; 2329,952;17,08178
1038,94;  430,115;   73,075; 2277,153;16,19907
1039,48;  441,615;   83,575; 2278,552;16,31178
1040,03;  450,615;  102,875; 2245,252;16,23150
1040,58;  440,015;  101,175; 2194,552;16,18628
1041,12;  446,415;   91,375; 2191,653;16,90443
1041,67;  428,015;  101,075; 2166,752;15,82725
1042,22;  443,115;  118,475; 2145,252;16,01755
1042,76;  408,115;   99,275; 2118,452;15,29534
1043,31;  419,515;   90,675; 2060,653;16,69258
1043,86;  410,315;   98,875; 2044,252;16,00923
1044,40;  403,515;   92,975; 2018,052;16,13130
1044,95;  386,215;   94,175; 1988,552;15,41615
1045,50;  360,515;   75,375; 1934,353;15,33854
1046,04;  393,415;  114,375; 1930,453;15,36498
1046,59;  351,515;   96,175; 1878,353;14,32742
1047,13;  367,715;  121,075; 1879,453;14,02657
1047,68;  360,015;  115,675; 1860,052;14,00729
1048,23;  352,015;  118,775; 1866,752;13,34342
1048,77;  329,815;   90,175; 1784,953;14,13991
1049,32;  341,915;  104,175; 1785,953;14,13623
1049,86;  324,715;   92,675; 1760,552;13,91229
1050,41;  317,715;   82,475; 1735,552;14,23043
1050,96;  313,015;  100,875; 1698,652;13,27719
1051,50;  331,215;  101,675; 1663,252;14,69924
1052,05;  318,715;   94,675; 1664,052;14,27572
1052,59;  309,715;   82,975; 1624,152;14,71213
1053,14;  284,415;   84,475; 1582,652;13,34555
1053,69;  302,415;   98,475; 1571,453;13,84543
1054,23;  317,915;  104,575; 1569,052;14,56765
1054,78;  299,715;  100,775; 1550,152;13,72589
1055,32;  321,515;  123,075; 1550,453;13,90242
1055,87;  271,815;   68,875; 1491,752;14,26265
1056,41;  270,415;   78,775; 1469,552;13,77934
1056,96;  278,115;   96,775; 1451,052;13,39016
1057,50;  304,615;  113,375; 1470,853;14,08789
1058,05;  270,115;   82,075; 1401,953;14,24678
1058,59;  278,515;   95,875; 1396,552;14,04191
1059,14;  280,615;  103,575; 1370,453;13,97452
1059,68;  258,215;   75,975; 1329,353;14,53991
1060,23;  294,115;  126,875; 1383,752;13,30599
1060,77;  277,915;   97,375; 1317,052;14,80227
1061,32;  272,115;  108,575; 1320,652;13,49254
1061,86;  276,315;  111,175; 1289,752;14,01181
1062,41;  266,515;   93,975; 1242,953;15,01683
1062,95;  260,515;  109,575; 1230,853;13,46143
1063,50;  266,915;  111,075; 1230,052;13,92700
1064,04;  230,615;   90,475; 1197,453;12,65970
1064,59;  265,315;  114,775; 1210,052;13,74446
1065,13;  237,615;  103,475; 1170,552;12,57078
1065,68;  244,115;  107,275; 1161,353;12,98197
1066,22;  252,015;  115,875; 1166,453;12,95859
1066,76;  252,515;  130,175; 1145,252;12,05228
1067,31;  222,915;   99,875; 1110,552;12,17401
1067,85;  225,315;  100,975; 1090,252;12,56877
1068,40;  230,515;  110,275; 1095,353;12,20615
1068,94;  222,615;   99,175; 1079,353;12,59364
1069,49;  210,415;   98,175; 1041,652;11,89641
1070,03;  221,715;  111,175; 1034,353;11,97386
1070,57;  208,215;   88,775; 1012,852;12,92532
1071,12;  197,015;   75,875;  987,153;13,29343
1071,66;  246,515;  131,775; 1039,953;12,63409
1072,21;  221,615;  112,475; 1011,352;12,14181
1072,75;  210,515;  104,475;  978,552;12,13165
1073,29;  191,515;   77,075;  942,453;13,22429
1073,84;  204,815;   95,975;  941,153;12,87777
1074,38;  201,415;   93,875;  928,253;12,88865
1074,92;  207,415;  107,275;  940,153;12,02338
1075,47;  211,415;  112,775;  938,852;11,94077
1076,01;  229,115;  121,775;  926,253;13,34282
1076,56;  198,415;   97,275;  891,953;12,72717
1077,10;  183,715;   86,075;  865,253;12,53116
1077,64;  190,715;   97,875;  884,453;11,80303
1078,19;  226,915;  123,175;  887,753;13,56828
1078,73;  201,915;   98,775;  853,852;13,65952
1079,27;  213,415;  121,075;  875,552;12,23893
1079,81;  220,515;  121,375;  860,953;13,40495
1080,36;  202,815;  105,975;  836,052;13,26435
1080,90;  197,515;   96,375;  819,753;13,98163
1081,44;  179,915;   82,475;  789,552;13,78067
1081,99;  165,615;   70,375;  771,753;13,57899
1082,53;  204,415;  113,075;  798,653;13,32307
1083,07;  194,415;  104,175;  791,453;13,13007
1083,62;  190,415;  101,275;  772,552;13,27916
1084,16;  179,015;   98,975;  782,453;11,71070
1084,70;  186,715;  107,475;  767,153;12,01193
1085,24;  205,215;  108,775;  750,653;15,02467
1085,79;  179,015;  109,175;  747,552;10,94023
1086,33;  160,915;   99,075;  711,453;10,09835
1086,87;  174,915;  102,075;  714,852;11,88686
1087,41;  168,815;   84,475;  686,852;14,00119
1087,96;  196,115;  124,575;  732,552;11,76688
1088,50;  171,615;  112,075;  696,953;10,17991
1089,04;  193,115;  121,775;  715,153;12,02270
1089,58;  151,015;   82,375;  655,953;11,96700
1090,13;  157,915;  102,975;  653,153; 9,98587
1090,67;  173,015;  101,775;  678,753;12,34710
1091,21;  159,515;   92,075;  651,852;12,04764
1091,75;  162,415;  106,875;  647,153;10,27990
1092,29;  170,515;  105,875;  642,552;12,04448
1092,84;  166,315;  105,975;  628,352;11,55103
1093,38;  192,415;  128,175;  662,753;12,01696
1093,92;  180,415;  113,475;  640,052;12,71228
1094,46;  182,315;  128,175;  638,852;10,60160
1095,00;  161,115;   93,975;  602,052;13,21452
1095,54;  150,615;   89,975;  591,352;12,09468
1096,09;  167,615;  114,975;  597,352;10,91262
1096,63;  180,115;  117,175;  598,453;13,07769
1097,17;  157,415;  102,575;  573,052;11,65624
1097,71;  187,215;  122,875;  582,453;13,99981
1098,25;  161,215;  103,275;  553,653;12,86476
1098,79;  170,715;  104,775;  568,753;14,21189
1099,33;  168,615;  111,975;  572,052;12,31097
1099,88;  156,415;  110,775;  562,253;10,10903
1100,42;  125,915;   83,275;  521,253; 9,73566

