0117 ELITRO
Integration time [ms]:   8,000
Averaging Nr. [scans]: 10
Smoothing Nr. [pixels]: 0
Data measured with spectrometer [name]: 7314920SP
Wave   ;Sample   ;Dark     ;Reference;Reflectance
[nm]   ;[counts] ;[counts] ;[counts] ;[%]

 199,42;   89,809;   63,873;  150,055;30,09490
 200,02;  115,234;   92,669;  145,732;42,52446
 200,62;   78,101;   67,563;   88,793;49,63668
 201,22;  109,458;   86,969;  138,011;44,05998
 201,82;   95,182;   66,174;  141,790;38,36246
 202,42;  123,125;  101,668;  154,973;40,25388
 203,03;   63,885;   60,168;   91,775;11,76024
 203,63;   86,552;   69,967;  109,037;42,44996
 204,23;   90,180;   70,671;  129,903;32,93596
 204,83;   89,336;   74,567;  123,718;30,04852
 205,43;  109,009;   56,673;  123,555;78,25208
 206,03;   76,428;   50,167;   90,459;65,17749
 206,63;   79,298;   68,865;  100,007;33,50302
 207,24;  122,047;   74,675;  162,566;53,89868
 207,84;   65,720;   39,967;   83,699;58,88811
 208,44;   72,658;   50,669;   95,011;49,58982
 209,04;   52,706;   47,365;   85,066;14,16800
 209,64;   95,261;   69,972;  127,998;43,58152
 210,24;   70,836;   45,367;   97,218;49,11979
 210,84;   75,266;   51,469;  101,970;47,12168
 211,44;   99,198;   86,470;  122,908;34,93243
 212,05;   70,306;   60,865;   99,266;24,58640
 212,65;   94,285;   66,368;  112,975;59,89845
 213,25;  111,825;   93,768;  142,073;37,38188
 213,85;  100,739;   84,465;  114,904;53,46263
 214,45;   75,736;   53,367;  100,418;47,54226
 215,05;   57,366;   39,369;  100,070;29,64846
 215,65;   71,474;   55,169;  105,630;32,31227
 216,25;   61,336;   40,267;   82,518;49,86651
 216,85;   52,950;   34,069;   89,651;33,96937
 217,45;   66,185;   49,068;   97,375;35,43371
 218,05;   77,123;   58,270;  112,886;34,51845
 218,66;   43,842;   28,769;   75,692;32,12283
 219,26;   48,752;   26,567;   79,337;42,04131
 219,86;   58,763;   36,771;   81,584;49,07624
 220,46;   82,315;   54,270;  104,127;56,25032
 221,06;   81,380;   51,871;  115,903;46,08420
 221,66;   70,604;   43,471;  103,481;45,21337
 222,26;   71,461;   39,772;  102,398;50,59984
 222,86;   82,909;   67,268;  118,954;30,26198
 223,46;   63,736;   51,767;   88,918;32,21756
 224,06;   87,371;   64,971;  120,343;40,45437
 224,66;   90,939;   57,570;  105,805;69,17923
 225,26;   75,590;   48,169;  113,748;41,81342
 225,86;   78,485;   42,173;  112,376;51,72435
 226,46;   72,617;   49,968;  102,913;42,77854
 227,06;   47,839;   27,670;   87,705;33,59483
 227,66;   61,231;   37,665;   74,845;63,38284
 228,27;   53,315;   29,270;   96,227;35,91072
 228,87;  106,531;   89,170;  143,046;32,22362
 229,47;   59,969;   29,172;   92,357;48,74013
 230,07;   27,190;   11,169;   59,648;33,04695
 230,67;   68,750;   38,169;   84,651;65,79060
 231,27;   51,015;   27,670;   76,327;47,97815
 231,87;   58,450;   43,169;  100,751;26,53759
 232,47;   90,131;   43,775;  132,047;52,51493
 233,07;   62,090;   42,965;   75,547;58,69839
 233,67;   56,885;   53,768;   94,275; 7,69515
 234,27;   33,428;    0,567;   53,259;62,36490
 234,87;   57,063;   34,771;  106,084;31,26019
 235,47;   44,590;   16,169;   74,148;49,01917
 236,07;   40,071;   30,266;   72,042;23,47112
 236,67;   66,004;   49,966;   85,180;45,54265
 237,27;   56,226;   28,873;  109,074;34,10489
 237,87;   62,339;   25,370;   99,805;49,66566
 238,47;   35,634;   14,269;   68,032;39,73880
 239,07;   63,153;   33,272;   95,738;47,83459
 239,67;   82,437;   43,477;  131,421;44,30077
 240,27;   71,985;   46,773;  119,176;34,82196
 240,87;   84,234;   50,773;  119,533;48,66253
 241,47;   55,033;   39,164;   76,131;42,92908
 242,07;   64,401;   39,968;   92,894;46,16448
 242,67;   33,517;  -11,027;   77,914;50,08293
 243,27;   29,136;    7,767;   46,418;55,28729
 243,87;   73,771;   48,671;  108,343;42,06392
 244,47;   70,680;   22,371;   99,703;62,46915
 245,07;   23,466;    2,669;   55,770;39,16483
 245,67;   52,285;   31,068;   85,575;38,92519
 246,27;   44,498;   34,965;   69,007;28,00516
 246,87;   40,009;   26,668;   63,154;36,56536
 247,46;   13,001;   19,663;   23,793;-161,31606
 248,06;   42,023;   20,470;   69,786;43,70297
 248,66;   57,361;   31,072;  105,898;35,13295
 249,26;   44,271;   32,366;   70,742;31,02268
 249,86;   66,185;   42,873;  102,176;39,31019
 250,46;   41,339;   16,775;   93,507;32,01294
 251,06;   30,085;   22,168;   65,375;18,32349
 251,66;   34,755;   20,771;   64,724;31,81670
 252,26;   44,187;   38,866;   70,261;16,94961
 252,86;   45,066;   35,969;   89,070;17,13133
 253,46;   10,936;   -8,033;   22,118;62,91357
 254,06;   41,763;   31,766;   79,483;20,95145
 254,66;   54,009;   34,973;  100,155;29,20498
 255,26;   68,493;   39,073;  118,836;36,88471
 255,86;   40,533;   37,464;   55,631;16,89701
 256,46;   45,298;   19,870;   70,208;50,51576
 257,05;   38,047;   23,570;   59,565;40,21916
 257,65;   66,363;   38,071;   97,684;47,46036
 258,25;   65,369;   37,372;  101,457;43,68642
 258,85;   40,866;   15,669;   51,770;69,79566
 259,45;   13,150;    6,869;   42,951;17,40729
 260,05;   48,236;   46,667;   85,818; 4,00810
 260,65;   54,587;   45,066;   83,561;24,73392
 261,25;   52,671;   29,371;   85,943;41,18714
 261,85;   15,596;   -0,129;   47,622;32,93059
 262,45;   69,066;   46,169;  109,270;36,28614
 263,04;   75,601;   53,073;  116,295;35,63348
 263,64;   49,260;   33,767;   77,097;35,75677
 264,24;   60,188;   37,671;   89,062;43,81402
 264,84;   93,766;   58,974;  138,671;43,65544
 265,44;   37,677;   26,368;   67,716;27,35106
 266,04;   50,247;   48,865;   71,464; 6,11307
 266,64;   53,004;   39,866;   86,780;28,00306
 267,24;   51,404;   40,166;   68,980;38,99971
 267,84;   44,025;   24,668;   76,573;37,29373
 268,43;   65,493;   48,368;   95,935;36,00222
 269,03;   64,842;   46,969;   87,892;43,67473
 269,63;   70,679;   58,566;   92,402;35,80050
 270,23;   22,631;   10,765;   39,045;41,95776
 270,83;   54,187;   55,266;   83,161;-3,86680
 271,43;   47,969;   23,967;   58,856;68,79351
 272,03;   61,377;   64,168;   99,116;-7,98580
 272,62;   44,074;   23,269;   68,730;45,76492
 273,22;   28,631;   11,970;   61,046;33,94898
 273,82;   21,539;   17,460;   26,403;45,60360
 274,42;   37,041;   25,164;   46,890;54,66879
 275,02;   42,582;   34,864;   60,388;30,23733
 275,62;   69,269;   31,972;  100,457;54,45931
 276,21;   43,407;   22,770;   69,267;44,38237
 276,81;   51,920;   46,767;   71,099;21,17850
 277,41;   49,312;   22,971;   96,341;35,90126
 278,01;   27,782;   21,364;   42,788;29,95599
 278,61;   68,758;   38,869;   83,811;66,50614
 279,20;   83,185;   65,473;  119,076;33,04322
 279,80;    2,412;    6,762;   11,539;-91,06079
 280,40;   41,571;   36,866;   79,742;10,97430
 281,00;   17,958;   -4,331;   33,311;59,21353
 281,60;   42,058;   20,774;   74,812;39,38755
 282,20;   51,698;   36,670;   70,108;44,94480
 282,79;   51,893;   29,568;   70,135;55,03297
 283,39;   32,679;   17,466;   44,702;55,85807
 283,99;   15,790;   23,165;   34,347;-65,94414
 284,59;   23,382;   16,869;   45,289;22,91673
 285,19;   39,028;   27,067;   57,759;38,97200
 285,78;   34,898;   23,270;   63,808;28,68594
 286,38;   42,398;   39,665;   59,207;13,98805
 286,98;   45,893;   35,168;   73,535;27,95411
 287,58;   31,780;    4,771;   61,403;47,69148
 288,17;   35,293;    8,973;   80,336;36,88235
 288,77;   52,380;   19,976;   92,504;44,67763
 289,37;   33,766;   11,269;   57,670;48,48370
 289,97;   49,090;   48,965;   66,647; 0,71022
 290,57;   61,028;   46,672;   93,260;30,81579
 291,16;   72,977;   63,868;  102,616;23,50861
 291,76;   33,731;    5,570;   47,346;67,40919
 292,36;   34,052;   34,367;   58,137;-1,32443
 292,96;   33,377;   -3,127;   60,117;57,71968
 293,55;   44,620;   24,267;   65,399;49,48216
 294,15;   41,607;   26,870;   62,567;41,28216
 294,75;   51,598;   42,065;   66,207;39,48928
 295,35;   25,977;   21,068;   52,016;15,86247
 295,94;   38,412;   42,967;   66,740;-19,15902
 296,54;   35,017;   30,768;   70,613;10,66392
 297,14;   48,704;   29,971;   76,881;39,93295
 297,73;   21,923;   12,165;   40,085;34,94778
 298,33;   36,463;   28,066;   57,583;28,44936
 298,93;   49,709;   41,968;   82,554;19,07344
 299,53;   46,844;   24,872;   69,079;49,70377
 300,12;   18,904;  -12,229;   59,481;43,41451
 300,72;   58,260;   41,567;   91,197;33,63569
 301,32;   56,463;   25,771;   99,584;41,58150
 301,92;   14,650;    3,664;   33,050;37,38405
 302,51;   34,144;   11,567;   49,978;58,77857
 303,11;   33,728;   14,667;   48,759;55,91138
 303,71;   52,234;   21,369;   82,132;50,79524
 304,30;   21,455;    5,466;   38,423;48,51504
 304,90;   21,263;   19,666;   44,283; 6,48905
 305,50;   48,031;   18,565;   64,345;64,36379
 306,09;   29,471;   15,466;   49,042;41,71200
 306,69;   51,988;   34,171;   90,262;31,76355
 307,29;   22,230;   18,760;   33,144;24,12670
 307,88;   64,482;   43,269;   72,489;72,59785
 308,48;   28,515;    0,070;   49,727;57,28240
 309,08;   10,585;   -4,437;   11,774;92,66351
 309,68;   20,923;   22,365;   39,585;-8,37672
 310,27;   35,674;   20,169;   49,830;52,27484
 310,87;   36,517;   23,468;   54,813;41,63056
 311,47;   76,236;   54,967;   92,918;56,04356
 312,06;   49,514;   47,865;   68,426; 8,02263
 312,66;   73,577;   51,168;  100,016;45,87518
 313,26;   75,355;   48,571;   96,224;56,20670
 313,85;   47,028;   38,267;   65,959;31,63831
 314,45;   59,458;   42,969;   86,611;37,78257
 315,04;   69,714;   52,165;   81,826;59,16722
 315,64;   40,160;   21,267;   47,897;70,94874
 316,24;   57,115;   40,770;   85,627;36,43743
 316,83;   60,471;   40,366;   76,742;55,27043
 317,43;   42,669;   35,167;   68,156;22,73854
 318,03;   56,417;   39,063;   70,012;56,07287
 318,62;   83,695;   73,061;   94,820;48,87375
 319,22;   40,925;    7,668;   66,973;56,07868
 319,82;   67,277;   40,768;   93,516;50,25614
 320,41;   81,434;   59,069;   98,732;56,38674
 321,01;   95,731;   80,465;  115,945;43,02610
 321,60;   85,241;   81,164;  102,790;18,85501
 322,20;   94,409;   67,673;  132,855;41,01812
 322,80;   70,360;   54,567;   91,797;42,42132
 323,39;   64,874;   65,764;   94,828;-3,06348
 323,99;   69,387;   61,766;  102,661;18,63633
 324,59;   73,217;   73,063;   97,512; 0,62895
 325,18;   80,144;   40,967;   92,178;76,50213
 325,78;   86,823;   76,365;  108,885;32,15692
 326,37;   81,785;   74,868;  108,075;20,83002
 326,97;   91,660;   63,267;  111,497;58,87117
 327,57;   51,401;   42,263;   76,493;26,69542
 328,16;   65,333;   60,864;   93,631;13,64081
 328,76;   85,912;   50,467;  110,140;59,39903
 329,35;   96,063;   56,871;  137,484;48,61813
 329,95;   58,898;   27,470;   91,308;49,23185
 330,54;   70,536;   52,167;   94,018;43,89169
 331,14;   55,720;   26,967;   82,599;51,68427
 331,74;   78,831;   54,165;   96,145;58,75588
 332,33;   66,415;   35,370;  108,127;42,66907
 332,93;   61,850;   43,764;   79,250;50,96566
 333,52;   68,679;   42,466;   93,102;51,76849
 334,12;   85,742;   72,069;  140,392;20,01227
 334,71;   75,771;   50,666;   87,942;67,34930
 335,31;   89,328;   63,267;  119,859;46,05120
 335,90;   39,452;   32,362;   53,836;33,01674
 336,50;   51,298;   30,665;   77,207;44,33305
 337,10;   78,174;   38,769;  121,530;47,61325
 337,69;   63,198;   51,765;   93,707;27,26032
 338,29;   57,752;   30,467;  101,037;38,66402
 338,88;   46,809;   22,468;   99,854;31,45429
 339,48;   80,044;   57,862;  111,677;41,21938
 340,07;   81,096;   48,566;  107,321;55,36487
 340,67;   72,363;   31,171;  124,784;44,00302
 341,26;   68,571;   48,466;   98,942;39,83126
 341,86;   92,490;   61,469;  138,348;40,35020
 342,45;   66,582;   45,669;  142,689;21,55527
 343,05;   61,782;   27,269;  115,689;39,03301
 343,64;   80,204;   47,366;  122,480;43,71673
 344,24;   57,398;   28,765;   92,107;45,20459
 344,83;   83,290;   71,365;  121,747;23,66995
 345,43;   65,512;   29,667;  114,240;42,38375
 346,02;   60,450;   41,469;  124,351;22,90109
 346,62;   76,055;   40,971;  140,424;35,27733
 347,21;   71,723;   42,165;  131,985;32,90740
 347,81;   70,728;   26,172;  140,560;38,95204
 348,40;   54,033;   29,064;  100,731;34,84117
 349,00;   72,517;   49,163;  137,712;26,37396
 349,59;  105,631;   65,870;  177,846;35,50832
 350,19;   73,555;   32,571;  139,424;38,35581
 350,78;   68,228;   55,467;  140,759;14,96185
 351,38;   58,850;   15,869;  140,951;34,36214
 351,97;   62,712;   26,767;  136,040;32,89489
 352,57;   73,815;   42,570;  155,827;27,58748
 353,16;   61,674;   30,564;  134,328;29,98111
 353,76;   74,831;   38,770;  169,846;27,51136
 354,35;   69,090;   27,669;  160,148;31,26596
 354,95;   83,207;   43,970;  182,067;28,41234
 355,54;   82,225;   38,368;  163,973;34,91683
 356,14;   81,190;   40,069;  164,749;32,98136
 356,73;   53,044;   29,162;  145,176;20,58534
 357,32;   51,034;   13,769;  164,432;24,73391
 357,92;   68,736;   17,772;  181,419;31,14284
 358,51;   95,244;   43,372;  214,179;30,36907
 359,11;   89,528;   36,772;  212,360;30,04560
 359,70;   61,047;   28,470;  189,965;20,17201
 360,30;   83,212;   54,562;  188,039;21,46441
 360,89;   49,009;   31,168;  188,054;11,37202
 361,48;  100,807;   55,570;  216,467;28,11525
 362,08;   52,769;   19,867;  187,156;19,66729
 362,67;   67,801;   39,763;  192,693;18,33377
 363,27;  110,144;   60,767;  247,678;26,41755
 363,86;   86,631;   35,765;  215,745;28,26181
 364,46;  104,533;   44,664;  257,231;28,16507
 365,05;  122,341;   64,659;  254,989;30,30648
 365,64;  114,998;   50,960;  269,706;29,27520
 366,24;  118,793;   38,558;  309,432;29,62059
 366,83;  146,822;   43,255;  335,383;35,45263
 367,43;  149,389;   51,545;  352,843;32,47436
 368,02;  163,387;   34,646;  399,757;35,26068
 368,61;  194,432;   62,239;  475,425;31,99368
 369,21;  167,656;   32,419;  445,299;32,75445
 369,80;  215,885;   43,007;  526,947;35,72305
 370,39;  255,520;   62,006;  604,971;35,64028
 370,99;  242,290;   42,089;  615,416;34,91916
 371,58;  242,381;   22,974;  630,953;36,08796
 372,18;  284,810;   37,166;  701,603;37,27135
 372,77;  276,312;   42,449;  679,385;36,71689
 373,36;  291,942;   42,747;  690,836;38,45079
 373,96;  287,969;   35,135;  639,498;41,83467
 374,55;  276,388;   29,844;  621,406;41,67679
 375,14;  255,304;   42,849;  573,826;40,01215
 375,74;  266,875;   69,157;  543,276;41,70215
 376,33;  224,513;   45,964;  464,589;42,65130
 376,92;  203,033;   33,278;  447,997;40,93242
 377,52;  298,282;   86,103;  548,460;45,89073
 378,11;  219,634;   46,703;  457,203;42,12686
 378,71;  239,961;   73,011;  514,270;37,83487
 379,30;  246,410;   59,517;  553,928;37,80109
 379,89;  256,674;   59,813;  556,103;39,66662
 380,49;  256,758;   31,018;  568,185;42,02428
 381,08;  305,236;   70,306;  570,990;46,92186
 381,67;  293,258;   55,008;  555,483;47,60482
 382,26;  267,936;   41,706;  539,390;45,45661
 382,86;  266,466;   54,003;  516,041;45,98386
 383,45;  304,034;   50,412;  562,105;49,56517
 384,04;  288,418;   38,712;  553,886;48,47011
 384,64;  286,523;   49,014;  566,760;45,87371
 385,23;  309,853;   64,406;  560,509;49,47487
 385,82;  323,521;   59,615;  592,774;49,49845
 386,42;  369,632;   61,024;  659,022;51,60684
 387,01;  351,207;   55,414;  580,541;56,32794
 387,60;  362,307;   69,009;  590,140;56,28106
 388,20;  350,134;   37,712;  590,805;56,48625
 388,79;  428,883;   72,418;  665,563;60,09735
 389,38;  361,236;   32,106;  564,890;61,77554
 389,97;  402,304;   45,415;  640,955;59,92702
 390,57;  434,247;   71,114;  654,038;62,29512
 391,16;  440,647;   62,514;  655,838;63,73132
 391,75;  433,283;   52,713;  638,562;64,96030
 392,34;  477,537;   60,821;  696,694;65,53449
 392,94;  469,699;   44,718;  689,683;65,89213
 393,53;  491,353;   41,016;  666,612;71,98531
 394,12;  517,875;   53,023;  719,105;69,78896
 394,72;  536,691;   54,213;  706,122;74,00998
 395,31;  540,221;   42,115;  694,874;76,30774
 395,90;  538,640;   42,924;  732,881;71,84733
 396,49;  595,559;   58,028;  779,187;74,53706
 397,09;  597,318;   47,417;  749,188;78,35906
 397,68;  629,072;   44,025;  800,719;77,31624
 398,27;  645,986;   54,626;  809,652;78,32310
 398,86;  656,805;   43,125;  807,657;80,26866
 399,45;  698,529;   56,630;  844,037;81,52066
 400,05;  691,472;   23,820;  799,518;86,07114
 400,64;  727,515;   56,419;  831,001;86,63975
 401,23;  739,205;   53,920;  859,956;85,01911
 401,82;  757,604;   67,220;  868,256;86,18646
 402,42;  775,345;   62,921;  873,953;87,84164
 403,01;  835,472;   81,525;  912,919;90,68471
 403,60;  825,494;   68,532;  940,513;86,80953
 404,19;  839,956;   76,024;  931,900;89,25731
 404,78;  854,610;   57,522;  909,929;93,51023
 405,38;  886,635;   68,332;  984,210;89,34625
 405,97;  878,970;   63,226;  953,933;91,58384
 406,56;  931,783;   71,528; 1004,366;92,21916
 407,15;  920,548;   68,829;  989,442;92,51655
 407,74;  953,705;   80,730; 1026,758;92,27789
 408,34;  937,251;   50,933; 1018,629;91,59053
 408,93;  987,970;   59,531; 1016,234;97,04566
 409,52;  976,305;   51,435; 1041,359;93,42836
 410,11; 1044,286;   84,931; 1090,453;95,40865
 410,70; 1015,410;   54,727; 1027,230;98,78456
 411,29; 1039,367;   58,628; 1030,847;100,87636
 411,89; 1051,529;   60,535; 1093,938;95,89624
 412,48; 1050,775;   48,228; 1051,606;99,91715
 413,07; 1089,908;   65,033; 1101,446;98,88675
 413,66; 1129,613;   78,135; 1102,119;102,68504
 414,25; 1137,535;   63,337; 1142,311;99,55733
 414,84; 1124,170;   69,431; 1102,434;102,10412
 415,44; 1154,289;   91,530; 1155,939;99,84494
 416,03; 1162,402;   76,637; 1161,173;100,11334
 416,62; 1193,500;   76,138; 1168,687;102,27108
 417,21; 1185,248;   75,334; 1158,843;102,43701
 417,80; 1216,543;   65,037; 1162,871;104,88894
 418,39; 1210,497;   78,440; 1179,201;102,84314
 418,98; 1198,716;   55,634; 1143,405;105,08479
 419,58; 1193,383;   64,033; 1142,067;104,76018
 420,17; 1190,789;   52,735; 1164,540;102,36089
 420,76; 1227,902;   72,537; 1192,873;103,12668
 421,35; 1219,138;   60,236; 1155,197;105,83950
 421,94; 1253,697;   88,340; 1223,501;102,66008
 422,53; 1232,113;   61,540; 1195,320;103,24520
 423,12; 1256,824;   64,039; 1190,766;105,86288
 423,71; 1228,629;   60,835; 1162,138;106,03754
 424,30; 1260,878;   85,236; 1210,695;104,45892
 424,90; 1221,475;   39,438; 1163,809;105,12881
 425,49; 1257,489;   70,140; 1216,242;103,59894
 426,08; 1269,389;   80,240; 1209,641;105,29020
 426,67; 1232,046;   57,436; 1168,257;105,74249
 427,26; 1260,359;   60,343; 1230,391;102,56132
 427,85; 1253,484;   63,238; 1209,968;103,79475
 428,44; 1272,119;   68,442; 1218,093;104,69929
 429,03; 1305,186;   85,341; 1233,155;106,27549
 429,62; 1275,378;   78,941; 1240,296;103,02082
 430,21; 1289,516;   81,443; 1277,807;100,97871
 430,80; 1255,822;   70,445; 1235,381;101,75470
 431,39; 1264,733;   53,344; 1246,926;101,49183
 431,99; 1258,229;   78,535; 1206,838;104,55477
 432,58; 1288,024;   82,639; 1251,166;103,15427
 433,17; 1268,713;   69,735; 1238,319;102,60096
 433,76; 1305,635;   71,347; 1288,314;101,42336
 434,35; 1288,505;   88,245; 1292,462;99,67147
 434,94; 1300,741;   70,849; 1318,887;98,54603
 435,53; 1278,984;   78,643; 1278,669;100,02620
 436,12; 1284,724;   70,044; 1294,267;99,22054
 436,71; 1308,630;   87,740; 1303,239;100,44349
 437,30; 1304,062;   76,941; 1299,177;100,39969
 437,89; 1346,997;   76,245; 1320,802;102,10479
 438,48; 1329,551;   65,942; 1305,731;101,92130
 439,07; 1324,608;   95,238; 1347,147;98,19965
 439,66; 1367,576;   83,648; 1375,711;99,37039
 440,25; 1359,124;   85,844; 1390,567;97,59011
 440,84; 1370,181;   79,850; 1387,984;98,63906
 441,43; 1420,782;   78,054; 1440,985;98,51762
 442,02; 1401,514;   79,650; 1411,022;99,28581
 442,61; 1442,132;   93,344; 1397,226;103,44403
 443,20; 1461,673;   94,249; 1446,625;101,11273
 443,79; 1444,387;   74,546; 1412,957;102,34832
 444,38; 1489,300;   84,248; 1461,789;101,99710
 444,97; 1504,346;   84,146; 1466,359;102,74827
 445,56; 1565,970;  101,846; 1477,038;106,46694
 446,15; 1570,571;   81,651; 1522,539;103,33349
 446,74; 1576,941;   58,644; 1462,286;108,16839
 447,33; 1630,487;   82,646; 1538,357;106,32888
 447,92; 1646,854;   78,151; 1570,720;105,10091
 448,51; 1693,554;   89,746; 1586,019;107,18689
 449,10; 1755,630;   92,045; 1608,840;109,67762
 449,69; 1756,430;   73,950; 1627,741;108,28224
 450,28; 1785,068;   66,948; 1608,251;111,47186
 450,87; 1816,052;   78,647; 1656,333;110,12363
 451,46; 1862,716;   96,048; 1702,208;109,99327
 452,05; 1907,081;   70,950; 1715,384;111,65732
 452,64; 1934,622;   70,850; 1725,182;112,66010
 453,23; 2022,211;  113,752; 1794,936;113,51874
 453,82; 2031,146;   83,451; 1800,660;113,42212
 454,40; 2060,822;   65,450; 1786,682;115,92697
 454,99; 2112,200;  101,253; 1871,891;113,57194
 455,58; 2116,519;   69,747; 1832,095;116,13895
 456,17; 2148,352;   63,852; 1873,634;115,17963
 456,76; 2207,354;   67,751; 1918,820;115,58746
 457,35; 2261,800;   78,348; 1930,490;117,88799
 457,94; 2305,133;   66,954; 1978,929;117,06111
 458,53; 2315,638;   67,350; 2010,101;115,72705
 459,12; 2380,536;   82,657; 2111,116;113,28199
 459,71; 2365,784;   58,148; 2060,071;115,27099
 460,30; 2426,976;   84,448; 2087,511;116,94729
 460,89; 2430,954;   57,551; 2129,920;114,52611
 461,48; 2476,333;   75,954; 2173,829;114,41956
 462,06; 2491,598;   68,050; 2187,303;114,35855
 462,65; 2481,333;   48,249; 2176,527;114,32169
 463,24; 2515,163;   87,456; 2288,680;110,28893
 463,83; 2525,298;   54,450; 2229,803;113,58373
 464,42; 2555,341;   88,349; 2333,687;109,87173
 465,01; 2582,922;   73,050; 2336,482;110,88789
 465,60; 2573,814;   64,050; 2384,322;108,16678
 466,19; 2617,733;   73,354; 2462,829;106,48278
 466,77; 2640,671;   81,551; 2462,939;107,46338
 467,36; 2619,028;   69,457; 2459,256;106,68555
 467,95; 2642,579;   79,551; 2466,098;107,39480
 468,54; 2648,865;   71,954; 2513,866;105,52841
 469,13; 2664,103;   69,452; 2535,977;105,19460
 469,72; 2685,814;   67,555; 2582,723;104,09875
 470,31; 2703,530;   87,855; 2629,242;102,92312
 470,90; 2706,490;   76,750; 2652,044;102,11415
 471,48; 2764,944;   32,057; 2671,875;103,52557
 472,07; 2834,227;  125,747; 2686,454;105,77080
 472,66; 2830,376;   67,853; 2748,412;103,05772
 473,25; 2857,571;   68,351; 2723,339;105,05583
 473,84; 2889,290;   55,955; 2766,545;104,52834
 474,43; 2939,549;   55,459; 2843,049;103,46179
 475,01; 3003,374;   69,254; 2885,926;104,16973
 475,60; 3013,206;   49,755; 2882,364;104,61914
 476,19; 3105,393;   74,158; 2956,932;105,14991
 476,78; 3130,328;   71,057; 2964,456;105,73275
 477,37; 3168,306;   59,355; 2945,364;107,72492
 477,95; 3239,646;   75,656; 3018,661;107,50882
 478,54; 3268,301;   63,253; 3023,691;108,26263
 479,13; 3299,900;   56,253; 3070,291;107,61802
 479,72; 3386,549;   81,154; 3090,147;109,85052
 480,31; 3423,566;   63,459; 3167,468;108,25055
 480,89; 3430,073;   60,254; 3171,026;108,32743
 481,48; 3479,222;   46,260; 3214,084;108,36973
 482,07; 3536,465;   61,654; 3233,866;109,53905
 482,66; 3510,609;   52,853; 3253,650;108,02795
 483,25; 3579,822;   78,960; 3319,884;108,02050
 483,83; 3597,582;   59,954; 3325,385;108,33569
 484,42; 3620,433;   54,354; 3355,129;108,03763
 485,01; 3642,476;   65,958; 3400,413;107,25945
 485,60; 3709,341;   73,764; 3490,590;106,40217
 486,18; 3666,947;   66,956; 3490,761;105,14588
 486,77; 3618,511;   67,252; 3519,736;102,86098
 487,36; 3677,050;   58,464; 3561,750;103,29118
 487,95; 3676,263;   59,161; 3640,781;100,99065
 488,53; 3655,955;   54,461; 3642,522;100,37437
 489,12; 3621,309;   50,563; 3722,252;97,25077
 489,71; 3589,128;   38,062; 3680,357;97,49527
 490,30; 3607,539;   61,460; 3742,503;96,33352
 490,88; 3595,071;   87,561; 3859,141;92,99842
 491,47; 3517,817;   60,663; 3867,512;90,81406
 492,06; 3501,677;   62,563; 3920,615;89,14120
 492,65; 3510,887;   59,161; 3947,060;88,78127
 493,23; 3484,914;   54,860; 3982,825;87,32396
 493,82; 3442,092;   65,853; 4018,031;85,42731
 494,41; 3411,803;   51,361; 4066,179;83,70099
 494,99; 3424,690;   73,655; 4126,945;82,67444
 495,58; 3418,639;   86,060; 4224,403;80,52929
 496,17; 3365,963;   56,356; 4198,681;79,89733
 496,76; 3415,046;   65,356; 4276,761;79,53855
 497,34; 3382,652;   54,557; 4305,235;78,29562
 497,93; 3405,244;   66,057; 4350,675;77,93429
 498,52; 3407,982;   60,059; 4454,387;76,18737
 499,10; 3433,936;   75,862; 4533,217;75,33782
 499,69; 3417,598;   55,360; 4537,006;75,02239
 500,28; 3423,266;   37,959; 4592,068;74,33521
 500,86; 3498,312;   62,862; 4698,539;74,10892
 501,45; 3506,812;   53,462; 4730,438;73,83722
 502,04; 3550,028;   53,362; 4813,958;73,45018
 502,62; 3608,763;   70,956; 4856,181;73,93188
 503,21; 3593,579;   57,856; 4939,699;72,42598
 503,80; 3673,644;   69,662; 5015,577;72,86786
 504,38; 3710,614;   58,460; 5081,425;72,70914
 504,97; 3761,744;   49,962; 5122,776;73,17008
 505,56; 3757,741;   70,859; 5194,989;71,95138
 506,14; 3842,758;   64,064; 5263,709;72,67214
 506,73; 3789,698;   23,565; 5292,507;71,47798
 507,32; 3846,631;   62,865; 5376,045;71,21471
 507,90; 3858,922;   70,860; 5443,284;70,50937
 508,49; 3900,206;   58,865; 5500,366;70,59341
 509,08; 3919,533;   67,264; 5571,931;69,98188
 509,66; 3920,130;   69,960; 5677,644;68,65884
 510,25; 3929,879;   63,561; 5737,400;68,14289
 510,83; 3972,898;   45,165; 5855,607;67,59784
 511,42; 3955,017;   61,968; 5895,913;66,73099
 512,01; 3949,674;   59,164; 5980,328;65,70515
 512,59; 3974,144;   46,562; 6041,676;65,51305
 513,18; 3939,803;   59,961; 6114,379;64,08283
 513,77; 3936,620;   42,257; 6171,797;63,53434
 514,35; 3924,868;   37,763; 6190,255;63,17937
 514,94; 3916,736;   58,662; 6323,517;61,58281
 515,52; 3923,371;   48,166; 6358,342;61,41200
 516,11; 3953,390;   80,665; 6474,047;60,57397
 516,69; 3885,774;   41,959; 6446,727;60,01489
 517,28; 3899,885;   83,358; 6541,973;59,09203
 517,87; 3844,268;   45,558; 6604,054;57,92045
 518,45; 3856,201;   74,858; 6626,192;57,71867
 519,04; 3872,025;   54,258; 6707,970;57,37800
 519,62; 3895,376;   55,863; 6774,114;57,15049
 520,21; 3855,679;   24,466; 6828,002;56,31209
 520,79; 3909,485;   52,068; 7000,875;55,51193
 521,38; 3944,947;   52,960; 6995,363;56,06109
 521,97; 3972,709;   43,068; 7141,554;55,35887
 522,55; 3992,333;   67,759; 7195,230;55,06265
 523,14; 3986,641;   26,759; 7180,289;55,35564
 523,72; 4118,955;   77,561; 7383,422;55,31715
 524,31; 4149,498;   71,665; 7406,107;55,59841
 524,89; 4227,077;   48,468; 7526,815;55,87610
 525,48; 4278,004;   21,666; 7603,580;56,13804
 526,06; 4367,274;   56,264; 7633,128;56,89702
 526,65; 4454,639;   72,370; 7803,105;56,68631
 527,23; 4502,660;   46,262; 7840,596;57,17484
 527,82; 4640,744;   37,967; 7905,978;58,49988
 528,41; 4732,596;   67,366; 8041,021;58,50805
 528,99; 4793,506;   66,365; 8108,167;58,78212
 529,58; 4870,152;   42,562; 8168,736;59,40791
 530,16; 5011,304;   49,461; 8315,379;60,02773
 530,75; 5186,766;   73,964; 8417,069;61,28176
 531,33; 5171,704;   45,566; 8440,980;61,05878
 531,92; 5249,931;   48,560; 8567,344;61,05767
 532,50; 5444,407;   87,770; 8706,468;62,15135
 533,09; 5505,139;   65,665; 8807,204;62,22558
 533,67; 5560,817;   63,458; 8952,011;61,84762
 534,26; 5665,706;   65,760; 9007,665;62,62587
 534,84; 5730,387;   68,461; 9127,061;62,50333
 535,42; 5805,666;   61,564; 9205,969;62,81548
 536,01; 5935,177;   79,263; 9330,215;63,30066
 536,59; 5990,679;   43,366; 9482,202;63,00897
 537,18; 6042,198;   77,360; 9568,605;62,84569
 537,76; 6121,420;   56,972; 9764,700;62,47031
 538,35; 6225,001;   59,368; 9892,694;62,70140
 538,93; 6306,274;   72,664; 9941,828;63,16249
 539,52; 6357,839;   57,370;10111,405;62,66607
 540,10; 6458,274;   63,269;10309,029;62,41611
 540,69; 6498,925;   68,763;10444,071;61,97562
 541,27; 6570,936;   58,262;10514,917;62,28258
 541,85; 6627,863;   47,366;10658,783;62,01337
 542,44; 6713,922;   56,460;10765,484;62,16684
 543,02; 6837,174;   80,369;10952,729;62,14663
 543,61; 6879,136;   77,067;11102,218;61,69593
 544,19; 6967,655;   55,066;11264,023;61,67022
 544,78; 6957,487;   62,766;11296,562;61,37482
 545,36; 7142,058;   77,469;11521,011;61,73429
 545,94; 7152,366;   54,564;11563,069;61,67440
 546,53; 7190,904;   52,771;11724,882;61,15546
 547,11; 7276,425;   90,668;11879,873;60,95201
 547,70; 7299,298;   75,860;11954,706;60,80926
 548,28; 7350,207;   47,965;12093,066;60,62416
 548,86; 7531,006;   81,365;12327,767;60,83127
 549,45; 7491,109;   33,768;12364,953;60,47546
 550,03; 7644,452;   76,467;12507,537;60,87959
 550,62; 7718,671;   63,566;12662,842;60,75830
 551,20; 7830,036;   61,467;12808,418;60,94453
 551,78; 7882,850;   61,164;12952,850;60,67233
 552,37; 7945,966;   55,864;13112,469;60,42997
 552,95; 8013,890;   56,765;13214,547;60,47467
 553,54; 8153,398;   49,965;13393,207;60,73062
 554,12; 8158,260;   67,167;13498,797;60,23910
 554,70; 8320,325;   67,568;13736,973;60,37393
 555,29; 8332,322;   61,965;13856,285;59,95480
 555,87; 8426,423;   60,170;13987,786;60,06952
 556,45; 8414,528;   57,162;14154,058;59,28515
 557,04; 8559,220;   43,667;14376,600;59,41249
 557,62; 8658,920;   68,867;14525,499;59,41946
 558,20; 8771,712;   42,671;14799,940;59,15079
 558,79; 8880,685;  100,368;14905,875;59,30440
 559,37; 8916,336;   49,867;15000,418;59,30530
 559,95; 8983,542;   46,669;15169,691;59,09449
 560,54; 9022,518;   71,768;15324,613;58,68249
 561,12; 9184,888;   50,866;15485,562;59,17850
 561,70; 9245,950;   50,369;15679,551;58,83597
 562,29; 9406,401;   61,768;15810,994;59,33392
 562,87; 9485,009;   73,168;16023,953;59,00550
 563,45; 9570,109;   71,068;16194,754;58,91358
 564,04; 9583,160;   54,362;16227,195;58,91854
 564,62; 9654,334;   37,769;16438,332;58,63558
 565,20; 9716,512;   59,962;16715,838;57,97684
 565,78; 9921,114;   70,765;16797,326;58,89046
 566,37; 9925,463;   71,066;17011,283;58,17161
 566,95; 9953,674;   52,969;17124,330;57,99599
 567,53;10099,328;   67,262;17308,857;58,18525
 568,12;10059,406;   62,265;17367,766;57,76858
 568,70;10274,682;   85,264;17565,889;58,28978
 569,28;10274,149;   61,069;17745,252;57,75263
 569,86;10360,229;   67,767;17910,758;57,68350
 570,45;10495,282;   78,569;18124,689;57,72273
 571,03;10496,720;   53,962;18259,898;57,35908
 571,61;10488,056;   46,571;18424,824;56,81435
 572,19;10563,185;   54,263;18395,773;57,29584
 572,78;10682,685;   70,668;18668,975;57,05905
 573,36;10790,266;   84,264;18797,668;57,21034
 573,94;10767,250;   44,064;18892,750;56,89089
 574,52;10881,565;   54,559;19030,768;57,05569
 575,11;10930,134;   37,264;19159,830;56,96343
 575,69;10929,004;   53,566;19268,680;56,59835
 576,27;10956,663;   47,161;19391,381;56,39670
 576,85;11073,565;   43,264;19549,668;56,54708
 577,44;11072,228;   30,262;19814,158;55,81290
 578,02;11143,582;   32,159;19753,887;56,34102
 578,60;11306,441;   50,464;20073,791;56,21432
 579,18;11365,509;   51,963;20160,752;56,26170
 579,76;11403,974;   40,264;20300,129;56,08976
 580,35;11440,398;   60,170;20436,707;55,84967
 580,93;11602,669;   59,667;20641,557;56,08329
 581,51;11613,706;   24,770;20697,168;56,05995
 582,09;11719,769;   58,663;20755,756;56,34176
 582,67;11731,536;   49,567;20971,318;55,83648
 583,26;11941,417;   28,568;21227,014;56,19680
 583,84;11937,458;   14,164;21413,709;55,71751
 584,42;12115,482;   48,064;21513,287;56,21846
 585,00;12190,704;   81,366;21772,180;55,82703
 585,58;12214,220;   25,167;21912,299;55,69050
 586,17;12263,455;   46,761;21948,521;55,77951
 586,75;12206,379;    6,666;22026,902;55,40228
 587,33;12354,845;   47,767;22191,678;55,57771
 587,91;12370,079;   74,866;22390,201;55,09760
 588,49;12394,928;   63,962;22349,758;55,33105
 589,07;12411,477;   45,468;22403,215;55,30973
 589,65;12288,012;   28,267;22444,439;54,69152
 590,24;12320,819;   42,562;22447,799;54,80084
 590,82;12302,287;   28,261;22484,160;54,65836
 591,40;12295,357;   41,464;22520,209;54,51325
 591,98;12161,374;   45,759;22558,227;53,81736
 592,56;12233,587;   61,161;22699,961;53,76798
 593,14;12108,374;   43,359;22728,928;53,18366
 593,72;12123,998;   29,765;22889,107;52,90718
 594,30;11973,182;   36,759;22797,486;52,44306
 594,89;11956,273;   41,364;22862,428;52,21014
 595,47;11990,155;   38,961;22922,623;52,22588
 596,05;11835,620;   30,267;23003,799;51,38676
 596,63;11881,620;   31,167;23056,199;51,46769
 597,21;11831,071;   36,766;23145,441;51,03843
 597,79;11768,412;   35,467;23166,039;50,72484
 598,37;11761,391;   36,669;23222,748;50,56794
 598,95;11761,979;   50,766;23305,301;50,36099
 599,53;11689,920;   46,757;23207,996;50,27004
 600,11;11702,690;   48,665;23341,947;50,03170
 600,70;11565,517;   57,363;23315,111;49,48094
 601,28;11568,857;   38,564;23424,809;49,30374
 601,86;11492,579;   61,766;23355,102;49,07332
 602,44;11408,987;   23,661;23449,660;48,60124
 603,02;11460,455;   38,656;23576,521;48,52521
 603,60;11414,293;   54,858;23663,232;48,11613
 604,18;11324,093;   69,263;23594,734;47,84104
 604,76;11204,668;   59,263;23642,154;47,26055
 605,34;11008,447;   27,565;23530,764;46,72080
 605,92;10884,995;   59,561;23453,719;46,27409
 606,50;10717,020;   17,662;23498,998;45,56537
 607,08;10519,304;   31,666;23394,881;44,88953
 607,66;10388,972;   39,266;23561,643;43,99941
 608,24;10160,028;   46,067;23522,059;43,08215
 608,82;10065,033;   26,164;23532,031;42,70793
 609,40; 9794,596;   46,466;23471,021;41,61500
 609,98; 9624,474;   18,864;23505,928;40,89745
 610,56; 9441,446;   43,861;23497,662;40,06850
 611,14; 9299,322;   30,765;23481,086;39,52422
 611,72; 9236,006;   42,665;23572,467;39,07105
 612,30; 9095,660;   24,962;23468,496;38,69168
 612,88; 9051,333;   60,659;23517,730;38,32820
 613,46; 8976,220;   21,862;23505,697;38,12988
 614,04; 8990,025;   30,068;23461,873;38,23844
 614,62; 8943,263;   41,561;23489,982;37,96290
 615,20; 8994,477;   52,768;23402,416;38,29483
 615,78; 9010,474;   25,569;23463,430;38,33500
 616,36; 9136,850;   41,364;23400,150;38,93818
 616,94; 9157,972;    7,666;23272,242;39,33150
 617,52; 9248,669;   24,067;23373,656;39,50648
 618,10; 9272,258;   63,559;23336,107;39,56893
 618,68; 9333,363;   17,966;23253,184;40,09172
 619,26; 9385,493;   39,268;23398,834;40,01027
 619,84; 9317,993;   18,963;23277,133;39,98178
 620,42; 9310,398;   31,165;23313,506;39,85524
 621,00; 9265,798;   28,865;23209,607;39,84744
 621,58; 9170,098;   38,760;23216,406;39,39717
 622,16; 9104,247;   49,270;23335,164;38,88610
 622,74; 9064,171;   47,066;23327,742;38,73214
 623,32; 8962,755;   42,166;23291,223;38,36968
 623,90; 8882,863;   66,971;23311,484;37,92677
 624,48; 8715,220;   32,662;23196,598;37,48309
 625,05; 8679,620;   34,562;23105,098;37,47229
 625,63; 8584,120;   52,962;23188,799;36,87422
 626,21; 8518,960;   38,262;23117,596;36,74585
 626,79; 8490,036;   53,967;23219,719;36,41613
 627,37; 8398,936;   28,162;23090,717;36,29595
 627,95; 8457,577;   72,768;23200,215;36,25480
 628,53; 8391,498;   49,365;23176,607;36,07059
 629,11; 8363,149;   48,259;23043,449;36,15926
 629,69; 8435,134;   53,369;23256,932;36,12275
 630,27; 8503,893;   80,763;23105,434;36,58306
 630,84; 8460,620;   43,862;23021,197;36,63070
 631,42; 8572,868;   54,367;23319,656;36,61464
 632,00; 8570,365;   45,459;23125,768;36,93584
 632,58; 8633,525;   50,263;23105,172;37,22965
 633,16; 8672,539;   49,870;23096,906;37,41335
 633,74; 8639,982;   56,264;23018,488;37,38191
 634,32; 8660,171;   45,661;23007,842;37,51608
 634,90; 8751,531;   51,970;23195,746;37,58920
 635,47; 8636,530;   38,860;23035,645;37,38640
 636,05; 8582,171;   37,461;22989,342;37,22880
 636,63; 8539,298;   45,965;23104,807;36,83330
 637,21; 8474,574;   67,464;23150,529;36,42112
 637,79; 8379,639;   71,465;23192,904;35,93277
 638,37; 8257,922;   54,055;23070,883;35,64291
 638,94; 8121,223;   33,265;23100,686;35,06225
 639,52; 8032,223;   41,665;23195,285;34,51105
 640,10; 7937,273;   64,264;23215,900;34,00628
 640,68; 7804,536;   54,164;23175,334;33,52067
 641,26; 7705,898;   35,864;23250,268;33,03998
 641,84; 7599,161;   39,164;23235,002;32,59204
 642,41; 7536,923;   28,264;23192,936;32,41427
 642,99; 7478,385;   48,464;23145,568;32,16819
 643,57; 7454,848;   22,064;23158,402;32,12602
 644,15; 7457,910;   27,064;23178,035;32,09734
 644,73; 7538,072;   37,564;23277,568;32,27413
 645,30; 7538,935;   55,264;23230,303;32,29194
 645,88; 7563,697;   44,964;23362,635;32,24478
 646,46; 7632,359;   59,264;23447,568;32,37984
 647,04; 7676,521;   51,864;23367,902;32,70134
 647,61; 7743,784;   46,564;23396,336;32,96486
 648,19; 7876,046;   61,664;23433,369;33,43523
 648,77; 7977,609;   26,264;23442,002;33,95727
 649,35; 8096,271;   51,064;23590,137;34,17810
 649,92; 8156,333;   42,464;23596,070;34,44852
 650,50; 8155,096;   30,064;23551,104;34,54368
 651,08; 8261,958;   39,964;23450,537;35,12086
 651,66; 8282,320;   21,864;23534,770;35,13158
 652,23; 8333,183;   39,064;23561,004;35,26120
 652,81; 8382,345;   36,464;23644,137;35,35241
 653,39; 8335,508;   56,164;23647,170;35,09534
 653,97; 8317,670;   37,065;23882,504;34,72616
 654,54; 8208,732;   23,565;23823,137;34,39208
 655,12; 8170,895;   30,965;23831,971;34,19994
 655,70; 8137,857;   42,065;23962,805;33,84424
 656,28; 7997,919;   32,765;23947,037;33,30712
 656,85; 7924,282;   44,065;24051,070;32,82466
 657,43; 7792,044;   -1,035;23831,305;32,69960
 658,01; 7789,306;   21,465;24078,539;32,28922
 658,58; 7847,869;   55,165;24234,371;32,22895
 659,16; 7723,431;   51,965;24154,105;31,82898
 659,74; 7754,993;   59,465;24338,039;31,69679
 660,32; 7768,756;   71,665;24327,672;31,73272
 660,89; 7751,218;   34,265;24347,305;31,73998
 661,47; 7802,280;   51,665;24464,939;31,74755
 662,05; 7774,943;   25,365;24587,373;31,55108
 662,62; 7926,805;   59,665;24584,006;32,07891
 663,20; 8023,467;   80,665;24740,139;32,20994
 663,78; 8114,130;   47,965;24902,773;32,45314
 664,35; 8243,893;   52,465;24921,006;32,93892
 664,93; 8316,255;   64,465;25123,539;32,92935
 665,51; 8427,217;   49,565;25170,973;33,34866
 666,08; 8535,479;   30,165;25185,707;33,81090
 666,66; 8765,241;   47,465;25667,539;34,02713
 667,23; 8820,004;   51,765;25732,773;34,14289
 667,81; 9005,466;   65,865;25889,307;34,61816
 668,39; 9112,729;   43,265;26047,141;34,87735
 668,96; 9185,391;   54,665;26309,074;34,77787
 669,54; 9283,253;   38,765;26408,408;35,05731
 670,12; 9384,315;   51,165;26808,740;34,88040
 670,69; 9397,778;   64,165;26950,674;34,71486
 671,27; 9361,841;   25,565;27096,008;34,48882
 671,84; 9279,503;   40,665;27105,240;34,13627
 672,42; 9374,065;   66,265;27253,875;34,23545
 673,00; 9315,527;   57,165;27531,408;33,69833
 673,57; 9187,290;   59,965;27276,441;33,53603
 674,15; 9182,452;   64,065;27613,475;33,09830
 674,72; 9032,614;   58,565;27536,209;32,65946
 675,30; 8919,276;   69,466;27513,541;32,24671
 675,88; 8898,739;   36,266;27573,176;32,18398
 676,45; 8913,802;   59,466;27677,309;32,06020
 677,03; 8798,364;   67,866;27525,043;31,79678
 677,60; 8706,526;   41,466;27770,576;31,24897
 678,18; 8766,089;   59,466;27877,510;31,29847
 678,76; 8778,051;   40,766;27809,143;31,46488
 679,33; 8846,113;   57,666;27813,176;31,66379
 679,91; 8801,775;   44,266;27813,311;31,53695
 680,48; 8926,038;   28,766;27740,242;32,10681
 681,06; 9016,000;   50,866;27735,176;32,38345
 681,63; 9033,963;   37,566;27736,209;32,47956
 682,21; 9182,425;   67,966;27797,543;32,86909
 682,78; 9077,088;   20,566;27459,576;33,00601
 683,36; 9251,950;   46,966;27565,510;33,45011
 683,93; 9294,813;   30,466;27450,645;33,78660
 684,51; 9400,475;   26,166;27477,277;34,14910
 685,08; 9572,837;   38,966;27733,711;34,42484
 685,66; 9638,100;   53,066;27694,045;34,67690
 686,24; 9744,661;   33,766;27796,578;34,97807
 686,81; 9857,324;   57,666;27899,910;35,19708
 687,39; 9864,887;   38,866;27807,844;35,38488
 687,96; 9885,249;   54,166;27850,479;35,36830
 688,54; 9955,011;   30,866;27984,811;35,50177
 689,11; 9990,173;   26,966;28043,545;35,56182
 689,69; 9953,936;   29,666;28019,279;35,45697
 690,26;10002,298;   59,466;28289,313;35,22099
 690,84; 9876,460;   50,066;28239,846;34,85800
 691,41; 9903,723;   35,966;28403,879;34,78492
 691,98; 9766,885;   31,466;28427,912;34,28393
 692,56; 9741,647;   32,866;28437,445;34,18034
 693,13; 9759,810;   64,866;28655,080;33,91001
 693,71; 9715,572;   24,466;28657,912;33,84541
 694,28; 9641,334;   41,966;28715,945;33,47763
 694,86; 9692,997;   47,266;28928,879;33,39748
 695,43; 9677,359;   61,366;29100,912;33,11344
 696,01; 9649,121;   36,266;29145,547;33,02333
 696,58; 9683,384;   42,167;29083,879;33,19783
 697,16; 9664,646;   38,067;29126,414;33,09428
 697,73; 9712,009;   63,467;29338,246;32,95855
 698,30; 9748,271;   51,867;29223,980;33,23861
 698,88; 9770,434;   40,467;29558,613;32,96266
 699,45; 9899,996;   35,367;29765,848;33,18019
 700,03; 9987,358;   56,067;29750,980;33,44442
 700,60;10116,620;   56,267;29850,613;33,76598
 701,18;10263,982;   61,867;29963,947;34,11841
 701,75;10500,445;   74,367;30094,682;34,73008
 702,32;10489,707;   50,367;29901,914;34,97085
 702,90;10673,170;   52,467;30254,148;35,16593
 703,47;10811,432;   51,367;30428,881;35,42115
 704,05;10926,194;   67,767;30546,715;35,62599
 704,62;11022,257;   39,867;30587,848;35,95128
 705,19;11079,319;   43,667;30586,982;36,13115
 705,77;11178,281;   29,967;30618,314;36,44628
 706,34;11318,943;   61,667;30627,049;36,83015
 706,91;11408,606;   46,367;30673,883;37,09814
 707,49;11537,368;   57,267;30976,316;37,12954
 708,06;11553,230;   66,367;31089,049;37,02731
 708,64;11583,894;   25,767;31093,582;37,20289
 709,21;11530,155;   58,167;31179,316;36,86235
 709,78;11561,918;   41,367;31281,150;36,87782
 710,36;11581,980;   61,667;31419,684;36,73802
 710,93;11607,643;   50,567;31562,416;36,67533
 711,50;11559,005;   44,467;31506,049;36,59872
 712,08;11591,268;   76,567;31925,383;36,15425
 712,65;11560,630;   73,667;31775,916;36,23390
 713,22;11444,792;   69,067;31900,250;35,73768
 713,80;11486,255;   84,167;31966,883;35,76260
 714,37;11376,217;   55,767;31827,018;35,63111
 714,94;11362,679;   53,967;31727,551;35,70392
 715,52;11377,642;   47,867;31732,984;35,75740
 716,09;11325,704;   65,467;31891,918;35,38012
 716,66;11354,666;   73,467;31935,051;35,40690
 717,23;11395,929;   66,867;31908,484;35,57942
 717,81;11442,791;   50,168;31812,018;35,86889
 718,38;11311,653;   47,468;31671,252;35,61935
 718,95;11447,315;   59,068;31618,984;36,08453
 719,53;11466,778;   56,568;31661,418;36,10272
 720,10;11523,641;   59,968;31481,252;36,48378
 720,67;11534,703;   35,768;31355,984;36,71410
 721,24;11611,765;   59,468;31256,020;37,03069
 721,82;11573,527;   49,968;31236,053;36,95097
 722,39;11811,890;   64,068;31235,885;37,68732
 722,96;11973,152;   64,968;31261,420;38,17160
 723,53;11956,814;   88,268;31151,953;38,20714
 724,11;12041,276;   61,568;31207,486;38,46317
 724,68;12198,139;   71,568;31242,020;38,90406
 725,25;12377,302;   72,768;31399,953;39,27750
 725,82;12460,964;   96,068;31564,387;39,29316
 726,40;12505,227;   62,668;31714,820;39,31031
 726,97;12581,089;   62,168;31875,354;39,35136
 727,54;12692,851;   46,968;31801,486;39,82388
 728,11;12759,413;   49,568;32045,820;39,72292
 728,69;12725,775;   39,568;31938,953;39,76944
 729,26;12830,738;   53,568;32105,088;39,86448
 729,83;12866,101;   53,268;32264,621;39,77738
 730,40;12986,963;   66,768;32291,754;40,09372
 730,97;12968,125;   44,268;32590,588;39,70912
 731,55;13070,987;   41,468;32755,820;39,82814
 732,12;13114,850;   86,268;32841,656;39,77538
 732,69;13045,313;   66,968;32889,988;39,54037
 733,26;13036,975;   55,168;32930,520;39,48796
 733,83;13043,637;   41,168;32979,055;39,47572
 734,41;13107,999;   65,468;32991,590;39,61150
 734,98;13129,962;   51,368;33155,621;39,50729
 735,55;13287,824;   43,168;33183,656;39,96518
 736,12;13299,986;   65,968;33377,289;39,72829
 736,69;13401,549;   76,968;33377,922;40,01261
 737,26;13401,011;   57,468;33552,254;39,83767
 737,84;13530,373;   70,768;33487,188;40,27842
 738,41;13493,836;   63,168;33492,422;40,17639
 738,98;13565,098;   63,569;33375,055;40,53115
 739,55;13666,061;   49,669;33377,789;40,85557
 740,12;13824,822;   62,969;33678,023;40,93955
 740,69;13943,185;   70,569;33575,656;41,40451
 741,26;14061,547;   56,269;33557,391;41,80540
 741,83;14163,409;   53,869;33719,523;41,91079
 742,41;14298,872;   56,169;33833,055;42,16701
 742,98;14399,034;   91,469;33874,590;42,35122
 743,55;14515,297;   53,569;33836,824;42,80738
 744,12;14660,659;   50,469;33859,855;43,21341
 744,69;14806,521;   59,569;33848,492;43,64434
 745,26;14764,684;   42,169;33677,723;43,77069
 745,83;14857,546;   58,769;33854,355;43,78908
 746,40;14969,809;   57,969;33844,789;44,13508
 746,97;15075,371;   44,769;33828,125;44,49115
 747,55;15112,934;   62,269;33966,957;44,39110
 748,12;15126,195;   57,869;33910,191;44,51194
 748,69;15156,458;   68,769;33877,625;44,62644
 749,26;15291,721;   65,069;33958,559;44,92500
 749,83;15290,183;   42,569;33911,992;45,01882
 750,40;15446,645;   89,669;34158,824;45,07589
 750,97;15514,007;   96,269;34144,160;45,28250
 751,54;15433,870;   40,569;33980,793;45,35415
 752,11;15481,532;   52,969;33874,727;45,61727
 752,68;15467,694;   87,869;33912,859;45,46882
 753,25;15437,457;   60,269;33774,594;45,61025
 753,82;15477,319;   65,069;33810,527;45,67207
 754,39;15649,081;   75,169;33727,160;46,27932
 754,96;15612,844;   60,069;33616,395;46,34826
 755,53;15725,906;   29,469;33796,527;46,48447
 756,10;15664,568;   64,169;33720,961;46,35141
 756,67;15832,931;   73,369;33813,395;46,70880
 757,24;15760,293;   72,769;33740,426;46,59523
 757,81;15757,855;   16,469;33677,762;46,76406
 758,38;15906,218;   54,569;33822,695;46,94264
 758,95;15896,080;   79,469;33743,426;46,98381
 759,52;15912,942;   57,469;33615,859;47,24742
 760,09;15884,505;   68,570;33306,992;47,58329
 760,66;15919,967;   59,570;33309,727;47,70022
 761,23;16043,330;   91,070;33353,961;47,95813
 761,80;15962,092;   56,270;33295,793;47,85214
 762,37;16075,555;   68,970;33167,727;48,36008
 762,94;16162,017;   70,970;33187,461;48,58923
 763,51;16162,179;   36,070;32949,793;48,99509
 764,08;16194,041;   66,270;32998,527;48,97257
 764,65;16200,704;   69,570;32798,961;49,28639
 765,22;16172,366;   54,670;32804,496;49,21460
 765,79;16272,129;   77,370;32691,928;49,65500
 766,36;16335,591;   73,170;32743,063;49,77801
 766,93;16299,854;   68,970;32551,295;49,96836
 767,50;16352,915;   89,470;32828,328;49,67627
 768,07;16427,979;   63,870;32699,262;50,14222
 768,64;16463,541;   86,470;32572,596;50,41251
 769,21;16263,003;   57,970;32359,729;50,16765
 769,78;16293,765;   78,770;32244,963;50,41005
 770,34;16218,527;   45,570;32031,195;50,56321
 770,91;16271,390;   58,470;31921,430;50,88328
 771,48;16279,152;   62,370;31836,863;51,03711
 772,05;16233,314;   66,470;31610,697;51,25136
 772,62;16120,776;   42,670;31443,029;51,20357
 773,19;16194,439;   59,370;31579,764;51,18930
 773,76;16238,602;   71,070;31506,297;51,43125
 774,33;16168,664;   74,170;31447,330;51,30020
 774,90;16063,126;   52,870;31206,064;51,39202
 775,47;16160,688;   59,970;30957,498;52,11005
 776,03;16103,951;   73,470;30984,330;51,86035
 776,60;16138,413;   55,970;30757,863;52,38258
 777,17;16133,875;   65,470;30698,098;52,45520
 777,74;16000,438;   30,870;30522,031;52,37441
 778,31;16188,800;   68,970;30582,064;52,82922
 778,88;16113,662;   30,470;30366,898;53,01610
 779,45;16056,125;   75,770;30358,131;52,77117
 780,01;16057,888;   58,370;30299,664;52,90619
 780,58;15962,949;   60,570;30177,998;52,80125
 781,15;15944,912;   38,771;29979,432;53,12555
 781,72;16016,574;   66,771;29962,266;53,35186
 782,29;15923,537;   51,771;29667,100;53,59308
 782,86;15942,999;   55,571;29617,732;53,74244
 783,42;15964,661;   56,171;29598,166;53,85043
 783,99;15914,124;   66,671;29482,100;53,87463
 784,56;15894,187;   55,171;29320,232;54,12261
 785,13;15814,049;   40,271;29247,266;54,00685
 785,70;15684,211;   49,071;29060,299;53,89341
 786,26;15740,673;   51,671;28910,732;54,36421
 786,83;15789,336;   84,371;28889,166;54,52205
 787,40;15710,397;   57,171;28783,500;54,49087
 787,97;15667,260;   43,971;28581,133;54,74717
 788,54;15679,322;   70,371;28515,268;54,87435
 789,10;15548,185;   57,971;28344,400;54,76200
 789,67;15593,947;   70,371;28245,334;55,09706
 790,24;15467,909;   51,071;28193,768;54,78096
 790,81;15356,672;   88,271;27914,400;54,87073
 791,37;15258,534;   73,671;27872,135;54,62483
 791,94;15307,497;   70,771;27886,367;54,77764
 792,51;15162,559;   46,271;27539,201;54,98245
 793,08;15056,621;   69,771;27555,234;54,52646
 793,64;14933,983;   71,271;27455,168;54,27537
 794,21;14956,746;   69,671;27250,602;54,77029
 794,78;14855,509;   53,071;27147,035;54,63371
 795,35;14853,471;   73,471;27007,969;54,87386
 795,91;14653,933;   48,071;26789,301;54,61926
 796,48;14560,096;   55,771;26710,734;54,41510
 797,05;14585,958;   57,671;26624,369;54,68608
 797,62;14554,220;   41,971;26600,701;54,64210
 798,18;14532,782;   57,471;26410,736;54,92796
 798,75;14412,445;   56,571;26279,770;54,74494
 799,32;14423,107;   60,771;26209,102;54,92640
 799,88;14424,069;   55,971;26051,535;55,27135
 800,45;14387,932;   33,971;25945,270;55,39653
 801,02;14357,395;   65,271;25880,104;55,36400
 801,58;14227,656;   90,872;25660,436;55,28755
 802,15;14197,619;   72,872;25615,270;55,29922
 802,72;14208,381;   66,172;25404,703;55,81306
 803,28;14130,344;   49,172;25288,938;55,78963
 803,85;14062,306;   41,972;25144,871;55,85145
 804,42;14131,368;   77,772;24948,004;56,50770
 804,98;13960,131;  100,672;24935,537;55,80646
 805,55;13883,793;   56,972;24702,371;56,10305
 806,12;13858,855;   83,572;24611,004;56,16276
 806,68;13779,218;   66,472;24493,738;56,13705
 807,25;13752,380;   74,972;24436,271;56,14400
 807,82;13730,042;   86,872;24407,805;56,09641
 808,38;13604,005;   73,672;24367,037;55,69559
 808,95;13604,867;   62,972;24166,971;56,18112
 809,52;13608,430;   50,272;24162,004;56,23054
 810,08;13541,092;   55,172;23994,938;56,33271
 810,65;13628,954;   77,172;24169,672;56,24897
 811,21;13742,217;   69,972;24123,404;56,84114
 811,78;13590,879;   92,472;24337,539;55,67486
 812,35;13584,142;   64,972;24173,871;56,07543
 812,91;13674,804;   90,072;24239,705;56,25233
 813,48;13608,866;   68,172;24202,738;56,10498
 814,04;13565,628;   64,172;24088,373;56,19940
 814,61;13538,990;   77,572;24176,006;55,86014
 815,18;13450,153;   67,772;23892,539;56,17004
 815,74;13370,115;   69,772;23709,172;56,26346
 816,31;13407,378;   83,372;23614,406;56,62312
 816,87;13194,940;   43,272;23489,641;56,09256
 817,44;13192,603;   76,972;23452,273;56,10893
 818,00;13064,365;   43,272;23159,506;56,32878
 818,57;12977,228;   71,872;23076,340;56,09934
 819,14;12948,689;   82,872;22924,273;56,32674
 819,70;12945,052;   72,672;22792,707;56,65651
 820,27;12847,914;   62,972;22691,941;56,49812
 820,83;12772,576;   70,072;22541,373;56,52767
 821,40;12797,539;   98,072;22431,908;56,86200
 821,96;12601,701;   75,272;22315,541;56,32319
 822,53;12596,464;   70,973;22257,574;56,45520
 823,09;12507,526;   81,073;22073,309;56,50382
 823,66;12470,889;   68,173;21862,541;56,90789
 824,22;12400,351;   77,173;21851,674;56,59454
 824,79;12313,813;   75,473;21561,408;56,95978
 825,35;12280,676;   65,173;21648,041;56,59815
 825,92;12216,737;   75,173;21398,875;56,93929
 826,48;12187,900;   87,673;21501,309;56,50711
 827,05;12005,662;   89,573;21448,242;55,79041
 827,61;11938,625;   75,273;21249,076;56,02844
 828,18;11930,487;   60,873;21191,209;56,17333
 828,74;11912,649;   91,673;21053,543;56,39276
 829,31;11812,512;   83,373;21002,176;56,06984
 829,87;11789,074;   73,073;20733,709;56,70688
 830,44;11679,837;   85,173;20631,443;56,43196
 831,00;11664,599;   91,273;20673,977;56,22840
 831,57;11644,262;  101,573;20631,609;56,22342
 832,13;11566,523;   72,073;20323,344;56,75916
 832,69;11379,386;   58,173;20309,477;55,90362
 833,26;11371,648;   85,473;20322,711;55,76935
 833,82;11287,711;   93,073;20197,744;55,68178
 834,39;11255,273;   78,773;20137,477;55,71896
 834,95;11208,035;   57,173;19959,410;56,02818
 835,52;11167,798;   87,873;19851,744;56,06151
 836,08;11164,660;   95,573;19951,877;55,74596
 836,64;11085,423;   76,273;19800,711;55,81477
 837,21;11013,484;   88,673;19552,443;56,12896
 837,77;10993,447;   91,873;19491,777;56,19396
 838,34;10934,909;   67,473;19470,012;56,01038
 838,90;10821,271;   64,473;19306,045;55,90395
 839,46;10848,234;   83,873;19312,479;55,98098
 840,03;10696,396;   76,173;19300,811;55,24278
 840,59;10710,759;   85,873;19175,645;55,65748
 841,16;10604,421;  105,173;19156,578;55,11010
 841,72;10555,783;   59,373;18965,512;55,51853
 842,28;10519,546;   77,873;18857,246;55,60182
 842,85;10548,608;   95,573;18812,578;55,84780
 843,41;10516,371;  105,374;18740,813;55,86666
 843,97;10503,933;   89,174;18686,846;56,00034
 844,54;10429,695;  104,774;18624,979;55,74950
 845,10;10382,857;   89,174;18523,713;55,83912
 845,67;10276,720;   68,774;18413,445;55,64529
 846,23;10241,383;   78,674;18361,080;55,58737
 846,79;10205,545;   90,474;18265,613;55,65333
 847,36;10113,107;   55,774;18179,047;55,49402
 847,92;10110,069;   84,874;18034,680;55,85128
 848,48;10050,032;   41,874;18039,213;55,60910
 849,04;10012,494;   62,374;17949,447;55,62744
 849,61; 9979,057;   56,274;17918,580;55,55152
 850,17;10015,019;   68,174;17819,514;56,03433
 850,73; 9915,781;   71,474;17764,848;55,63838
 851,30; 9890,144;   46,074;17669,881;55,85666
 851,86; 9812,806;   75,874;17597,914;55,56962
 852,42; 9740,568;   51,174;17568,348;55,31369
 852,99; 9752,831;   79,274;17583,082;55,26544
 853,55; 9660,393;   83,174;17542,514;54,85441
 854,11; 9607,855;   70,074;17432,049;54,93489
 854,67; 9537,118;   85,474;17420,881;54,52219
 855,24; 9549,380;   51,874;17213,414;55,34180
 855,80; 9475,042;   76,874;17244,848;54,74244
 856,36; 9409,305;   80,574;17175,881;54,56896
 856,92; 9336,667;   54,474;17027,215;54,68883
 857,49; 9375,930;   81,274;17048,248;54,78087
 858,05; 9289,492;   67,274;16968,482;54,56544
 858,61; 9324,254;   65,774;17003,316;54,66247
 859,17; 9295,517;   77,374;16904,250;54,78226
 859,74; 9214,279;   82,074;16836,883;54,50498
 860,30; 9225,642;   93,074;16663,016;55,11527
 860,86; 9150,104;   72,074;16692,350;54,62021
 861,42; 9035,666;   74,674;16545,883;54,40397
 861,99; 9040,929;   54,674;16506,717;54,62090
 862,55; 8993,190;   66,374;16393,051;54,67626
 863,11; 9000,353;   75,174;16437,283;54,54785
 863,67; 8995,815;   61,274;16290,117;55,05347
 864,23; 8995,378;   80,175;16199,351;55,30806
 864,80; 8927,640;   69,175;16081,384;55,32319
 865,36; 8863,202;   71,875;16120,817;54,77823
 865,92; 8848,965;   96,175;16088,751;54,73033
 866,48; 8684,527;   67,375;15987,384;54,12781
 867,04; 8663,989;   60,675;15891,418;54,34561
 867,60; 8699,552;   99,375;15884,451;54,48296
 868,17; 8565,214;   93,675;15884,685;53,64786
 868,73; 8605,677;   82,775;15672,618;54,66958
 869,29; 8548,839;   59,475;15470,151;55,08755
 869,85; 8539,501;  100,475;15369,685;55,26826
 870,41; 8415,063;   80,575;15293,418;54,78587
 870,97; 8380,726;   92,975;15232,252;54,74337
 871,54; 8248,588;   84,175;15178,686;54,08862
 872,10; 8188,451;   84,275;15055,419;54,13197
 872,66; 8133,713;   66,775;14910,652;54,34522
 873,22; 8069,575;   81,975;14890,586;53,93889
 873,78; 7998,638;   65,275;14742,419;54,05250
 874,34; 7953,200;   95,075;14662,652;53,94257
 874,90; 7877,800;  109,775;14536,053;53,84636
 875,46; 7823,000;   96,375;14412,952;53,96978
 876,03; 7769,000;   86,475;14363,353;53,81096
 876,59; 7703,700;   64,475;14153,253;54,22206
 877,15; 7744,200;  101,475;14166,853;54,33715
 877,71; 7653,300;   78,275;14064,652;54,16002
 878,27; 7553,900;   95,675;13910,553;53,98690
 878,83; 7569,800;  114,275;13971,753;53,80146
 879,39; 7544,700;   91,075;14082,753;53,27185
 879,95; 7547,900;   86,275;13964,253;53,76594
 880,51; 7524,400;   75,175;13927,253;53,77695
 881,07; 7543,000;   82,375;13978,753;53,68755
 881,63; 7512,000;   92,575;13971,253;53,45916
 882,19; 7524,200;   82,675;13921,553;53,77261
 882,75; 7562,300;   86,275;14019,553;53,65589
 883,31; 7623,000;   95,575;14187,853;53,41525
 883,88; 7646,000;   96,375;14174,353;53,62720
 884,44; 7673,700;   76,175;14175,753;53,88477
 885,00; 7711,500;  106,075;14266,952;53,70730
 885,56; 7678,500;  101,675;14299,452;53,36628
 886,12; 7773,500;  109,875;14421,152;53,54955
 886,68; 7743,200;   90,775;14436,753;53,34196
 887,24; 7854,000;  102,475;14574,952;53,56046
 887,80; 7802,000;   86,975;14671,753;52,89779
 888,36; 7909,500;  106,275;14715,652;53,41244
 888,92; 7961,000;   98,975;14773,353;53,57655
 889,48; 8043,500;   99,575;14973,853;53,40713
 890,04; 8024,800;   95,275;14803,053;53,91382
 890,60; 8082,300;  117,475;15014,652;53,46533
 891,16; 8067,100;   99,875;15075,853;53,20003
 891,72; 8056,100;  113,275;15058,452;53,14641
 892,28; 8092,500;  112,475;15126,053;53,15205
 892,84; 8057,900;   93,775;15039,853;53,28572
 893,39; 8054,200;  117,575;15112,952;52,92715
 893,95; 8000,800;  112,975;15044,753;52,82576
 894,51; 7861,300;   66,375;14891,253;52,58003
 895,07; 7966,400;  127,375;14906,353;53,04173
 895,63; 7736,500;   74,275;14689,952;52,42470
 896,19; 7728,500;   90,375;14601,952;52,63470
 896,75; 7658,300;  105,175;14460,152;52,61677
 897,31; 7592,000;   82,775;14295,853;52,83321
 897,87; 7546,800;   98,175;14146,853;53,02011
 898,43; 7466,500;   87,775;14075,753;52,75048
 898,99; 7441,000;  109,175;14002,753;52,77132
 899,55; 7449,000;  109,475;13940,652;53,06508
 900,11; 7307,200;  104,975;13747,553;52,79226
 900,67; 7179,200;   91,375;13658,652;52,24206
 901,22; 7119,700;  108,375;13601,952;51,96046
 901,78; 7067,200;   91,275;13560,053;51,79331
 902,34; 7069,400;  103,075;13451,152;52,18973
 902,90; 7000,400;   73,575;13350,652;52,17131
 903,46; 6933,300;   95,775;13236,353;52,03367
 904,02; 6857,800;   88,075;13091,553;52,06088
 904,58; 6815,700;   67,075;12918,152;52,51408
 905,14; 6779,100;   63,975;12874,553;52,41860
 905,70; 6752,200;   66,775;12696,053;52,93593
 906,25; 6723,400;   84,375;12708,452;52,59018
 906,81; 6679,500;   87,675;12732,152;52,13205
 907,37; 6628,300;   79,275;12616,152;52,23809
 907,93; 6538,600;   74,775;12588,152;51,65532
 908,49; 6546,100;  101,875;12497,652;51,98726
 909,05; 6563,600;   89,675;12425,553;52,48046
 909,60; 6457,400;   86,575;12340,452;51,99028
 910,16; 6427,400;   67,675;12291,853;52,02579
 910,72; 6389,300;  100,475;12207,753;51,94252
 911,28; 6282,900;   90,875;12156,053;51,32146
 911,84; 6292,300;   79,575;12106,753;51,65572
 912,39; 6217,800;   73,475;12049,353;51,30584
 912,95; 6176,300;  104,475;12001,452;51,03670
 913,51; 6126,000;   85,375;11945,253;50,93328
 914,07; 6062,100;   83,775;11813,452;50,96752
 914,63; 6006,900;   64,775;11748,053;50,86008
 915,18; 5973,600;   77,475;11617,853;51,09127
 915,74; 5948,800;   63,975;11632,652;50,86861
 916,30; 5862,900;   61,475;11588,553;50,32867
 916,86; 5848,200;   83,575;11514,652;50,42941
 917,42; 5806,700;   82,275;11425,152;50,46713
 917,97; 5760,500;   75,375;11265,452;50,80506
 918,53; 5715,800;   67,775;11196,253;50,75290
 919,09; 5722,300;   88,975;11223,753;50,59216
 919,65; 5639,200;   83,375;11083,452;50,50715
 920,20; 5609,700;   61,875;10983,053;50,79878
 920,76; 5529,900;   65,475;10849,452;50,67170
 921,32; 5503,000;   82,675;10770,952;50,71280
 921,87; 5452,300;   97,475;10670,253;50,64728
 922,43; 5394,200;   64,675;10561,353;50,77345
 922,99; 5365,800;   61,875;10406,753;51,27102
 923,55; 5315,400;   63,775;10357,353;51,01846
 924,10; 5224,200;   73,575;10282,853;50,45044
 924,66; 5184,200;   78,675;10170,152;50,59245
 925,22; 5048,100;   43,275;10093,952;49,79590
 925,77; 5008,000;   66,075; 9927,053;50,11597
 926,33; 4992,600;   90,375; 9903,253;49,95706
 926,89; 4900,900;   71,975; 9692,753;50,19267
 927,44; 4771,500;   52,175; 9580,553;49,52916
 928,00; 4731,600;   66,875; 9533,753;49,27417
 928,56; 4707,100;   80,375; 9372,253;49,79322
 929,12; 4658,300;   72,775; 9275,152;49,82978
 929,67; 4521,600;   67,575; 9091,053;49,36040
 930,23; 4415,500;   50,975; 8915,253;49,23723
 930,78; 4464,700;  100,675; 8842,553;49,92091
 931,34; 4367,900;   61,975; 8632,152;50,24312
 931,90; 4199,000;   61,675; 8494,353;49,06300
 932,45; 4095,800;   78,775; 8290,753;48,91666
 933,01; 3951,900;   52,975; 8024,453;48,91094
 933,57; 3813,500;   72,175; 7753,252;48,70834
 934,12; 3683,500;   70,475; 7399,553;49,29713
 934,68; 3465,000;   59,075; 7020,252;48,92743
 935,24; 3276,100;   67,875; 6614,752;49,00390
 935,79; 3078,600;   72,975; 6254,853;48,61994
 936,35; 2925,700;   91,375; 5812,252;49,54354
 936,90; 2716,500;   80,275; 5348,752;50,03770
 937,46; 2445,400;   72,775; 4956,953;48,57778
 938,02; 2295,900;   63,375; 4549,152;49,76896
 938,57; 2180,500;   73,175; 4265,053;50,27162
 939,13; 1985,300;   70,575; 3986,752;48,89270
 939,68; 1872,800;   57,375; 3713,452;49,65500
 940,24; 1781,500;   68,775; 3504,052;49,85696
 940,79; 1734,900;   91,875; 3391,052;49,80105
 941,35; 1648,900;   79,675; 3217,552;50,00912
 941,91; 1587,700;   71,375; 3122,252;49,70127
 942,46; 1537,100;   75,075; 3063,552;48,92207
 943,02; 1540,500;   65,375; 3050,752;49,41168
 943,57; 1491,800;   61,275; 2982,452;48,97084
 944,13; 1489,600;   67,375; 2974,452;48,92285
 944,68; 1501,400;   65,975; 3041,752;48,23698
 945,24; 1530,500;   82,275; 3060,052;48,63443
 945,79; 1549,200;   68,775; 3104,052;48,77396
 946,35; 1568,400;   51,775; 3194,752;48,25440
 946,90; 1611,600;   98,575; 3283,552;47,50504
 947,46; 1618,300;   52,175; 3311,052;48,05719
 948,01; 1640,800;   51,575; 3390,052;47,60329
 948,57; 1731,400;   86,775; 3552,952;47,44780
 949,12; 1752,500;   65,875; 3613,353;47,54435
 949,68; 1796,100;   76,275; 3732,653;47,03631
 950,23; 1809,700;   70,075; 3833,252;46,22756
 950,79; 1849,900;   75,775; 3933,452;45,98946
 951,34; 1898,000;   83,275; 4070,952;45,50832
 951,90; 1908,800;   57,475; 4140,853;45,33808
 952,45; 1986,900;   81,075; 4292,152;45,25742
 953,01; 1988,700;   65,975; 4364,252;44,73245
 953,56; 2076,600;   87,975; 4500,853;45,06414
 954,12; 2055,100;   42,075; 4567,553;44,48205
 954,67; 2105,900;   70,875; 4720,453;43,76795
 955,23; 2149,700;   61,975; 4804,553;44,02089
 955,78; 2168,600;   67,175; 4882,953;43,63626
 956,33; 2167,800;   58,575; 4947,252;43,14511
 956,89; 2191,800;   53,475; 5038,553;42,89452
 957,44; 2255,000;   53,675; 5170,752;43,01918
 958,00; 2261,300;   49,475; 5238,353;42,62627
 958,55; 2294,500;   70,475; 5313,953;42,41508
 959,10; 2313,600;   52,375; 5370,252;42,52120
 959,66; 2333,600;   74,275; 5488,752;41,72748
 960,21; 2325,700;   78,475; 5567,453;40,94068
 960,77; 2334,300;   54,275; 5606,152;41,06764
 961,32; 2357,300;   48,375; 5663,453;41,12009
 961,87; 2401,800;   79,775; 5738,752;41,03259
 962,43; 2373,200;   68,975; 5780,652;40,34235
 962,98; 2426,100;   76,175; 5828,652;40,85066
 963,54; 2417,800;   27,075; 5820,652;41,26509
 964,09; 2425,400;   56,275; 5873,953;40,72286
 964,64; 2429,100;   64,975; 5901,053;40,50880
 965,20; 2407,800;   44,375; 5966,652;39,90737
 965,75; 2407,100;   66,575; 5976,353;39,60428
 966,30; 2416,500;   75,275; 6068,553;39,06418
 966,86; 2399,700;   62,975; 6121,953;38,56632
 967,41; 2430,800;   81,075; 6084,453;39,14005
 967,96; 2399,600;   75,175; 6108,953;38,52355
 968,52; 2396,800;   81,775; 6126,353;38,29920
 969,07; 2384,800;   72,975; 6120,152;38,22982
 969,62; 2382,500;   77,175; 6134,953;38,05562
 970,18; 2361,600;   57,575; 6147,652;37,83244
 970,73; 2336,800;   66,475; 6203,553;36,99358
 971,28; 2314,900;   95,775; 6197,053;36,37148
 971,84; 2267,000;   55,075; 6118,752;36,47828
 972,39; 2300,900;   95,875; 6148,652;36,42997
 972,94; 2264,800;   54,975; 6140,652;36,31190
 973,49; 2222,200;   64,575; 6141,252;35,50666
 974,05; 2190,400;   64,375; 6178,053;34,77489
 974,60; 2188,800;   88,575; 6213,252;34,29119
 975,15; 2200,300;   77,675; 6231,553;34,49248
 975,71; 2155,100;   62,375; 6121,453;34,53867
 976,26; 2126,700;   77,575; 6110,252;33,96709
 976,81; 2140,700;   90,675; 6134,152;33,92128
 977,36; 2125,700;   84,775; 6156,953;33,61109
 977,92; 2104,200;   90,175; 6209,353;32,91333
 978,47; 2058,900;   77,175; 6060,252;33,12217
 979,02; 2057,000;   95,475; 6085,652;32,74569
 979,57; 2019,400;   86,775; 6058,453;32,36318
 980,13; 2016,400;   76,175; 6038,752;32,54004
 980,68; 1987,800;   77,075; 6010,553;32,20245
 981,23; 1999,900;   89,175; 6054,652;32,02971
 981,78; 1967,800;   82,075; 5974,152;32,00442
 982,33; 1935,700;   79,275; 5893,252;31,93038
 982,89; 1946,900;   94,375; 5938,152;31,70081
 983,44; 1887,100;   65,675; 5935,853;31,02845
 983,99; 1940,700;  104,775; 5949,453;31,41191
 984,54; 1880,600;   81,475; 5900,053;30,92036
 985,09; 1860,000;   87,275; 5873,752;30,63565
 985,65; 1842,900;   69,375; 5811,853;30,88432
 986,20; 1878,000;  106,575; 5791,152;31,16195
 986,75; 1847,100;   95,875; 5823,953;30,57265
 987,30; 1781,600;   97,175; 5726,053;29,92470
 987,85; 1773,400;   92,475; 5721,353;29,86253
 988,40; 1742,800;   96,675; 5693,953;29,40939
 988,96; 1740,500;  114,875; 5666,553;29,28169
 989,51; 1719,900;  108,875; 5644,053;29,10521
 990,06; 1701,600;  128,275; 5680,853;28,33504
 990,61; 1620,700;   93,575; 5569,053;27,89026
 991,16; 1639,000;  104,375; 5558,053;28,13927
 991,71; 1591,300;   79,875; 5505,853;27,85535
 992,26; 1556,000;   93,475; 5457,252;27,26670
 992,81; 1540,700;   75,075; 5427,053;27,38474
 993,37; 1531,200;  113,475; 5390,553;26,86572
 993,92; 1484,300;  108,375; 5368,953;26,15540
 994,47; 1481,000;  117,475; 5329,652;26,16037
 995,02; 1477,100;  118,475; 5313,252;26,15367
 995,57; 1412,200;   90,875; 5274,652;25,48962
 996,12; 1409,900;  133,575; 5247,553;24,95758
 996,67; 1371,800;  132,375; 5191,652;24,49806
 997,22; 1333,600;   99,875; 5128,652;24,53330
 997,77; 1353,900;  115,275; 5110,553;24,79592
 998,32; 1311,900;  103,775; 5015,652;24,59599
 998,87; 1303,000;  114,275; 5018,752;24,23755
 999,42; 1290,400;  101,675; 4972,553;24,40474
 999,97; 1278,100;  109,975; 4956,353;24,10305
1000,53; 1308,600;  123,475; 4993,752;24,33383
1001,08; 1253,000;   98,375; 4879,053;24,15191
1001,63; 1257,200;  144,475; 4878,053;23,50706
1002,18; 1198,100;   85,075; 4777,453;23,71985
1002,73; 1227,300;  131,375; 4813,853;23,40481
1003,28; 1157,800;  103,575; 4811,953;22,39041
1003,83; 1163,400;  119,075; 4691,752;22,83837
1004,38; 1190,600;  137,775; 4703,152;23,06107
1004,93; 1143,600;  114,375; 4680,953;22,53821
1005,48; 1114,800;  104,075; 4573,053;22,61647
1006,03; 1105,600;  112,775; 4525,652;22,49836
1006,58; 1084,000;  111,475; 4486,553;22,22875
1007,13; 1059,600;   94,475; 4466,252;22,07626
1007,68; 1059,600;  104,975; 4462,453;21,90774
1008,23; 1040,600;  114,575; 4425,853;21,47913
1008,78; 1021,400;  107,375; 4384,152;21,37182
1009,33; 1024,500;  121,875; 4307,752;21,56358
1009,88;  960,700;   84,775; 4329,553;20,63536
1010,43;  983,800;  118,875; 4320,752;20,58425
1010,98;  948,300;  100,675; 4310,053;20,13659
1011,52;  937,600;   97,075; 4264,953;20,16674
1012,07;  961,500;  144,475; 4319,252;19,57050
1012,62;  897,700;  103,875; 4259,152;19,10402
1013,17;  894,900;   97,175; 4172,053;19,57666
1013,72;  866,000;   94,575; 4143,453;19,05281
1014,27;  841,800;  100,275; 4105,853;18,51231
1014,82;  820,000;   86,875; 4042,952;18,53161
1015,37;  791,300;   84,375; 3964,853;18,21747
1015,92;  799,800;  109,475; 3894,252;18,23951
1016,47;  763,000;   90,275; 3819,452;18,03950
1017,02;  721,300;   81,075; 3732,153;17,53523
1017,57;  730,500;   96,475; 3718,853;17,50301
1018,11;  698,700;   77,275; 3656,252;17,36320
1018,66;  711,700;  120,175; 3636,552;16,82200
1019,21;  691,300;  109,675; 3579,552;16,76212
1019,76;  652,700;   77,675; 3497,353;16,81518
1020,31;  645,500;   71,975; 3446,452;16,99597
1020,86;  644,700;   96,175; 3448,052;16,36471
1021,41;  617,200;   80,175; 3387,052;16,23964
1021,96;  615,200;   83,675; 3385,853;16,09620
1022,50;  649,500;  105,975; 3332,952;16,84316
1023,05;  613,700;   94,675; 3288,052;16,25317
1023,60;  596,600;   97,975; 3251,353;15,81241
1024,15;  582,200;   81,075; 3184,853;16,14565
1024,70;  598,900;   95,075; 3176,252;16,35170
1025,25;  565,200;   81,175; 3127,452;15,88907
1025,79;  579,800;  101,175; 3110,752;15,90339
1026,34;  575,800;   83,475; 3044,653;16,62599
1026,89;  556,400;  102,175; 3039,052;15,46626
1027,44;  552,400;   95,875; 2952,952;15,97874
1027,99;  541,300;   93,475; 2944,552;15,70722
1028,53;  527,500;   89,675; 2900,052;15,57887
1029,08;  523,900;  114,775; 2876,653;14,81329
1029,63;  518,800;  114,875; 2854,952;14,74137
1030,18;  501,600;   92,075; 2788,552;15,18741
1030,73;  478,300;   91,175; 2739,552;14,61744
1031,27;  478,500;   85,875; 2715,252;14,93224
1031,82;  474,700;   81,875; 2686,452;15,08210
1032,37;  465,100;   98,875; 2688,853;14,14008
1032,92;  472,500;  100,575; 2675,452;14,44438
1033,46;  455,600;   99,775; 2599,252;14,23598
1034,01;  423,200;   78,375; 2582,952;13,76779
1034,56;  440,700;   98,875; 2559,252;13,89319
1035,11;  414,800;   92,375; 2523,552;13,26209
1035,65;  414,300;   87,575; 2478,052;13,66777
1036,20;  406,000;   99,375; 2454,452;13,01974
1036,75;  418,900;  118,675; 2446,353;12,89805
1037,29;  409,500;   90,275; 2398,252;13,83137
1037,84;  369,300;   78,375; 2347,252;12,82242
1038,39;  368,200;   91,075; 2329,952;12,37786
1038,94;  337,900;   73,075; 2277,153;12,01523
1039,48;  362,100;   83,575; 2278,552;12,68920
1040,03;  364,800;  102,875; 2245,252;12,22590
1040,58;  353,000;  101,175; 2194,552;12,02960
1041,12;  339,800;   91,375; 2191,653;11,82820
1041,67;  345,000;  101,075; 2166,752;11,80847
1042,22;  353,600;  118,475; 2145,252;11,60093
1042,76;  342,900;   99,275; 2118,452;12,06556
1043,31;  333,600;   90,675; 2060,653;12,33136
1043,86;  335,600;   98,875; 2044,252;12,16859
1044,40;  326,700;   92,975; 2018,052;12,14107
1044,95;  314,500;   94,175; 1988,552;11,63047
1045,50;  313,000;   75,375; 1934,353;12,78256
1046,04;  324,400;  114,375; 1930,453;11,56476
1046,59;  291,300;   96,175; 1878,353;10,94868
1047,13;  316,900;  121,075; 1879,453;11,13669
1047,68;  316,000;  115,675; 1860,052;11,48404
1048,23;  311,600;  118,775; 1866,752;11,03132
1048,77;  295,200;   90,175; 1784,953;12,09746
1049,32;  300,700;  104,175; 1785,953;11,68555
1049,86;  289,800;   92,675; 1760,552;11,81891
1050,41;  274,400;   82,475; 1735,552;11,61016
1050,96;  286,700;  100,875; 1698,652;11,63022
1051,50;  275,300;  101,675; 1663,252;11,11856
1052,05;  286,700;   94,675; 1664,052;12,23574
1052,59;  273,800;   82,975; 1624,152;12,38177
1053,14;  246,400;   84,475; 1582,652;10,80813
1053,69;  253,900;   98,475; 1571,453;10,55176
1054,23;  266,100;  104,575; 1569,052;11,02953
1054,78;  259,000;  100,775; 1550,152;10,91676
1055,32;  273,500;  123,075; 1550,453;10,53856
1055,87;  235,700;   68,875; 1491,752;11,72448
1056,41;  228,300;   78,775; 1469,552;10,75118
1056,96;  234,400;   96,775; 1451,052;10,16224
1057,50;  265,900;  113,375; 1470,853;11,23591
1058,05;  217,800;   82,075; 1401,953;10,28315
1058,59;  224,700;   95,875; 1396,552; 9,90445
1059,14;  237,000;  103,575; 1370,453;10,53180
1059,68;  199,900;   75,975; 1329,353; 9,88728
1060,23;  249,800;  126,875; 1383,752; 9,78019
1060,77;  223,800;   97,375; 1317,052;10,36545
1061,32;  226,400;  108,575; 1320,652; 9,72091
1061,86;  215,100;  111,175; 1289,752; 8,81783
1062,41;  219,500;   93,975; 1242,953;10,92493
1062,95;  223,300;  109,575; 1230,853;10,14245
1063,50;  220,800;  111,075; 1230,052; 9,80583
1064,04;  201,600;   90,475; 1197,453;10,03860
1064,59;  214,000;  114,775; 1210,052; 9,05935
1065,13;  203,600;  103,475; 1170,552; 9,38311
1065,68;  200,900;  107,275; 1161,353; 8,88217
1066,22;  223,400;  115,875; 1166,453;10,23485
1066,76;  220,900;  130,175; 1145,252; 8,93774
1067,31;  197,300;   99,875; 1110,552; 9,63957
1067,85;  193,100;  100,975; 1090,252; 9,31235
1068,40;  207,800;  110,275; 1095,353; 9,90024
1068,94;  195,800;   99,175; 1079,353; 9,85791
1069,49;  195,500;   98,175; 1041,652;10,31556
1070,03;  202,600;  111,175; 1034,353; 9,90330
1070,57;  191,800;   88,775; 1012,852;11,14896
1071,12;  160,400;   75,875;  987,153; 9,27544
1071,66;  230,800;  131,775; 1039,953;10,90371
1072,21;  200,800;  112,475; 1011,352; 9,82615
1072,75;  194,300;  104,475;  978,552;10,27655
1073,29;  174,200;   77,075;  942,453;11,22343
1073,84;  187,800;   95,975;  941,153;10,86458
1074,38;  177,000;   93,875;  928,253; 9,96252
1074,92;  184,000;  107,275;  940,153; 9,21204
1075,47;  190,200;  112,775;  938,852; 9,37261
1076,01;  210,600;  121,775;  926,253;11,04133
1076,56;  179,800;   97,275;  891,953;10,38472
1077,10;  166,500;   86,075;  865,253;10,32178
1077,64;  176,600;   97,875;  884,453;10,00855
1078,19;  194,900;  123,175;  887,753; 9,38100
1078,73;  180,400;   98,775;  853,852;10,81015
1079,27;  185,900;  121,075;  875,552; 8,59204
1079,81;  190,600;  121,375;  860,953; 9,36007
1080,36;  176,400;  105,975;  836,052; 9,64624
1080,90;  166,600;   96,375;  819,753; 9,70793
1081,44;  154,700;   82,475;  789,552;10,21458
1081,99;  138,500;   70,375;  771,753; 9,71303
1082,53;  182,700;  113,075;  798,653;10,15567
1083,07;  183,000;  104,175;  791,453;11,46917
1083,62;  175,700;  101,275;  772,552;11,08707
1084,16;  153,700;   98,975;  782,453; 8,00685
1084,70;  170,200;  107,475;  767,153; 9,50843
1085,24;  179,100;  108,775;  750,653;10,95614
1085,79;  160,700;  109,175;  747,552; 8,07124
1086,33;  157,800;   99,075;  711,453; 9,58967
1086,87;  160,300;  102,075;  714,852; 9,50182
1087,41;  156,900;   84,475;  686,852;12,02319
1087,96;  178,100;  124,575;  732,552; 8,80378
1088,50;  147,900;  112,075;  696,953; 6,12521
1089,04;  181,000;  121,775;  715,153; 9,98100
1089,58;  152,900;   82,375;  655,953;12,29563
1090,13;  152,800;  102,975;  653,153; 9,05617
1090,67;  158,600;  101,775;  678,753; 9,84874
1091,21;  146,000;   92,075;  651,852; 9,63329
1091,75;  152,000;  106,875;  647,153; 8,35219
1092,29;  168,500;  105,875;  642,552;11,66902
1092,84;  156,400;  105,975;  628,352; 9,65298
1093,38;  183,600;  128,175;  662,753;10,36800
1093,92;  172,000;  113,475;  640,052;11,11422
1094,46;  169,600;  128,175;  638,852; 8,11177
1095,00;  143,200;   93,975;  602,052; 9,68848
1095,54;  139,700;   89,975;  591,352; 9,91768
1096,09;  157,500;  114,975;  597,352; 8,81571
1096,63;  173,300;  117,175;  598,453;11,66167
1097,17;  160,300;  102,575;  573,052;12,26945
1097,71;  170,700;  122,875;  582,453;10,40630
1098,25;  161,300;  103,275;  553,653;12,88364
1098,79;  161,100;  104,775;  568,753;12,13960
1099,33;  162,700;  111,975;  572,052;11,02532
1099,88;  153,200;  110,775;  562,253; 9,39692
1100,42;  126,900;   83,275;  521,253; 9,96056

