0156 ELITRO
Integration time [ms]:   8,000
Averaging Nr. [scans]: 10
Smoothing Nr. [pixels]: 0
Data measured with spectrometer [name]: 7314920SP
Wave   ;Sample   ;Dark     ;Reference;Reflectance
[nm]   ;[counts] ;[counts] ;[counts] ;[%]

 199,42;   97,097;   63,873;  150,055;38,55127
 200,02;  113,397;   92,669;  145,732;39,06324
 200,62;   76,614;   67,563;   88,793;42,63355
 201,22;  108,932;   86,969;  138,011;43,03011
 201,82;   93,703;   66,174;  141,790;36,40623
 202,42;  131,085;  101,668;  154,973;55,18647
 203,03;   72,726;   60,168;   91,775;39,73277
 203,63;   92,579;   69,967;  109,037;57,87547
 204,23;   94,109;   70,671;  129,903;39,56963
 204,83;   95,056;   74,567;  123,718;41,68488
 205,43;   89,297;   56,673;  123,555;48,77887
 206,03;   69,844;   50,167;   90,459;48,83613
 206,63;   85,555;   68,865;  100,007;53,59531
 207,24;  133,597;   74,675;  162,566;67,04007
 207,84;   66,332;   39,967;   83,699;60,28775
 208,44;   62,632;   50,669;   95,011;26,97976
 209,04;   52,067;   47,365;   85,066;12,47268
 209,64;  102,627;   69,972;  127,998;56,27571
 210,24;   71,256;   45,367;   97,218;49,92868
 210,84;   83,844;   51,469;  101,970;64,10749
 211,44;  104,291;   86,470;  122,908;48,90847
 212,05;   80,967;   60,865;   99,266;52,34788
 212,65;   95,426;   66,368;  112,975;62,34738
 213,25;  118,085;   93,768;  142,073;50,34078
 213,85;  102,914;   84,465;  114,904;60,60967
 214,45;   75,656;   53,367;  100,418;47,37100
 215,05;   75,044;   39,369;  100,070;58,77156
 215,65;   76,656;   55,169;  105,630;42,58106
 216,25;   64,756;   40,267;   82,518;57,95957
 216,85;   66,920;   34,069;   89,651;59,10451
 217,45;   70,126;   49,068;   97,375;43,59268
 218,05;   81,926;   58,270;  112,886;43,31365
 218,66;   46,809;   28,769;   75,692;38,44600
 219,26;   52,579;   26,567;   79,337;49,29305
 219,86;   65,685;   36,771;   81,584;64,52242
 220,46;   77,815;   54,270;  104,127;47,22445
 221,06;   74,909;   51,871;  115,903;35,97870
 221,66;   76,544;   43,471;  103,481;55,11211
 222,26;   67,127;   39,772;  102,398;43,67912
 222,86;   77,562;   67,268;  118,954;19,91548
 223,46;   68,456;   51,767;   88,918;44,92081
 224,06;   88,797;   64,971;  120,343;43,02891
 224,66;   80,450;   57,570;  105,805;47,43356
 225,26;   84,179;   48,169;  113,748;54,91057
 225,86;   72,262;   42,173;  112,376;42,85991
 226,46;   78,473;   49,968;  102,913;53,83918
 227,06;   50,250;   27,670;   87,705;37,61072
 227,66;   47,803;   37,665;   74,845;27,26580
 228,27;   55,215;   29,270;   96,227;38,74831
 228,87;  113,538;   89,170;  143,046;45,22999
 229,47;   64,038;   29,172;   92,357;55,18079
 230,07;   36,979;   11,169;   59,648;53,23914
 230,67;   56,620;   38,169;   84,651;39,69605
 231,27;   61,415;   27,670;   76,327;69,35214
 231,87;   61,120;   43,169;  100,751;31,17560
 232,47;   93,074;   43,775;  132,047;55,84865
 233,07;   60,344;   42,965;   75,547;53,33826
 233,67;   75,426;   53,768;   94,275;53,46799
 234,27;   27,844;    0,567;   53,259;51,76698
 234,87;   70,985;   34,771;  106,084;50,78241
 235,47;   41,779;   16,169;   74,148;44,17083
 236,07;   52,261;   30,266;   72,042;52,65059
 236,67;   60,508;   49,966;   85,180;29,93735
 237,27;   63,621;   28,873;  109,074;43,32573
 237,87;   65,650;   25,370;   99,805;54,11375
 238,47;   41,297;   14,269;   68,032;50,27261
 239,07;   54,015;   33,272;   95,738;33,20619
 239,67;   92,927;   43,477;  131,421;56,22925
 240,27;   67,362;   46,773;  119,176;28,43670
 240,87;   74,033;   50,773;  119,533;33,82654
 241,47;   51,961;   39,164;   76,131;34,61875
 242,07;   58,250;   39,968;   92,894;34,54207
 242,67;   29,009;  -11,027;   77,914;45,01383
 243,27;   41,256;    7,767;   46,418;86,64312
 243,87;   72,997;   48,671;  108,343;40,76616
 244,47;   65,809;   22,371;   99,703;56,17066
 245,07;   30,444;    2,669;   55,770;52,30583
 245,67;   57,426;   31,068;   85,575;48,35764
 246,27;   51,055;   34,965;   69,007;47,26710
 246,87;   35,762;   26,668;   63,154;24,92338
 247,46;   14,814;   19,663;   23,793;-117,41072
 248,06;   42,826;   20,470;   69,786;45,33249
 248,66;   64,927;   31,072;  105,898;45,24428
 249,26;   63,061;   32,366;   70,742;79,98542
 249,86;   74,262;   42,873;  102,176;52,92967
 250,46;   42,686;   16,775;   93,507;33,76763
 251,06;   44,726;   22,168;   65,375;52,20979
 251,66;   37,373;   20,771;   64,724;37,77356
 252,26;   38,685;   38,866;   70,261;-0,57715
 252,86;   51,144;   35,969;   89,070;28,57744
 253,46;   11,356;   -8,033;   22,118;64,30461
 254,06;   42,650;   31,766;   79,483;22,80921
 254,66;   52,597;   34,973;  100,155;27,03846
 255,26;   67,474;   39,073;  118,836;35,60656
 255,86;   45,161;   37,464;   55,631;42,37071
 256,46;   50,091;   19,870;   70,208;60,03661
 257,05;   36,262;   23,570;   59,565;35,25898
 257,65;   75,585;   38,071;   97,684;62,92995
 258,25;   62,538;   37,372;  101,457;39,26966
 258,85;   42,344;   15,669;   51,770;73,88972
 259,45;   33,620;    6,869;   42,951;74,14066
 260,05;   60,256;   46,667;   85,818;34,70807
 260,65;   58,985;   45,066;   83,561;36,15732
 261,25;   40,097;   29,371;   85,943;18,96011
 261,85;   28,232;   -0,129;   47,622;59,39425
 262,45;   66,444;   46,169;  109,270;32,13089
 263,04;   78,985;   53,073;  116,295;40,98629
 263,64;   59,591;   33,767;   77,097;59,59837
 264,24;   62,921;   37,671;   89,062;49,13186
 264,84;   87,980;   58,974;  138,671;36,39477
 265,44;   37,914;   26,368;   67,716;27,92599
 266,04;   64,226;   48,865;   71,464;67,97227
 266,64;   68,908;   39,866;   86,780;61,90518
 267,24;   47,008;   40,166;   68,980;23,74583
 267,84;   45,085;   24,668;   76,573;39,33535
 268,43;   65,338;   48,368;   95,935;35,67645
 269,03;   68,109;   46,969;   87,892;51,65807
 269,63;   68,973;   58,566;   92,402;30,75788
 270,23;   20,503;   10,765;   39,045;34,43228
 270,83;   69,785;   55,266;   83,161;52,04783
 271,43;   38,303;   23,967;   58,856;41,08842
 272,03;   67,314;   64,168;   99,116; 9,00435
 272,62;   38,856;   23,269;   68,730;34,28603
 273,22;   32,538;   11,970;   61,046;41,91071
 273,82;   22,179;   17,460;   26,403;52,76046
 274,42;   28,273;   25,164;   46,890;14,31081
 275,02;   39,832;   34,864;   60,388;19,46237
 275,62;   70,738;   31,972;  100,457;56,60507
 276,21;   53,803;   22,770;   69,267;66,74109
 276,81;   57,332;   46,767;   71,099;43,42073
 277,41;   44,956;   22,971;   96,341;29,96404
 278,01;   22,732;   21,364;   42,788; 6,38304
 278,61;   73,132;   38,869;   83,811;76,23950
 279,20;   92,962;   65,473;  119,076;51,28237
 279,80;    7,985;    6,762;   11,539;25,60227
 280,40;   45,761;   36,866;   79,742;20,74689
 281,00;   11,432;   -4,331;   33,311;41,87722
 281,60;   53,368;   20,774;   74,812;60,31697
 282,20;   55,991;   36,670;   70,108;57,78227
 282,79;   40,438;   29,568;   70,135;26,79566
 283,39;   27,173;   17,466;   44,702;35,64123
 283,99;   26,144;   23,165;   34,347;26,64004
 284,59;   30,868;   16,869;   45,289;49,25524
 285,19;   38,044;   27,067;   57,759;35,76516
 285,78;   51,891;   23,270;   63,808;70,60335
 286,38;   41,855;   39,665;   59,207;11,21037
 286,98;   48,438;   35,168;   73,535;34,58758
 287,58;   27,109;    4,771;   61,403;39,44393
 288,17;   45,374;    8,973;   80,336;51,00803
 288,77;   54,144;   19,976;   92,504;47,11077
 289,37;   25,844;   11,269;   57,670;31,41076
 289,97;   53,144;   48,965;   66,647;23,63370
 290,57;   66,779;   46,672;   93,260;43,16062
 291,16;   82,714;   63,868;  102,616;48,63950
 291,76;   29,338;    5,570;   47,346;56,89421
 292,36;   38,579;   34,367;   58,137;17,71953
 292,96;   27,050;   -3,127;   60,117;47,71590
 293,55;   37,932;   24,267;   65,399;33,22275
 294,15;   40,303;   26,870;   62,567;37,63011
 294,75;   51,355;   42,065;   66,207;38,48348
 295,35;   28,814;   21,068;   52,016;25,03179
 295,94;   49,120;   42,967;   66,740;25,88513
 296,54;   44,473;   30,768;   70,613;34,39606
 297,14;   57,444;   29,971;   76,881;58,56486
 297,73;   23,991;   12,165;   40,085;42,35517
 298,33;   54,550;   28,066;   57,583;89,72403
 298,93;   47,662;   41,968;   82,554;14,02821
 299,53;   49,903;   24,872;   69,079;56,62248
 300,12;   24,744;  -12,229;   59,481;51,55875
 300,72;   58,391;   41,567;   91,197;33,89844
 301,32;   65,185;   25,771;   99,584;53,39772
 301,92;   19,185;    3,664;   33,050;52,81727
 302,51;   31,167;   11,567;   49,978;51,02831
 303,11;   40,544;   14,667;   48,759;75,90369
 303,71;   48,197;   21,369;   82,132;44,15203
 304,30;   20,138;    5,466;   38,423;44,51841
 304,90;   24,050;   19,666;   44,283;17,80831
 305,50;   38,903;   18,565;   64,345;44,42439
 306,09;   43,661;   15,466;   49,042;83,97422
 306,69;   66,321;   34,171;   90,262;57,31638
 307,29;   22,567;   18,760;   33,144;26,46525
 307,88;   65,268;   43,269;   72,489;75,28548
 308,48;   27,115;    0,070;   49,727;54,46299
 309,08;    8,791;   -4,437;   11,774;81,59661
 309,68;   22,891;   22,365;   39,585; 3,05264
 310,27;   33,156;   20,169;   49,830;43,78422
 310,87;   43,173;   23,468;   54,813;62,86542
 311,47;   66,356;   54,967;   92,918;30,00861
 312,06;   45,179;   47,865;   68,426;-13,06349
 312,66;   74,814;   51,168;  100,016;48,40900
 313,26;   70,673;   48,571;   96,224;46,38225
 313,85;   62,044;   38,267;   65,959;85,86270
 314,45;   64,632;   42,969;   86,611;49,63899
 315,04;   57,979;   52,165;   81,826;19,60167
 315,64;   33,091;   21,267;   47,897;44,40055
 316,24;   54,615;   40,770;   85,627;30,86410
 316,83;   56,761;   40,366;   76,742;45,07186
 317,43;   46,003;   35,167;   68,156;32,84522
 318,03;   51,338;   39,063;   70,012;39,66039
 318,62;   71,961;   73,061;   94,820;-5,05677
 319,22;   34,285;    7,668;   66,973;44,88165
 319,82;   57,514;   40,768;   93,516;31,74876
 320,41;   77,097;   59,069;   98,732;45,45316
 321,01;   93,203;   80,465;  115,945;35,90039
 321,60;   91,873;   81,164;  102,790;49,51878
 322,20;   95,797;   67,673;  132,855;43,14729
 322,80;   84,491;   54,567;   91,797;80,37635
 323,39;   63,520;   65,764;   94,828;-7,72146
 323,99;   76,085;   61,766;  102,661;35,01349
 324,59;   80,438;   73,063;   97,512;30,16260
 325,18;   74,667;   40,967;   92,178;65,80723
 325,78;   95,191;   76,365;  108,885;57,88908
 326,37;   85,726;   74,868;  108,075;32,69902
 326,97;   81,391;   63,267;  111,497;37,57790
 327,57;   48,014;   42,263;   76,493;16,80127
 328,16;   73,961;   60,864;   93,631;39,97159
 328,76;   69,420;   50,467;  110,140;31,76254
 329,35;   99,285;   56,871;  137,484;52,61491
 329,95;   63,191;   27,470;   91,308;55,95608
 330,54;   78,356;   52,167;   94,018;62,57553
 331,14;   49,132;   26,967;   82,599;39,84245
 331,74;   76,903;   54,165;   96,145;54,16275
 332,33;   70,315;   35,370;  108,127;48,02932
 332,93;   58,785;   43,764;   79,250;42,32907
 333,52;   66,073;   42,466;   93,102;46,62152
 334,12;  100,609;   72,069;  140,392;41,77220
 334,71;   63,461;   50,666;   87,942;34,32606
 335,31;   89,144;   63,267;  119,859;45,72564
 335,90;   46,943;   32,362;   53,836;67,90248
 336,50;   45,655;   30,665;   77,207;32,20895
 337,10;   73,356;   38,769;  121,530;41,79121
 337,69;   66,355;   51,765;   93,707;34,78777
 338,29;   52,579;   30,467;  101,037;31,33334
 338,88;   50,762;   22,468;   99,854;36,56166
 339,48;   66,732;   57,862;  111,677;16,48179
 340,07;   75,897;   48,566;  107,321;46,51636
 340,67;   75,385;   31,171;  124,784;47,23112
 341,26;   66,961;   48,466;   98,942;36,64191
 341,86;  100,379;   61,469;  138,348;50,61174
 342,45;   72,868;   45,669;  142,689;28,03367
 343,05;   69,768;   27,269;  115,689;48,06416
 343,64;   76,708;   47,366;  122,480;39,06349
 344,24;   54,855;   28,765;   92,107;41,19017
 344,83;   74,944;   71,365;  121,747; 7,10383
 345,43;   51,320;   29,667;  114,240;25,60353
 346,02;   55,120;   41,469;  124,351;16,47110
 346,62;   81,073;   40,971;  140,424;40,32316
 347,21;   73,891;   42,165;  131,985;35,32129
 347,81;   62,179;   26,172;  140,560;31,47855
 348,40;   55,561;   29,064;  100,731;36,97309
 349,00;   67,438;   49,163;  137,712;20,63763
 349,59;  112,438;   65,870;  177,846;41,58757
 350,19;   68,173;   32,571;  139,424;33,31928
 350,78;   58,844;   55,467;  140,759; 3,95935
 351,38;   53,120;   15,869;  140,951;29,78170
 351,97;   52,720;   26,767;  136,040;23,75123
 352,57;   63,315;   42,570;  155,827;18,31650
 353,16;   49,820;   30,564;  134,328;18,55731
 353,76;   74,338;   38,770;  169,846;27,13546
 354,35;   59,179;   27,669;  160,148;23,78476
 354,95;   83,703;   43,970;  182,067;28,77172
 355,54;   72,385;   38,368;  163,973;27,08245
 356,14;   67,779;   40,069;  164,749;22,22492
 356,73;   58,432;   29,162;  145,176;25,22926
 357,32;   49,997;   13,769;  164,432;24,04586
 357,92;   67,891;   17,772;  181,419;30,62642
 358,51;   88,903;   43,372;  214,179;26,65643
 359,11;   74,579;   36,772;  212,360;21,53205
 359,70;   64,962;   28,470;  189,965;22,59600
 360,30;   80,685;   54,562;  188,039;19,57117
 360,89;   50,162;   31,168;  188,054;12,10655
 361,48;   87,003;   55,570;  216,467;19,53607
 362,08;   70,603;   19,867;  187,156;30,32794
 362,67;   60,314;   39,763;  192,693;13,43822
 363,27;   94,667;   60,767;  247,678;18,13716
 363,86;   61,603;   35,765;  215,745;14,35569
 364,46;   93,361;   44,664;  257,231;22,90927
 365,05;  113,237;   64,659;  254,989;25,52326
 365,64;  106,020;   50,960;  269,706;25,17077
 366,24;  116,567;   38,558;  309,432;28,79886
 366,83;  152,519;   43,255;  335,383;37,40289
 367,43;  160,401;   51,545;  352,843;36,12910
 368,02;  177,842;   34,646;  399,757;39,21992
 368,61;  212,183;   62,239;  475,425;36,28970
 369,21;  170,876;   32,419;  445,299;33,53427
 369,80;  216,157;   43,007;  526,947;35,77924
 370,39;  287,863;   62,006;  604,971;41,59694
 370,99;  284,267;   42,089;  615,416;42,24092
 371,58;  283,249;   22,974;  630,953;42,80984
 372,18;  315,266;   37,166;  701,603;41,85497
 372,77;  294,717;   42,449;  679,385;39,60650
 373,36;  321,770;   42,747;  690,836;43,05325
 373,96;  324,793;   35,135;  639,498;47,92773
 374,55;  293,946;   29,844;  621,406;44,64495
 375,14;  272,106;   42,849;  573,826;43,17637
 375,74;  282,989;   69,157;  543,276;45,10080
 376,33;  227,924;   45,964;  464,589;43,46620
 376,92;  209,614;   33,278;  447,997;42,51930
 377,52;  295,263;   86,103;  548,460;45,23764
 378,11;  218,892;   46,703;  457,203;41,94621
 378,71;  252,857;   73,011;  514,270;40,75750
 379,30;  262,564;   59,517;  553,928;41,06838
 379,89;  268,122;   59,813;  556,103;41,97327
 380,49;  254,234;   31,018;  568,185;41,55437
 381,08;  297,986;   70,306;  570,990;45,47384
 381,67;  297,363;   55,008;  555,483;48,42502
 382,26;  262,386;   41,706;  539,390;44,34144
 382,86;  274,439;   54,003;  516,041;47,70949
 383,45;  294,463;   50,412;  562,105;47,69478
 384,04;  294,140;   38,712;  553,886;49,58081
 384,64;  294,593;   49,014;  566,760;47,43232
 385,23;  299,210;   64,406;  560,509;47,32961
 385,82;  320,034;   59,615;  592,774;48,84453
 386,42;  361,376;   61,024;  659,022;50,22627
 387,01;  341,969;   55,414;  580,541;54,56881
 387,60;  341,034;   69,009;  590,140;52,19895
 388,20;  336,763;   37,712;  590,805;54,06882
 388,79;  390,270;   72,418;  665,563;53,58744
 389,38;  315,286;   32,106;  564,890;53,15103
 389,97;  378,910;   45,415;  640,955;55,99886
 390,57;  403,828;   71,114;  654,038;57,07671
 391,16;  404,428;   62,514;  655,838;57,62683
 391,75;  389,634;   52,713;  638,562;57,50980
 392,34;  422,093;   60,821;  696,694;56,81520
 392,94;  425,693;   44,718;  689,683;59,06913
 393,53;  444,981;   41,016;  666,612;64,57289
 394,12;  469,793;   53,023;  719,105;62,57042
 394,72;  469,046;   54,213;  706,122;63,63352
 395,31;  473,334;   42,115;  694,874;66,06100
 395,90;  491,988;   42,924;  732,881;65,08573
 396,49;  538,306;   58,028;  779,187;66,59800
 397,09;  513,075;   47,417;  749,188;66,35478
 397,68;  558,535;   44,025;  800,719;67,99444
 398,27;  581,200;   54,626;  809,652;69,74243
 398,86;  585,582;   43,125;  807,657;70,95279
 399,45;  600,553;   56,630;  844,037;69,07774
 400,05;  589,199;   23,820;  799,518;72,88651
 400,64;  617,817;   56,419;  831,001;72,47747
 401,23;  629,346;   53,920;  859,956;71,38964
 401,82;  661,446;   67,220;  868,256;74,18221
 402,42;  672,105;   62,921;  873,953;75,11219
 403,01;  703,635;   81,525;  912,919;74,82732
 403,60;  718,247;   68,532;  940,513;74,51028
 404,19;  737,911;   76,024;  931,900;77,33446
 404,78;  715,799;   57,522;  909,929;77,22568
 405,38;  770,306;   68,332;  984,210;76,64490
 405,97;  768,576;   63,226;  953,933;79,18991
 406,56;  793,541;   71,528; 1004,366;77,39962
 407,15;  793,435;   68,829;  989,442;78,70910
 407,74;  822,018;   80,730; 1026,758;78,35786
 408,34;  805,630;   50,933; 1018,629;77,98901
 408,93;  834,612;   59,531; 1016,234;81,01580
 409,52;  834,453;   51,435; 1041,359;79,09879
 410,11;  888,135;   84,931; 1090,453;79,87932
 410,70;  863,435;   54,727; 1027,230;83,15734
 411,29;  880,417;   58,628; 1030,847;84,52720
 411,89;  935,289;   60,535; 1093,938;84,64787
 412,48;  886,729;   48,228; 1051,606;83,56779
 413,07;  936,112;   65,033; 1101,446;84,04750
 413,66;  940,065;   78,135; 1102,119;84,17417
 414,25;  963,942;   63,337; 1142,311;83,46859
 414,84;  976,112;   69,431; 1102,434;87,77134
 415,44;  985,294;   91,530; 1155,939;83,96808
 416,03;  995,094;   76,637; 1161,173;84,68666
 416,62; 1041,736;   76,138; 1168,687;88,38025
 417,21; 1033,271;   75,334; 1158,843;88,41059
 417,80; 1041,453;   65,037; 1162,871;88,94027
 418,39; 1044,277;   78,440; 1179,201;87,74267
 418,98; 1003,424;   55,634; 1143,405;87,13137
 419,58; 1033,277;   64,033; 1142,067;89,90844
 420,17; 1029,030;   52,735; 1164,540;87,81165
 420,76; 1067,894;   72,537; 1192,873;88,84453
 421,35; 1070,000;   60,236; 1155,197;92,21918
 421,94; 1073,477;   88,340; 1223,501;86,78390
 422,53; 1059,301;   61,540; 1195,320;88,00302
 423,12; 1067,971;   64,039; 1190,766;89,10166
 423,71; 1056,888;   60,835; 1162,138;90,44319
 424,30; 1092,559;   85,236; 1210,695;89,50333
 424,90; 1049,300;   39,438; 1163,809;89,81580
 425,49; 1116,665;   70,140; 1216,242;91,31174
 426,08; 1103,065;   80,240; 1209,641;90,56348
 426,67; 1060,112;   57,436; 1168,257;90,26443
 427,26; 1093,913;   60,343; 1230,391;88,33567
 427,85; 1107,512;   63,238; 1209,968;91,06538
 428,44; 1119,154;   68,442; 1218,093;91,39394
 429,03; 1151,607;   85,341; 1233,155;92,89529
 429,62; 1123,395;   78,941; 1240,296;89,93407
 430,21; 1136,795;   81,443; 1277,807;88,21326
 430,80; 1129,448;   70,445; 1235,381;90,90658
 431,39; 1105,619;   53,344; 1246,926;88,16104
 431,99; 1114,688;   78,535; 1206,838;91,83293
 432,58; 1138,971;   82,639; 1251,166;90,39863
 433,17; 1118,665;   69,735; 1238,319;89,76077
 433,76; 1163,513;   71,347; 1288,314;89,74494
 434,35; 1183,025;   88,245; 1292,462;90,91217
 434,94; 1184,066;   70,849; 1318,887;89,19737
 435,53; 1156,448;   78,643; 1278,669;89,81510
 436,12; 1152,707;   70,044; 1294,267;88,43675
 436,71; 1178,924;   87,740; 1303,239;89,77252
 437,30; 1153,771;   76,941; 1299,177;88,10330
 437,89; 1191,713;   76,245; 1320,802;89,62769
 438,48; 1190,301;   65,942; 1305,731;90,68950
 439,07; 1188,148;   95,238; 1347,147;87,29947
 439,66; 1244,772;   83,648; 1375,711;89,86588
 440,25; 1232,607;   85,844; 1390,567;87,89322
 440,84; 1255,325;   79,850; 1387,984;89,85888
 441,43; 1279,461;   78,054; 1440,985;88,14871
 442,02; 1252,172;   79,650; 1411,022;88,06868
 442,61; 1285,419;   93,344; 1397,226;91,42501
 443,20; 1316,213;   94,249; 1446,625;90,35684
 443,79; 1290,542;   74,546; 1412,957;90,85375
 444,38; 1354,407;   84,248; 1461,789;92,20478
 444,97; 1336,783;   84,146; 1466,359;90,62549
 445,56; 1383,719;  101,846; 1477,038;93,21412
 446,15; 1420,254;   81,651; 1522,539;92,90129
 446,74; 1367,030;   58,644; 1462,286;93,21370
 447,33; 1452,542;   82,646; 1538,357;94,10499
 447,92; 1480,431;   78,151; 1570,720;93,95077
 448,51; 1516,495;   89,746; 1586,019;95,35355
 449,10; 1546,760;   92,045; 1608,840;95,90714
 449,69; 1593,396;   73,950; 1627,741;97,78955
 450,28; 1590,460;   66,948; 1608,251;98,84568
 450,87; 1644,437;   78,647; 1656,333;99,24598
 451,46; 1688,431;   96,048; 1702,208;99,14219
 452,05; 1704,925;   70,950; 1715,384;99,36394
 452,64; 1737,784;   70,850; 1725,182;100,76175
 453,23; 1843,913;  113,752; 1794,936;102,91325
 453,82; 1813,219;   83,451; 1800,660;100,73135
 454,40; 1810,684;   65,450; 1786,682;101,39446
 454,99; 1910,643;  101,253; 1871,891;102,18860
 455,58; 1919,889;   69,747; 1832,095;104,98170
 456,17; 1962,772;   63,852; 1873,634;104,92537
 456,76; 2010,531;   67,751; 1918,820;104,95449
 457,35; 2047,607;   78,348; 1930,490;106,32336
 457,94; 2096,390;   66,954; 1978,929;106,14345
 458,53; 2130,807;   67,350; 2010,101;106,21318
 459,12; 2205,184;   82,657; 2111,116;104,63743
 459,71; 2177,184;   58,148; 2060,071;105,85003
 460,30; 2229,972;   84,448; 2087,511;107,11214
 460,89; 2273,031;   57,551; 2129,920;106,90568
 461,48; 2329,590;   75,954; 2173,829;107,42471
 462,06; 2340,448;   68,050; 2187,303;107,22637
 462,65; 2362,654;   48,249; 2176,527;108,74542
 463,24; 2432,478;   87,456; 2288,680;106,53263
 463,83; 2428,248;   54,450; 2229,803;109,12242
 464,42; 2525,866;   88,349; 2333,687;108,55902
 465,01; 2507,484;   73,050; 2336,482;107,55498
 465,60; 2502,472;   64,050; 2384,322;105,09206
 466,19; 2558,090;   73,354; 2462,829;103,98670
 466,77; 2593,254;   81,551; 2462,939;105,47226
 467,36; 2573,073;   69,457; 2459,256;104,76258
 467,95; 2626,066;   79,551; 2466,098;106,70290
 468,54; 2638,937;   71,954; 2513,866;105,12183
 469,13; 2644,001;   69,452; 2535,977;104,37963
 469,72; 2667,308;   67,555; 2582,723;103,36296
 470,31; 2684,431;   87,855; 2629,242;102,17160
 470,90; 2693,037;   76,750; 2652,044;101,59177
 471,48; 2699,896;   32,057; 2671,875;101,06147
 472,07; 2777,901;  125,747; 2686,454;103,57116
 472,66; 2780,107;   67,853; 2748,412;101,18241
 473,25; 2761,854;   68,351; 2723,339;101,45069
 473,84; 2788,172;   55,955; 2766,545;100,79789
 474,43; 2825,249;   55,459; 2843,049;99,36146
 475,01; 2838,049;   69,254; 2885,926;98,30022
 475,60; 2854,196;   49,755; 2882,364;99,00557
 476,19; 2906,367;   74,158; 2956,932;98,24594
 476,78; 2901,373;   71,057; 2964,456;97,81974
 477,37; 2919,396;   59,355; 2945,364;99,10020
 477,95; 2957,355;   75,656; 3018,661;97,91687
 478,54; 2970,443;   63,253; 3023,691;98,20135
 479,13; 2991,643;   56,253; 3070,291;97,39062
 479,72; 3031,413;   81,154; 3090,147;98,04805
 480,31; 3037,173;   63,459; 3167,468;95,80236
 480,89; 3069,749;   60,254; 3171,026;96,74430
 481,48; 3111,055;   46,260; 3214,084;96,74764
 482,07; 3120,137;   61,654; 3233,866;96,41482
 482,66; 3119,354;   52,853; 3253,650;95,80431
 483,25; 3197,055;   78,960; 3319,884;96,21007
 483,83; 3207,361;   59,954; 3325,385;96,38563
 484,42; 3219,490;   54,354; 3355,129;95,89070
 485,01; 3265,043;   65,958; 3400,413;95,94026
 485,60; 3358,773;   73,764; 3490,590;96,14211
 486,18; 3343,755;   66,956; 3490,761;95,70633
 486,77; 3370,713;   67,252; 3519,736;95,68360
 487,36; 3421,185;   58,464; 3561,750;95,98762
 487,95; 3441,814;   59,161; 3640,781;94,44476
 488,53; 3433,302;   54,461; 3642,522;94,16900
 489,12; 3483,726;   50,563; 3722,252;93,50363
 489,71; 3447,308;   38,062; 3680,357;93,60158
 490,30; 3505,079;   61,460; 3742,503;93,55007
 490,88; 3557,926;   87,561; 3859,141;92,01355
 491,47; 3534,938;   60,663; 3867,512;91,26379
 492,06; 3512,479;   62,563; 3920,615;89,42120
 492,65; 3500,749;   59,161; 3947,060;88,52051
 493,23; 3534,843;   54,860; 3982,825;88,59507
 493,82; 3526,431;   65,853; 4018,031;87,56129
 494,41; 3512,073;   51,361; 4066,179;86,19847
 494,99; 3540,172;   73,655; 4126,945;85,52355
 495,58; 3562,779;   86,060; 4224,403;84,01233
 496,17; 3487,478;   56,356; 4198,681;82,83084
 496,76; 3507,055;   65,356; 4276,761;81,72329
 497,34; 3504,308;   54,557; 4305,235;81,15766
 497,93; 3465,996;   66,057; 4350,675;79,35220
 498,52; 3488,796;   60,059; 4454,387;78,02643
 499,10; 3488,720;   75,862; 4533,217;76,56689
 499,69; 3468,220;   55,360; 4537,006;76,15193
 500,28; 3438,973;   37,959; 4592,068;74,68011
 500,86; 3446,985;   62,862; 4698,539;73,00170
 501,45; 3461,584;   53,462; 4730,438;72,87021
 502,04; 3428,208;   53,362; 4813,958;70,89126
 502,62; 3427,478;   70,956; 4856,181;70,14346
 503,21; 3380,102;   57,856; 4939,699;68,05310
 503,80; 3427,232;   69,662; 5015,577;67,88572
 504,38; 3407,343;   58,460; 5081,425;66,67145
 504,97; 3388,032;   49,962; 5122,776;65,80311
 505,56; 3381,337;   70,859; 5194,989;64,60567
 506,14; 3420,197;   64,064; 5263,709;64,54541
 506,73; 3346,656;   23,565; 5292,507;63,06941
 507,32; 3396,802;   62,865; 5376,045;62,74844
 507,90; 3360,855;   70,860; 5443,284;61,23856
 508,49; 3355,767;   58,865; 5500,366;60,58810
 509,08; 3362,061;   67,264; 5571,931;59,85462
 509,66; 3384,067;   69,960; 5677,644;59,09939
 510,25; 3385,337;   63,561; 5737,400;58,54548
 510,83; 3418,055;   45,165; 5855,607;58,04878
 511,42; 3436,973;   61,968; 5895,913;57,85117
 512,01; 3414,020;   59,164; 5980,328;56,65872
 512,59; 3437,832;   46,562; 6041,676;56,56722
 513,18; 3470,973;   59,961; 6114,379;56,33922
 513,77; 3460,661;   42,257; 6171,797;55,76934
 514,35; 3471,067;   37,763; 6190,255;55,80347
 514,94; 3522,220;   58,662; 6323,517;55,28552
 515,52; 3493,761;   48,166; 6358,342;54,60379
 516,11; 3596,244;   80,665; 6474,047;54,98778
 516,69; 3544,984;   41,959; 6446,727;54,69402
 517,28; 3591,355;   83,358; 6541,973;54,31501
 517,87; 3577,231;   45,558; 6604,054;53,84884
 518,45; 3611,678;   74,858; 6626,192;53,98626
 519,04; 3613,414;   54,258; 6707,970;53,49128
 519,62; 3599,679;   55,863; 6774,114;52,74908
 520,21; 3629,273;   24,466; 6828,002;52,98432
 520,79; 3676,126;   52,068; 7000,875;52,15368
 521,38; 3693,590;   52,960; 6995,363;52,44049
 521,97; 3720,362;   43,068; 7141,554;51,80392
 522,55; 3739,325;   67,759; 7195,230;51,51289
 523,14; 3738,837;   26,759; 7180,289;51,89156
 523,72; 3831,402;   77,561; 7383,422;51,38123
 524,31; 3840,455;   71,665; 7406,107;51,38483
 524,89; 3915,915;   48,468; 7526,815;51,71526
 525,48; 3919,009;   21,666; 7603,580;51,40315
 526,06; 3912,020;   56,264; 7633,128;50,88854
 526,65; 4011,650;   72,370; 7803,105;50,95608
 527,23; 3989,855;   46,262; 7840,596;50,59564
 527,82; 4046,867;   37,967; 7905,978;50,95189
 528,41; 4113,497;   67,366; 8041,021;50,74374
 528,99; 4140,267;   66,365; 8108,167;50,65907
 529,58; 4186,043;   42,562; 8168,736;50,98933
 530,16; 4224,473;   49,461; 8315,379;50,50875
 530,75; 4344,408;   73,964; 8417,069;51,18531
 531,33; 4353,608;   45,566; 8440,980;51,31423
 531,92; 4406,267;   48,560; 8567,344;51,15409
 532,50; 4521,903;   87,770; 8706,468;51,44783
 533,09; 4570,814;   65,665; 8807,204;51,53725
 533,67; 4647,802;   63,458; 8952,011;51,57582
 534,26; 4682,532;   65,760; 9007,665;51,63074
 534,84; 4810,249;   68,461; 9127,061;52,34571
 535,42; 4911,408;   61,564; 9205,969;53,03619
 536,01; 5030,879;   79,263; 9330,215;53,52548
 536,59; 5119,673;   43,366; 9482,202;53,78107
 537,18; 5285,820;   77,360; 9568,605;54,87646
 537,76; 5335,968;   56,972; 9764,700;54,37931
 538,35; 5484,250;   59,368; 9892,694;55,16833
 538,93; 5612,020;   72,664; 9941,828;56,12791
 539,52; 5738,050;   57,370;10111,405;56,50149
 540,10; 5853,856;   63,269;10309,029;56,51691
 540,69; 5941,949;   68,763;10444,071;56,60734
 541,27; 6081,420;   58,262;10514,917;57,60119
 541,85; 6167,149;   47,366;10658,783;57,67169
 542,44; 6224,455;   56,460;10765,484;57,59624
 543,02; 6402,856;   80,369;10952,729;58,15192
 543,61; 6456,056;   77,067;11102,218;57,85852
 544,19; 6578,138;   55,066;11264,023;58,19517
 544,78; 6652,885;   62,766;11296,562;58,66333
 545,36; 6758,432;   77,469;11521,011;58,38195
 545,94; 6753,508;   54,564;11563,069;58,20864
 546,53; 6834,344;   52,771;11724,882;58,10066
 547,11; 6930,685;   90,668;11879,873;58,01932
 547,70; 6995,020;   75,860;11954,706;58,24774
 548,28; 7046,967;   47,965;12093,066;58,10663
 548,86; 7169,367;   81,365;12327,767;57,87824
 549,45; 7197,762;   33,768;12364,953;58,09655
 550,03; 7316,879;   76,467;12507,537;58,24448
 550,62; 7423,261;   63,566;12662,842;58,41364
 551,20; 7452,255;   61,467;12808,418;57,98083
 551,78; 7511,385;   61,164;12952,850;57,79090
 552,37; 7590,608;   55,864;13112,469;57,70830
 552,95; 7642,144;   56,765;13214,547;57,64937
 553,54; 7738,055;   49,965;13393,207;57,61786
 554,12; 7810,991;   67,167;13498,797;57,65364
 554,70; 7954,985;   67,568;13736,973;57,70125
 555,29; 7979,491;   61,965;13856,285;57,39700
 555,87; 8022,727;   60,170;13987,786;57,17099
 556,45; 8060,008;   57,162;14154,058;56,77027
 557,04; 8160,832;   43,667;14376,600;56,63297
 557,62; 8249,332;   68,867;14525,499;56,58624
 558,20; 8297,456;   42,671;14799,940;55,93707
 558,79; 8453,227;  100,368;14905,875;56,41724
 559,37; 8418,855;   49,867;15000,418;55,97779
 559,95; 8531,108;   46,669;15169,691;56,10280
 560,54; 8622,474;   71,768;15324,613;56,05974
 561,12; 8663,785;   50,866;15485,562;55,80233
 561,70; 8725,021;   50,369;15679,551;55,50292
 562,29; 8861,149;   61,768;15810,994;55,87183
 562,87; 8906,661;   73,168;16023,953;55,37968
 563,45; 9045,762;   71,068;16194,754;55,66155
 564,04; 9029,855;   54,362;16227,195;55,49735
 564,62; 9123,197;   37,769;16438,332;55,39705
 565,20; 9183,685;   59,962;16715,838;54,77780
 565,78; 9318,179;   70,765;16797,326;55,28580
 566,37; 9373,550;   71,066;17011,283;54,91360
 566,95; 9446,756;   52,969;17124,330;55,02658
 567,53; 9596,309;   67,262;17308,857;55,26778
 568,12; 9582,867;   62,265;17367,766;55,01489
 568,70; 9784,532;   85,264;17565,889;55,48582
 569,28; 9822,421;   61,069;17745,252;55,19821
 569,86; 9870,044;   67,767;17910,758;54,93629
 570,45; 9988,968;   78,569;18124,689;54,91706
 571,03;10052,196;   53,962;18259,898;54,91744
 571,61;10180,674;   46,571;18424,824;55,14182
 572,19;10118,591;   54,263;18395,773;54,87186
 572,78;10258,426;   70,668;18668,975;54,77788
 573,36;10449,608;   84,264;18797,668;55,38995
 573,94;10416,585;   44,064;18892,750;55,03047
 574,52;10516,072;   54,559;19030,768;55,12963
 575,11;10585,861;   37,264;19159,830;55,16309
 575,69;10611,509;   53,566;19268,680;54,94603
 576,27;10675,514;   47,161;19391,381;54,94330
 576,85;10814,009;   43,264;19549,668;55,21645
 577,44;10836,908;   30,262;19814,158;54,62345
 578,02;10852,096;   32,159;19753,887;54,86303
 578,60;11025,873;   50,464;20073,791;54,81311
 579,18;11074,326;   51,963;20160,752;54,81366
 579,76;11053,220;   40,264;20300,129;54,35848
 580,35;11193,091;   60,170;20436,707;54,63598
 580,93;11212,902;   59,667;20641,557;54,18956
 581,51;11290,703;   24,770;20697,168;54,49747
 582,09;11315,167;   58,663;20755,756;54,38689
 582,67;11381,655;   49,567;20971,318;54,16415
 583,26;11476,173;   28,568;21227,014;54,00209
 583,84;11482,996;   14,164;21413,709;53,59381
 584,42;11645,532;   48,064;21513,287;54,02911
 585,00;11735,408;   81,366;21772,180;53,72801
 585,58;11807,132;   25,167;21912,299;53,83056
 586,17;11873,002;   46,761;21948,521;53,99676
 586,75;11807,873;    6,666;22026,902;53,59255
 587,33;11893,468;   47,767;22191,678;53,49417
 587,91;12000,673;   74,866;22390,201;53,44220
 588,49;12079,108;   63,962;22349,758;53,91392
 589,07;12035,015;   45,468;22403,215;53,62592
 589,65;12067,521;   28,267;22444,439;53,70789
 590,24;12056,796;   42,562;22447,799;53,62244
 590,82;12040,049;   28,261;22484,160;53,49057
 591,40;12133,696;   41,464;22520,209;53,79407
 591,98;12119,084;   45,759;22558,227;53,62950
 592,56;12217,649;   61,161;22699,961;53,69758
 593,14;12148,685;   43,359;22728,928;53,36135
 593,72;12216,855;   29,765;22889,107;53,31339
 594,30;12216,396;   36,759;22797,486;53,51163
 594,89;12196,720;   41,364;22862,428;53,26376
 595,47;12284,902;   38,961;22922,623;53,51391
 596,05;12266,232;   30,267;23003,799;53,26114
 596,63;12359,732;   31,167;23056,199;53,54418
 597,21;12419,262;   36,766;23145,441;53,58375
 597,79;12416,820;   35,467;23166,039;53,52809
 598,37;12426,579;   36,669;23222,748;53,43685
 598,95;12403,773;   50,766;23305,301;53,12085
 599,53;12331,061;   46,757;23207,996;53,03820
 600,11;12451,743;   48,665;23341,947;53,24745
 600,70;12368,338;   57,363;23315,111;52,93279
 601,28;12336,396;   38,564;23424,809;52,58575
 601,86;12320,474;   61,766;23355,102;52,62753
 602,44;12298,949;   23,661;23449,660;52,40028
 603,02;12318,166;   38,656;23576,521;52,16917
 603,60;12351,467;   54,858;23663,232;52,08579
 604,18;12240,303;   69,263;23594,734;51,73558
 604,76;12165,167;   59,263;23642,154;51,33342
 605,34;12078,726;   27,565;23530,764;51,27455
 605,92;11975,761;   59,561;23453,719;50,93665
 606,50;11854,896;   17,662;23498,998;50,41125
 607,08;11764,108;   31,666;23394,881;50,21758
 607,66;11706,161;   39,266;23561,643;49,59913
 608,24;11564,244;   46,067;23522,059;49,06365
 608,82;11414,161;   26,164;23532,031;48,44747
 609,40;11288,196;   46,466;23471,021;47,99122
 609,98;11116,320;   18,864;23505,928;47,24923
 610,56;10989,091;   43,861;23497,662;46,66719
 611,14;10838,291;   30,765;23481,086;46,08690
 611,72;10696,367;   42,665;23572,467;45,27748
 612,30;10522,556;   24,962;23468,496;44,77820
 612,88;10389,926;   60,659;23517,730;44,03477
 613,46;10198,796;   21,862;23505,697;43,33591
 614,04;10056,285;   30,068;23461,873;42,78892
 614,62; 9958,114;   41,561;23489,982;42,29092
 615,20; 9834,314;   52,768;23402,416;41,89162
 615,78; 9743,155;   25,569;23463,430;41,46106
 616,36; 9708,285;   41,364;23400,150;41,38452
 616,94; 9633,361;    7,666;23272,242;41,37490
 617,52; 9580,503;   24,067;23373,656;40,92764
 618,10; 9643,361;   63,559;23336,107;41,16353
 618,68; 9591,750;   17,966;23253,184;41,20376
 619,26; 9679,538;   39,268;23398,834;41,26905
 619,84; 9677,603;   18,963;23277,133;41,52794
 620,42; 9705,256;   31,165;23313,506;41,55120
 621,00; 9714,355;   28,865;23209,607;41,78249
 621,58; 9826,319;   38,760;23216,406;42,22844
 622,16; 9941,162;   49,270;23335,164;42,48019
 622,74; 9912,861;   47,066;23327,742;42,37762
 623,32; 9915,738;   42,166;23291,223;42,46870
 623,90; 9982,186;   66,971;23311,484;42,65615
 624,48; 9983,796;   32,662;23196,598;42,95960
 625,05; 9984,496;   34,562;23105,098;43,12832
 625,63;10021,597;   52,962;23188,799;43,08742
 626,21; 9924,155;   38,262;23117,596;42,83440
 626,79;10028,655;   53,967;23219,719;43,05791
 627,37; 9878,420;   28,162;23090,717;42,71104
 627,95; 9881,515;   72,768;23200,215;42,41172
 628,53; 9785,655;   49,365;23176,607;42,09880
 629,11; 9692,849;   48,259;23043,449;41,94177
 629,69; 9663,597;   53,369;23256,932;41,41704
 630,27; 9583,803;   80,763;23105,434;41,27329
 630,84; 9505,097;   43,862;23021,197;41,17638
 631,42; 9432,703;   54,367;23319,656;40,31042
 632,00; 9319,973;   45,459;23125,768;40,18366
 632,58; 9254,649;   50,263;23105,172;39,92376
 633,16; 9101,550;   49,870;23096,906;39,27481
 633,74; 9025,532;   56,264;23018,488;39,06097
 634,32; 8928,525;   45,661;23007,842;38,68476
 634,90; 8905,538;   51,970;23195,746;38,25464
 635,47; 8780,066;   38,860;23035,645;38,01056
 636,05; 8714,226;   37,461;22989,342;37,80416
 636,63; 8662,256;   45,965;23104,807;37,36654
 637,21; 8637,320;   67,464;23150,529;37,12616
 637,79; 8637,015;   71,465;23192,904;37,04592
 638,37; 8461,819;   54,055;23070,883;36,52877
 638,94; 8474,991;   33,265;23100,686;36,59588
 639,52; 8480,791;   41,665;23195,285;36,44841
 640,10; 8480,209;   64,264;23215,900;36,35140
 640,68; 8480,472;   54,164;23175,334;36,44412
 641,26; 8410,436;   35,864;23250,268;36,07489
 641,84; 8405,599;   39,164;23235,002;36,06869
 642,41; 8445,562;   28,264;23192,936;36,33679
 642,99; 8409,124;   48,464;23145,568;36,19787
 643,57; 8440,287;   22,064;23158,402;36,38529
 644,15; 8407,851;   27,064;23178,035;36,20058
 644,73; 8494,414;   37,564;23277,568;36,38919
 645,30; 8525,677;   55,264;23230,303;36,54972
 645,88; 8579,540;   44,964;23362,635;36,60132
 646,46; 8579,303;   59,264;23447,568;36,42863
 647,04; 8530,966;   51,864;23367,902;36,36596
 647,61; 8614,129;   46,564;23396,336;36,69228
 648,19; 8686,092;   61,664;23433,369;36,90115
 648,77; 8651,855;   26,264;23442,002;36,83673
 649,35; 8691,719;   51,064;23590,137;36,70771
 649,92; 8748,182;   42,464;23596,070;36,96129
 650,50; 8659,845;   30,064;23551,104;36,68962
 651,08; 8729,708;   39,964;23450,537;37,11889
 651,66; 8760,471;   21,864;23534,770;37,16515
 652,23; 8731,134;   39,064;23561,004;36,95303
 652,81; 8740,697;   36,464;23644,137;36,87036
 653,39; 8797,260;   56,164;23647,170;37,05266
 653,97; 8815,623;   37,065;23882,504;36,81441
 654,54; 8686,986;   23,565;23823,137;36,40159
 655,12; 8767,149;   30,965;23831,971;36,70511
 655,70; 8772,813;   42,065;23962,805;36,49865
 656,28; 8780,476;   32,765;23947,037;36,57946
 656,85; 8765,938;   44,065;24051,070;36,33054
 657,43; 8708,002;   -1,035;23831,305;36,54294
 658,01; 8720,365;   21,465;24078,539;36,15943
 658,58; 8860,928;   55,165;24234,371;36,41874
 659,16; 8777,591;   51,965;24154,105;36,20270
 659,74; 8754,254;   59,465;24338,039;35,81260
 660,32; 8838,217;   71,665;24327,672;36,14178
 660,89; 8803,480;   34,265;24347,305;36,06795
 661,47; 8872,443;   51,665;24464,939;36,13107
 662,05; 8904,606;   25,365;24587,373;36,15031
 662,62; 8974,970;   59,665;24584,006;36,35288
 663,20; 9074,532;   80,665;24740,139;36,47226
 663,78; 9082,796;   47,965;24902,773;36,35043
 664,35; 9121,159;   52,465;24921,006;36,46653
 664,93; 9173,021;   64,465;25123,539;36,34834
 665,51; 9177,385;   49,565;25170,973;36,33483
 666,08; 9222,848;   30,165;25185,707;36,54337
 666,66; 9302,611;   47,465;25667,539;36,12459
 667,23; 9351,074;   51,765;25732,773;36,21084
 667,81; 9412,737;   65,865;25889,307;36,19530
 668,39; 9430,301;   43,265;26047,141;36,09860
 668,96; 9548,464;   54,665;26309,074;36,16078
 669,54; 9596,627;   38,765;26408,408;36,24570
 670,12; 9738,689;   51,165;26808,740;36,20479
 670,69; 9778,253;   64,165;26950,674;36,12997
 671,27; 9795,216;   25,565;27096,008;36,08973
 671,84; 9822,279;   40,665;27105,240;36,14176
 672,42; 9915,442;   66,265;27253,875;36,22671
 673,00; 9975,305;   57,165;27531,408;36,09977
 673,57; 9964,168;   59,965;27276,441;36,39047
 674,15;10064,132;   64,065;27613,475;36,29866
 674,72;10125,395;   58,565;27536,209;36,63644
 675,30;10166,157;   69,466;27513,541;36,79006
 675,88;10221,221;   36,266;27573,176;36,98656
 676,45;10360,184;   59,466;27677,309;37,29733
 677,03;10350,447;   67,866;27525,043;37,44952
 677,60;10413,210;   41,466;27770,576;37,40381
 678,18;10560,173;   59,466;27877,510;37,74783
 678,76;10607,136;   40,766;27809,143;38,05181
 679,33;10652,699;   57,666;27813,176;38,17272
 679,91;10622,462;   44,266;27813,311;38,09348
 680,48;10661,926;   28,766;27740,242;38,37096
 681,06;10707,389;   50,866;27735,176;38,49301
 681,63;10726,151;   37,566;27736,209;38,58884
 682,21;10796,515;   67,966;27797,543;38,68991
 682,78;10663,678;   20,566;27459,576;38,78825
 683,36;10792,341;   46,966;27565,510;39,04776
 683,93;10670,204;   30,466;27450,645;38,80259
 684,51;10649,067;   26,166;27477,277;38,69753
 685,08;10752,930;   38,966;27733,711;38,68591
 685,66;10684,693;   53,066;27694,045;38,46328
 686,24;10643,557;   33,766;27796,578;38,21584
 686,81;10724,020;   57,666;27899,910;38,30996
 687,39;10679,282;   38,866;27807,844;38,31764
 687,96;10767,245;   54,166;27850,479;38,54137
 688,54;10775,608;   30,866;27984,811;38,43730
 689,11;10745,972;   26,966;28043,545;38,25951
 689,69;10749,734;   29,666;28019,279;38,30017
 690,26;10969,698;   59,466;28289,313;38,64786
 690,84;10943,361;   50,066;28239,846;38,64271
 691,41;10961,524;   35,966;28403,879;38,51379
 691,98;11086,587;   31,466;28427,912;38,93135
 692,56;11187,450;   32,866;28437,445;39,27037
 693,13;11367,214;   64,866;28655,080;39,53222
 693,71;11348,776;   24,466;28657,912;39,54924
 694,28;11521,239;   41,966;28715,945;40,03376
 694,86;11591,003;   47,266;28928,879;39,96916
 695,43;11733,565;   61,366;29100,912;40,19415
 696,01;11878,929;   36,266;29145,547;40,68346
 696,58;11951,292;   42,167;29083,879;41,00697
 697,16;11993,855;   38,067;29126,414;41,10164
 697,73;12193,118;   63,467;29338,246;41,43379
 698,30;12174,881;   51,867;29223,980;41,55686
 698,88;12247,145;   40,467;29558,613;41,35313
 699,45;12323,407;   35,367;29765,848;41,33146
 700,03;12349,570;   56,067;29750,980;41,39936
 700,60;12464,533;   56,267;29850,613;41,64638
 701,18;12537,896;   61,867;29963,947;41,72295
 701,75;12586,060;   74,367;30094,682;41,67742
 702,32;12541,723;   50,367;29901,914;41,84492
 702,90;12664,786;   52,467;30254,148;41,76032
 703,47;12622,749;   51,367;30428,881;41,38384
 704,05;12619,212;   67,767;30546,715;41,18070
 704,62;12587,575;   39,867;30587,848;41,07541
 705,19;12691,838;   43,667;30586,982;41,41060
 705,77;12763,102;   29,967;30618,314;41,62740
 706,34;12778,664;   61,667;30627,049;41,60588
 706,91;12935,128;   46,367;30673,883;42,08229
 707,49;13003,791;   57,267;30976,316;41,87232
 708,06;13094,254;   66,367;31089,049;41,99472
 708,64;13130,017;   25,767;31093,582;42,17950
 709,21;13247,080;   58,167;31179,316;42,37926
 709,78;13331,543;   41,367;31281,150;42,54247
 710,36;13577,307;   61,667;31419,684;43,10107
 710,93;13690,369;   50,567;31562,416;43,28468
 711,50;13828,732;   44,467;31506,049;43,81301
 712,08;14031,796;   76,567;31925,383;43,81710
 712,65;14057,459;   73,667;31775,916;44,10978
 713,22;14183,422;   69,067;31900,250;44,34128
 713,80;14347,385;   84,167;31966,883;44,73652
 714,37;14299,248;   55,767;31827,018;44,83135
 714,94;14454,011;   53,967;31727,551;45,46389
 715,52;14464,774;   47,867;31732,984;45,50056
 716,09;14495,237;   65,467;31891,918;45,33892
 716,66;14628,101;   73,467;31935,051;45,68082
 717,23;14670,264;   66,867;31908,484;45,86261
 717,81;14585,227;   50,168;31812,018;45,76263
 718,38;14540,090;   47,468;31671,252;45,82824
 718,95;14561,553;   59,068;31618,984;45,95223
 719,53;14632,416;   56,568;31661,418;46,11902
 720,10;14630,079;   59,968;31481,252;46,37020
 720,67;14530,441;   35,768;31355,984;46,27897
 721,24;14426,405;   59,468;31256,020;46,05297
 721,82;14427,468;   49,968;31236,053;46,10229
 722,39;14462,131;   64,068;31235,885;46,18936
 722,96;14477,994;   64,968;31261,420;46,20085
 723,53;14514,657;   88,268;31151,953;46,44133
 724,11;14634,021;   61,568;31207,486;46,78768
 724,68;14614,384;   71,568;31242,020;46,65578
 725,25;14669,047;   72,768;31399,953;46,59301
 725,82;14829,109;   96,068;31564,387;46,81865
 726,40;14896,073;   62,668;31714,820;46,86381
 726,97;15041,736;   62,168;31875,354;47,08604
 727,54;15079,199;   46,968;31801,486;47,33887
 728,11;15268,262;   49,568;32045,820;47,56399
 728,69;15303,325;   39,568;31938,953;47,84969
 729,26;15469,688;   53,568;32105,088;48,09794
 729,83;15587,352;   53,268;32264,621;48,22549
 730,40;15671,515;   66,768;32291,754;48,42437
 730,97;15892,978;   44,268;32590,588;48,69586
 731,55;15944,740;   41,468;32755,820;48,61252
 732,12;16172,504;   86,268;32841,656;49,11020
 732,69;16206,167;   66,968;32889,988;49,17037
 733,26;16281,930;   55,168;32930,520;49,35844
 733,83;16345,093;   41,168;32979,055;49,49900
 734,41;16517,156;   65,468;32991,590;49,96546
 734,98;16570,520;   51,368;33155,621;49,90039
 735,55;16667,883;   43,168;33183,656;50,16436
 736,12;16804,145;   65,968;33377,289;50,24771
 736,69;16889,109;   76,968;33377,922;50,48546
 737,26;16841,072;   57,468;33552,254;50,10811
 737,84;16822,734;   70,768;33487,188;50,13094
 738,41;16856,297;   63,168;33492,422;50,23483
 738,98;16854,961;   63,569;33375,055;50,40721
 739,55;16951,225;   49,669;33377,789;50,71260
 740,12;16961,287;   62,969;33678,023;50,27009
 740,69;16919,250;   70,569;33575,656;50,28693
 741,26;16904,113;   56,269;33557,391;50,29039
 741,83;16955,676;   53,869;33719,523;50,20490
 742,41;17025,740;   56,169;33833,055;50,24019
 742,98;17137,703;   91,469;33874,590;50,45784
 743,55;17154,666;   53,569;33836,824;50,62004
 744,12;17158,828;   50,469;33859,855;50,60239
 744,69;17235,893;   59,569;33848,492;50,83418
 745,26;17177,754;   42,169;33677,723;50,94486
 745,83;17320,818;   58,769;33854,355;51,07782
 746,40;17284,881;   57,969;33844,789;50,98708
 746,97;17328,145;   44,769;33828,125;51,15944
 747,55;17469,607;   62,269;33966,957;51,34198
 748,12;17473,670;   57,869;33910,191;51,44640
 748,69;17523,133;   68,769;33877,625;51,62660
 749,26;17578,797;   65,069;33958,559;51,67284
 749,83;17596,061;   42,569;33911,992;51,82696
 750,40;17680,723;   89,669;34158,824;51,63337
 750,97;17669,586;   96,269;34144,160;51,61353
 751,54;17732,148;   40,569;33980,793;52,12570
 752,11;17683,813;   52,969;33874,727;52,12870
 752,68;17706,975;   87,869;33912,859;52,08902
 753,25;17583,539;   60,269;33774,594;51,97574
 753,82;17621,201;   65,069;33810,527;52,02517
 754,39;17687,365;   75,169;33727,160;52,33627
 754,96;17631,328;   60,069;33616,395;52,36348
 755,53;17626,490;   29,469;33796,527;52,11298
 756,10;17558,953;   64,169;33720,961;51,97995
 756,67;17664,117;   73,369;33813,395;52,13614
 757,24;17600,879;   72,769;33740,426;52,06216
 757,81;17601,643;   16,469;33677,762;52,24153
 758,38;17672,807;   54,569;33822,695;52,17416
 758,95;17607,270;   79,469;33743,426;52,06696
 759,52;17511,332;   57,469;33615,859;52,01043
 760,09;17487,195;   68,570;33306,992;52,40509
 760,66;17378,059;   59,570;33309,727;52,08544
 761,23;17479,721;   91,070;33353,961;52,27643
 761,80;17351,984;   56,270;33295,793;52,03358
 762,37;17343,447;   68,970;33167,727;52,19071
 762,94;17416,510;   70,970;33187,461;52,37735
 763,51;17363,174;   36,070;32949,793;52,64401
 764,08;17359,137;   66,270;32998,527;52,51042
 764,65;17319,801;   69,570;32798,961;52,70563
 765,22;17384,363;   54,670;32804,496;52,91538
 765,79;17308,227;   77,370;32691,928;52,83180
 766,36;17233,289;   73,170;32743,063;52,52579
 766,93;17318,553;   68,970;32551,295;53,10452
 767,50;17381,615;   89,470;32828,328;52,81841
 768,07;17454,979;   63,870;32699,262;53,28911
 768,64;17312,541;   86,470;32572,596;53,02593
 769,21;17330,805;   57,970;32359,729;53,47336
 769,78;17179,867;   78,770;32244,963;53,16482
 770,34;17100,432;   45,570;32031,195;53,32039
 770,91;17048,295;   58,470;31921,430;53,32155
 771,48;16998,457;   62,370;31836,863;53,30089
 772,05;16953,420;   66,470;31610,697;53,53420
 772,62;16820,584;   42,670;31443,029;53,43224
 773,19;16950,646;   59,370;31579,764;53,58841
 773,76;16843,309;   71,070;31506,297;53,35491
 774,33;16812,572;   74,170;31447,330;53,35262
 774,90;16643,236;   52,870;31206,064;53,25414
 775,47;16593,100;   59,970;30957,498;53,50955
 776,03;16531,162;   73,470;30984,330;53,24243
 776,60;16426,926;   55,970;30757,863;53,32230
 777,17;16301,388;   65,470;30698,098;53,00204
 777,74;16084,951;   30,870;30522,031;52,65159
 778,31;16201,914;   68,970;30582,064;52,87220
 778,88;16092,978;   30,470;30366,898;52,94792
 779,45;16078,141;   75,770;30358,131;52,84387
 780,01;16004,203;   58,370;30299,664;52,72867
 780,58;15856,167;   60,570;30177,998;52,44670
 781,15;15793,930;   38,771;29979,432;52,62128
 781,72;15802,993;   66,771;29962,266;52,63744
 782,29;15684,556;   51,771;29667,100;52,78613
 782,86;15719,019;   55,571;29617,732;52,98479
 783,42;15705,082;   56,171;29598,166;52,97175
 783,99;15650,045;   66,671;29482,100;52,97687
 784,56;15593,708;   55,171;29320,232;53,09586
 785,13;15594,071;   40,271;29247,266;53,25368
 785,70;15518,234;   49,071;29060,299;53,32130
 786,26;15482,997;   51,671;28910,732;53,47134
 786,83;15472,961;   84,371;28889,166;53,42371
 787,40;15319,224;   57,171;28783,500;53,12914
 787,97;15294,087;   43,971;28581,133;53,43950
 788,54;15296,550;   70,371;28515,268;53,52868
 789,10;15247,113;   57,971;28344,400;53,69763
 789,67;15176,576;   70,371;28245,334;53,61571
 790,24;15183,539;   51,071;28193,768;53,77050
 790,81;15072,803;   88,271;27914,400;53,85058
 791,37;15132,065;   73,671;27872,135;54,16988
 791,94;14981,528;   70,771;27886,367;53,60574
 792,51;14803,092;   46,271;27539,201;53,67497
 793,08;14755,055;   69,771;27555,234;53,42927
 793,64;14726,918;   71,271;27455,168;53,51922
 794,21;14630,781;   69,671;27250,602;53,57105
 794,78;14569,844;   53,071;27147,035;53,57936
 795,35;14415,007;   73,471;27007,969;53,24597
 795,91;14367,870;   48,071;26789,301;53,54952
 796,48;14277,733;   55,771;26710,734;53,35577
 797,05;14137,597;   57,671;26624,369;52,99840
 797,62;14121,159;   41,971;26600,701;53,01153
 798,18;14028,822;   57,471;26410,736;53,01564
 798,75;13883,186;   56,571;26279,770;52,72665
 799,32;13954,448;   60,771;26209,102;53,13409
 799,88;13837,212;   55,971;26051,535;53,01382
 800,45;13674,375;   33,971;25945,270;52,64269
 801,02;13722,338;   65,271;25880,104;52,90395
 801,58;13740,101;   90,872;25660,436;53,38077
 802,15;13622,164;   72,872;25615,270;53,04628
 802,72;13547,728;   66,172;25404,703;53,20575
 803,28;13521,090;   49,172;25288,938;53,37577
 803,85;13381,153;   41,972;25144,871;53,13801
 804,42;13470,517;   77,772;24948,004;53,85050
 804,98;13433,880;  100,672;24935,537;53,68746
 805,55;13316,243;   56,972;24702,371;53,80019
 806,12;13313,906;   83,572;24611,004;53,94097
 806,68;13171,269;   66,472;24493,738;53,64823
 807,25;13133,232;   74,972;24436,271;53,60248
 807,82;13125,795;   86,872;24407,805;53,61194
 808,38;12978,658;   73,672;24367,037;53,12144
 808,95;12969,121;   62,972;24166,971;53,54360
 809,52;12962,284;   50,272;24162,004;53,55075
 810,08;12923,048;   55,172;23994,938;53,75105
 810,65;12963,311;   77,172;24169,672;53,48610
 811,21;12909,073;   69,972;24123,404;53,37742
 811,78;12910,236;   92,472;24337,539;52,86751
 812,35;12860,200;   64,972;24173,871;53,07264
 812,91;12905,863;   90,072;24239,705;53,06826
 813,48;12831,226;   68,172;24202,738;52,88288
 814,04;12786,489;   64,172;24088,373;52,95626
 814,61;12704,452;   77,572;24176,006;52,39710
 815,18;12513,715;   67,772;23892,539;52,23952
 815,74;12527,378;   69,772;23709,172;52,69849
 816,31;12451,441;   83,372;23614,406;52,56067
 816,87;12361,904;   43,272;23489,641;52,53962
 817,44;12352,768;   76,972;23452,273;52,51609
 818,00;12117,931;   43,272;23159,506;52,23454
 818,57;12133,494;   71,872;23076,340;52,43165
 819,14;12071,557;   82,872;22924,273;52,48664
 819,70;11940,020;   72,672;22792,707;52,23296
 820,27;11926,583;   62,972;22691,941;52,42665
 820,83;11883,746;   70,072;22541,373;52,57227
 821,40;11726,510;   98,072;22431,908;52,06646
 821,96;11702,973;   75,272;22315,541;52,28219
 822,53;11688,535;   70,973;22257,574;52,36297
 823,09;11608,999;   81,073;22073,309;52,41816
 823,66;11527,861;   68,173;21862,541;52,58096
 824,22;11434,125;   77,173;21851,674;52,15712
 824,79;11421,488;   75,473;21561,408;52,80671
 825,35;11392,651;   65,173;21648,041;52,48366
 825,92;11306,114;   75,173;21398,875;52,66882
 826,48;11221,277;   87,673;21501,309;51,99306
 827,05;11169,440;   89,573;21448,242;51,87527
 827,61;11056,604;   75,273;21249,076;51,86282
 828,18;10964,467;   60,873;21191,209;51,60161
 828,74;10887,029;   91,673;21053,543;51,49997
 829,31;10798,093;   83,373;21002,176;51,22052
 829,87;10755,155;   73,073;20733,709;51,70258
 830,44;10679,519;   85,173;20631,443;51,56335
 831,00;10650,082;   91,273;20673,977;51,29943
 831,57;10564,545;  101,573;20631,609;50,96422
 832,13;10479,108;   72,073;20323,344;51,38954
 832,69;10393,371;   58,173;20309,477;51,03473
 833,26;10409,334;   85,473;20322,711;51,01418
 833,82;10384,897;   93,073;20197,744;51,19121
 834,39;10276,061;   78,773;20137,477;50,83722
 834,95;10189,323;   57,173;19959,410;50,90960
 835,52;10176,486;   87,873;19851,744;51,04573
 836,08;10152,949;   95,573;19951,877;50,65080
 836,64;10110,513;   76,273;19800,711;50,87212
 837,21;10065,076;   88,673;19552,443;51,25627
 837,77; 9984,839;   91,873;19491,777;50,99492
 838,34; 9911,103;   67,473;19470,012;50,73372
 838,90; 9926,965;   64,473;19306,045;51,25616
 839,46; 9949,628;   83,873;19312,479;51,30770
 840,03; 9904,392;   76,173;19300,811;51,12304
 840,59; 9807,354;   85,873;19175,645;50,92508
 841,16; 9812,817;  105,173;19156,578;50,95500
 841,72; 9672,581;   59,373;18965,512;50,84702
 842,28; 9705,443;   77,873;18857,246;51,26673
 842,85; 9724,507;   95,573;18812,578;51,44484
 843,41; 9678,670;  105,374;18740,813;51,37146
 843,97; 9661,933;   89,174;18686,846;51,47289
 844,54; 9624,796;  104,774;18624,979;51,40344
 845,10; 9525,359;   89,174;18523,713;51,18753
 845,67; 9520,322;   68,774;18413,445;51,52204
 846,23; 9430,985;   78,674;18361,080;51,15471
 846,79; 9357,748;   90,474;18265,613;50,98874
 847,36; 9204,712;   55,774;18179,047;50,48171
 847,92; 9224,774;   84,874;18034,680;50,91922
 848,48; 9208,338;   41,874;18039,213;50,93233
 849,04; 9132,900;   62,374;17949,447;50,70995
 849,61; 9119,364;   56,274;17918,580;50,73864
 850,17; 9078,327;   68,174;17819,514;50,75760
 850,73; 9006,090;   71,474;17764,848;50,49696
 851,30; 8940,453;   46,074;17669,881;50,46798
 851,86; 8858,616;   75,874;17597,914;50,12397
 852,42; 8919,379;   51,174;17568,348;50,62578
 852,99; 8875,742;   79,274;17583,082;50,25460
 853,55; 8867,206;   83,174;17542,514;50,31136
 854,11; 8853,469;   70,074;17432,049;50,58984
 854,67; 8815,632;   85,474;17420,881;50,36027
 855,24; 8735,095;   51,874;17213,414;50,59698
 855,80; 8778,958;   76,874;17244,848;50,68789
 856,36; 8721,021;   80,574;17175,881;50,54280
 856,92; 8676,884;   54,474;17027,215;50,80152
 857,49; 8718,547;   81,274;17048,248;50,90638
 858,05; 8646,910;   67,274;16968,482;50,76345
 858,61; 8682,174;   65,774;17003,316;50,87161
 859,17; 8639,437;   77,374;16904,250;50,88326
 859,74; 8637,100;   82,074;16836,883;51,06012
 860,30; 8594,163;   93,074;16663,016;51,30428
 860,86; 8463,626;   72,074;16692,350;50,48985
 861,42; 8427,489;   74,674;16545,883;50,71161
 861,99; 8329,552;   54,674;16506,717;50,29696
 862,55; 8344,615;   66,374;16393,051;50,70377
 863,11; 8352,278;   75,174;16437,283;50,58702
 863,67; 8250,041;   61,274;16290,117;50,45811
 864,23; 8251,704;   80,175;16199,351;50,69446
 864,80; 8185,567;   69,175;16081,384;50,68878
 865,36; 8147,030;   71,875;16120,817;50,31581
 865,92; 8127,594;   96,175;16088,751;50,21967
 866,48; 8106,957;   67,375;15987,384;50,49986
 867,04; 8051,220;   60,675;15891,418;50,47486
 867,60; 8035,083;   99,375;15884,451;50,27349
 868,17; 7856,546;   93,675;15884,685;49,16007
 868,73; 7816,309;   82,775;15672,618;49,60623
 869,29; 7780,372;   59,475;15470,151;50,10096
 869,85; 7828,635;  100,475;15369,685;50,61271
 870,41; 7685,398;   80,575;15293,418;49,98950
 870,97; 7675,662;   92,975;15232,252;50,08619
 871,54; 7603,924;   84,175;15178,686;49,81778
 872,10; 7594,688;   84,275;15055,419;50,16592
 872,66; 7519,551;   66,775;14910,652;50,20774
 873,22; 7542,014;   81,975;14890,586;50,37636
 873,78; 7479,277;   65,275;14742,419;50,51393
 874,34; 7452,140;   95,075;14662,652;50,50301
 874,90; 7364,740;  109,775;14536,053;50,28993
 875,46; 7368,740;   96,375;14412,952;50,79682
 876,03; 7290,240;   86,475;14363,353;50,45757
 876,59; 7179,040;   64,475;14153,253;50,49810
 877,15; 7136,840;  101,475;14166,853;50,01903
 877,71; 7096,140;   78,275;14064,652;50,17643
 878,27; 7052,840;   95,675;13910,553;50,35995
 878,83; 7072,140;  114,275;13971,753;50,21018
 879,39; 7033,740;   91,075;14082,753;49,61996
 879,95; 6984,840;   86,275;13964,253;49,70872
 880,51; 6934,740;   75,175;13927,253;49,52012
 881,07; 7010,840;   82,375;13978,753;49,85806
 881,63; 7018,240;   92,575;13971,253;49,90148
 882,19; 7008,840;   82,675;13921,553;50,04860
 882,75; 6973,640;   86,275;14019,553;49,43105
 883,31; 7032,440;   95,575;14187,853;49,22458
 883,88; 7045,640;   96,375;14174,353;49,36267
 884,44; 7066,840;   76,175;14175,753;49,58067
 885,00; 7108,240;  106,075;14266,952;49,44726
 885,56; 7066,440;  101,675;14299,452;49,05532
 886,12; 7115,740;  109,875;14421,152;48,95346
 886,68; 7117,540;   90,775;14436,753;48,98073
 887,24; 7216,340;  102,475;14574,952;49,15444
 887,80; 7265,340;   86,975;14671,753;49,21820
 888,36; 7323,640;  106,275;14715,652;49,40228
 888,92; 7329,040;   98,975;14773,353;49,26999
 889,48; 7438,840;   99,575;14973,853;49,34199
 890,04; 7444,840;   95,275;14803,053;49,97060
 890,60; 7515,740;  117,475;15014,652;49,66219
 891,16; 7503,840;   99,875;15075,853;49,43894
 891,72; 7466,940;  113,275;15058,452;49,20427
 892,28; 7564,740;  112,475;15126,053;49,63684
 892,84; 7521,140;   93,775;15039,853;49,69441
 893,39; 7555,440;  117,575;15112,952;49,60105
 893,95; 7491,340;  112,975;15044,753;49,41384
 894,51; 7323,440;   66,375;14891,253;48,95194
 895,07; 7381,340;  127,375;14906,353;49,08300
 895,63; 7251,940;   74,275;14689,952;49,10936
 896,19; 7145,140;   90,375;14601,952;48,61474
 896,75; 7107,740;  105,175;14460,152;48,78144
 897,31; 7026,340;   82,775;14295,853;48,85335
 897,87; 6918,940;   98,175;14146,853;48,55094
 898,43; 6895,040;   87,775;14075,753;48,66511
 898,99; 6817,840;  109,175;14002,753;48,28608
 899,55; 6755,240;  109,475;13940,652;48,04917
 900,11; 6685,740;  104,975;13747,553;48,23696
 900,67; 6663,640;   91,375;13658,652;48,44203
 901,22; 6587,840;  108,375;13601,952;48,01888
 901,78; 6466,040;   91,275;13560,053;47,32994
 902,34; 6480,740;  103,075;13451,152;47,77965
 902,90; 6415,640;   73,575;13350,652;47,76703
 903,46; 6375,340;   95,775;13236,353;47,78759
 904,02; 6297,640;   88,075;13091,553;47,75311
 904,58; 6210,540;   67,075;12918,152;47,80506
 905,14; 6184,240;   63,975;12874,553;47,77509
 905,70; 6139,240;   66,775;12696,053;48,08244
 906,25; 6114,740;   84,375;12708,452;47,76876
 906,81; 6075,440;   87,675;12732,152;47,35478
 907,37; 6042,440;   79,275;12616,152;47,56499
 907,93; 6000,940;   74,775;12588,152;47,35864
 908,49; 5987,040;  101,875;12497,652;47,47718
 909,05; 5970,140;   89,675;12425,553;47,66961
 909,60; 5956,140;   86,575;12340,452;47,89966
 910,16; 5894,940;   67,675;12291,853;47,67000
 910,72; 5844,640;  100,475;12207,753;47,44390
 911,28; 5758,440;   90,875;12156,053;46,97457
 911,84; 5744,840;   79,575;12106,753;47,10386
 912,39; 5691,640;   73,475;12049,353;46,91235
 912,95; 5698,340;  104,475;12001,452;47,01921
 913,51; 5638,340;   85,375;11945,253;46,82143
 914,07; 5532,240;   83,775;11813,452;46,45026
 914,63; 5519,640;   64,775;11748,053;46,68951
 915,18; 5433,140;   77,475;11617,853;46,40806
 915,74; 5395,440;   63,975;11632,652;46,08535
 916,30; 5281,040;   61,475;11588,553;45,28090
 916,86; 5309,640;   83,575;11514,652;45,71805
 917,42; 5276,640;   82,275;11425,152;45,79407
 917,97; 5168,740;   75,375;11265,452;45,51680
 918,53; 5101,540;   67,775;11196,253;45,23319
 919,09; 5098,540;   88,975;11223,753;44,99026
 919,65; 5065,740;   83,375;11083,452;45,29391
 920,20; 4958,340;   61,875;10983,053;44,83459
 920,76; 4918,540;   65,475;10849,452;45,00255
 921,32; 4878,840;   82,675;10770,952;44,87313
 921,87; 4794,340;   97,475;10670,253;44,42413
 922,43; 4749,440;   64,675;10561,353;44,63093
 922,99; 4686,640;   61,875;10406,753;44,70585
 923,55; 4657,640;   63,775;10357,353;44,62846
 924,10; 4646,440;   73,575;10282,853;44,79127
 924,66; 4570,740;   78,675;10170,152;44,51346
 925,22; 4537,240;   43,275;10093,952;44,71306
 925,77; 4468,440;   66,075; 9927,053;44,64430
 926,33; 4467,140;   90,375; 9903,253;44,60226
 926,89; 4369,040;   71,975; 9692,753;44,66442
 927,44; 4245,140;   52,175; 9580,553;44,00503
 928,00; 4232,340;   66,875; 9533,753;44,00041
 928,56; 4213,340;   80,375; 9372,253;44,47933
 929,12; 4086,640;   72,775; 9275,152;43,61770
 929,67; 4002,940;   67,575; 9091,053;43,61251
 930,23; 3926,440;   50,975; 8915,253;43,72003
 930,78; 3947,040;  100,675; 8842,553;43,99930
 931,34; 3787,440;   61,975; 8632,152;43,47010
 931,90; 3668,740;   61,675; 8494,353;42,77485
 932,45; 3565,540;   78,775; 8290,753;42,45950
 933,01; 3469,140;   52,975; 8024,453;42,85485
 933,57; 3362,640;   72,175; 7753,252;42,83859
 934,12; 3181,540;   70,475; 7399,553;42,44825
 934,68; 2978,640;   59,075; 7020,252;41,94068
 935,24; 2815,740;   67,875; 6614,752;41,97215
 935,79; 2659,640;   72,975; 6254,853;41,84271
 936,35; 2488,340;   91,375; 5812,252;41,89856
 936,90; 2309,240;   80,275; 5348,752;42,30757
 937,46; 2126,540;   72,775; 4956,953;42,04935
 938,02; 1951,940;   63,375; 4549,152;42,10117
 938,57; 1834,340;   73,175; 4265,053;42,01375
 939,13; 1696,740;   70,575; 3986,752;41,52429
 939,68; 1578,240;   57,375; 3713,452;41,59827
 940,24; 1509,540;   68,775; 3504,052;41,94028
 940,79; 1461,240;   91,875; 3391,052;41,50625
 941,35; 1418,440;   79,675; 3217,552;42,66467
 941,91; 1337,740;   71,375; 3122,252;41,50822
 942,46; 1294,840;   75,075; 3063,552;40,81560
 943,02; 1279,540;   65,375; 3050,752;40,67040
 943,57; 1256,440;   61,275; 2982,452;40,91381
 944,13; 1266,840;   67,375; 2974,452;41,26017
 944,68; 1282,240;   65,975; 3041,752;40,87218
 945,24; 1308,040;   82,275; 3060,052;41,16376
 945,79; 1298,440;   68,775; 3104,052;40,51244
 946,35; 1320,740;   51,775; 3194,752;40,37461
 946,90; 1342,040;   98,575; 3283,552;39,04156
 947,46; 1341,640;   52,175; 3311,052;39,56777
 948,01; 1353,040;   51,575; 3390,052;38,98379
 948,57; 1452,240;   86,775; 3552,952;39,39397
 949,12; 1429,440;   65,875; 3613,353;38,43759
 949,68; 1471,840;   76,275; 3732,653;38,16797
 950,23; 1495,340;   70,075; 3833,252;37,87398
 950,79; 1520,040;   75,775; 3933,452;37,43872
 951,34; 1560,540;   83,275; 4070,952;37,04575
 951,90; 1594,040;   57,475; 4140,853;37,62976
 952,45; 1588,340;   81,075; 4292,152;35,79286
 953,01; 1596,440;   65,975; 4364,252;35,60647
 953,56; 1629,940;   87,975; 4500,853;34,94239
 954,12; 1625,140;   42,075; 4567,553;34,98117
 954,67; 1666,340;   70,875; 4720,453;34,31419
 955,23; 1710,840;   61,975; 4804,553;34,76727
 955,78; 1745,640;   67,175; 4882,953;34,85346
 956,33; 1756,740;   58,575; 4947,252;34,73670
 956,89; 1766,240;   53,475; 5038,553;34,35784
 957,44; 1800,540;   53,675; 5170,752;34,13794
 958,00; 1811,340;   49,475; 5238,353;33,95465
 958,55; 1851,640;   70,475; 5313,953;33,96915
 959,10; 1847,340;   52,375; 5370,252;33,75341
 959,66; 1861,940;   74,275; 5488,752;33,01639
 960,21; 1880,240;   78,475; 5567,453;32,82515
 960,77; 1870,540;   54,275; 5606,152;32,71443
 961,32; 1861,340;   48,375; 5663,453;32,28744
 961,87; 1914,740;   79,775; 5738,752;32,42573
 962,43; 1877,840;   68,975; 5780,652;31,66959
 962,98; 1896,340;   76,175; 5828,652;31,64141
 963,54; 1872,640;   27,075; 5820,652;31,85536
 964,09; 1895,040;   56,275; 5873,953;31,60651
 964,64; 1883,640;   64,975; 5901,053;31,16245
 965,20; 1860,840;   44,375; 5966,652;30,67173
 965,75; 1850,040;   66,575; 5976,353;30,17821
 966,30; 1854,340;   75,275; 6068,553;29,68434
 966,86; 1855,040;   62,975; 6121,953;29,57702
 967,41; 1840,240;   81,075; 6084,453;29,30292
 967,96; 1800,040;   75,175; 6108,953;28,58682
 968,52; 1800,940;   81,775; 6126,353;28,44144
 969,07; 1777,940;   72,975; 6120,152;28,19439
 969,62; 1766,040;   77,175; 6134,953;27,87928
 970,18; 1726,940;   57,575; 6147,652;27,41123
 970,73; 1735,940;   66,475; 6203,553;27,20293
 971,28; 1746,140;   95,775; 6197,053;27,04950
 971,84; 1685,140;   55,075; 6118,752;26,88245
 972,39; 1702,340;   95,875; 6148,652;26,54096
 972,94; 1655,540;   54,975; 6140,652;26,30052
 973,49; 1659,540;   64,575; 6141,252;26,24732
 974,05; 1640,640;   64,375; 6178,053;25,78260
 974,60; 1618,440;   88,575; 6213,252;24,97870
 975,15; 1637,540;   77,675; 6231,553;25,34768
 975,71; 1595,040;   62,375; 6121,453;25,29535
 976,26; 1609,140;   77,575; 6110,252;25,38782
 976,81; 1584,040;   90,675; 6134,152;24,71036
 977,36; 1555,140;   84,775; 6156,953;24,21479
 977,92; 1547,140;   90,175; 6209,353;23,80982
 978,47; 1523,440;   77,175; 6060,252;24,17259
 979,02; 1528,740;   95,475; 6085,652;23,92692
 979,57; 1515,340;   86,775; 6058,453;23,92234
 980,13; 1476,240;   76,175; 6038,752;23,48087
 980,68; 1480,840;   77,075; 6010,553;23,65838
 981,23; 1478,040;   89,175; 6054,652;23,28171
 981,78; 1453,340;   82,075; 5974,152;23,27303
 982,33; 1417,940;   79,275; 5893,252;23,02494
 982,89; 1412,940;   94,375; 5938,152;22,56357
 983,44; 1367,240;   65,675; 5935,853;22,17250
 983,99; 1396,540;  104,775; 5949,453;22,10156
 984,54; 1330,140;   81,475; 5900,053;21,45997
 985,09; 1330,940;   87,275; 5873,752;21,49261
 985,65; 1286,540;   69,375; 5811,853;21,19582
 986,20; 1274,040;  106,575; 5791,152;20,53741
 986,75; 1257,240;   95,875; 5823,953;20,27495
 987,30; 1206,140;   97,175; 5726,053;19,70135
 987,85; 1197,940;   92,475; 5721,353;19,63917
 988,40; 1183,040;   96,675; 5693,953;19,40881
 988,96; 1183,440;  114,875; 5666,553;19,24760
 989,51; 1150,640;  108,875; 5644,053;18,82081
 990,06; 1151,140;  128,275; 5680,853;18,42145
 990,61; 1100,540;   93,575; 5569,053;18,39045
 991,16; 1102,940;  104,375; 5558,053;18,30994
 991,71; 1066,340;   79,875; 5505,853;18,18041
 992,26; 1054,340;   93,475; 5457,252;17,91396
 992,81; 1033,040;   75,075; 5427,053;17,89927
 993,37; 1037,640;  113,475; 5390,553;17,51282
 993,92; 1030,240;  108,375; 5368,953;17,52403
 994,47; 1010,440;  117,475; 5329,652;17,13228
 995,02; 1010,440;  118,475; 5313,252;17,17042
 995,57;  970,040;   90,875; 5274,652;16,95993
 996,12;  984,140;  133,575; 5247,553;16,63216
 996,67;  963,340;  132,375; 5191,652;16,42458
 997,22;  934,640;   99,875; 5128,652;16,59976
 997,77;  949,740;  115,275; 5110,553;16,70508
 998,32;  921,040;  103,775; 5015,652;16,63855
 998,87;  939,040;  114,275; 5018,752;16,81657
 999,42;  895,940;  101,675; 4972,553;16,30640
 999,97;  860,040;  109,975; 4956,353;15,47682
1000,53;  896,740;  123,475; 4993,752;15,87723
1001,08;  840,440;   98,375; 4879,053;15,52217
1001,63;  871,040;  144,475; 4878,053;15,34917
1002,18;  787,440;   85,075; 4777,453;14,96821
1002,73;  812,640;  131,375; 4813,853;14,54924
1003,28;  783,440;  103,575; 4811,953;14,43947
1003,83;  780,740;  119,075; 4691,752;14,46997
1004,38;  784,140;  137,775; 4703,152;14,15798
1004,93;  740,440;  114,375; 4680,953;13,70972
1005,48;  724,240;  104,075; 4573,053;13,87711
1006,03;  707,040;  112,775; 4525,652;13,46661
1006,58;  700,140;  111,475; 4486,553;13,45496
1007,13;  671,340;   94,475; 4466,252;13,19521
1007,68;  668,140;  104,975; 4462,453;12,92411
1008,23;  683,640;  114,575; 4425,853;13,19945
1008,78;  652,240;  107,375; 4384,152;12,74008
1009,33;  643,140;  121,875; 4307,752;12,45294
1009,88;  599,140;   84,775; 4329,553;12,11760
1010,43;  638,240;  118,875; 4320,752;12,36031
1010,98;  611,140;  100,675; 4310,053;12,12685
1011,52;  597,740;   97,075; 4264,953;12,01247
1012,07;  650,940;  144,475; 4319,252;12,13154
1012,62;  603,440;  103,875; 4259,152;12,02242
1013,17;  594,040;   97,175; 4172,053;12,19337
1013,72;  573,740;   94,575; 4143,453;11,83451
1014,27;  583,840;  100,275; 4105,853;12,07229
1014,82;  570,540;   86,875; 4042,952;12,22587
1015,37;  544,740;   84,375; 3964,853;11,86362
1015,92;  551,640;  109,475; 3894,252;11,68272
1016,47;  529,040;   90,275; 3819,452;11,76573
1017,02;  497,940;   81,075; 3732,153;11,41759
1017,57;  523,440;   96,475; 3718,853;11,78687
1018,11;  489,640;   77,275; 3656,252;11,52187
1018,66;  519,840;  120,175; 3636,552;11,36582
1019,21;  485,640;  109,675; 3579,552;10,83511
1019,76;  457,440;   77,675; 3497,353;11,10529
1020,31;  451,240;   71,975; 3446,452;11,23922
1020,86;  470,040;   96,175; 3448,052;11,15390
1021,41;  427,140;   80,175; 3387,052;10,49222
1021,96;  445,040;   83,675; 3385,853;10,94323
1022,50;  456,140;  105,975; 3332,952;10,85118
1023,05;  426,540;   94,675; 3288,052;10,39229
1023,60;  423,740;   97,975; 3251,353;10,33067
1024,15;  397,040;   81,075; 3184,853;10,18001
1024,70;  419,240;   95,075; 3176,252;10,52082
1025,25;  379,840;   81,175; 3127,452; 9,80426
1025,79;  400,540;  101,175; 3110,752; 9,94708
1026,34;  379,940;   83,475; 3044,653;10,01173
1026,89;  385,440;  102,175; 3039,052; 9,64511
1027,44;  375,740;   95,875; 2952,952; 9,79550
1027,99;  362,140;   93,475; 2944,552; 9,42328
1028,53;  337,040;   89,675; 2900,052; 8,80184
1029,08;  371,940;  114,775; 2876,653; 9,31124
1029,63;  362,540;  114,875; 2854,952; 9,03861
1030,18;  344,140;   92,075; 2788,552; 9,34794
1030,73;  338,640;   91,175; 2739,552; 9,34402
1031,27;  314,140;   85,875; 2715,252; 8,68133
1031,82;  327,340;   81,875; 2686,452; 9,42437
1032,37;  340,140;   98,875; 2688,853; 9,31533
1032,92;  340,140;  100,575; 2675,452; 9,30394
1033,46;  322,240;   99,775; 2599,252; 8,90046
1034,01;  298,540;   78,375; 2582,952; 8,79051
1034,56;  310,240;   98,875; 2559,252; 8,59075
1035,11;  321,940;   92,375; 2523,552; 9,44254
1035,65;  303,840;   87,575; 2478,052; 9,04694
1036,20;  294,840;   99,375; 2454,452; 8,29973
1036,75;  321,440;  118,675; 2446,353; 8,71104
1037,29;  297,840;   90,275; 2398,252; 8,99337
1037,84;  277,240;   78,375; 2347,252; 8,76491
1038,39;  290,040;   91,075; 2329,952; 8,88682
1038,94;  264,140;   73,075; 2277,153; 8,66871
1039,48;  277,940;   83,575; 2278,552; 8,85499
1040,03;  291,540;  102,875; 2245,252; 8,80634
1040,58;  272,740;  101,175; 2194,552; 8,19561
1041,12;  278,740;   91,375; 2191,653; 8,92096
1041,67;  272,140;  101,075; 2166,752; 8,28130
1042,22;  289,240;  118,475; 2145,252; 8,42544
1042,76;  262,240;   99,275; 2118,452; 8,07086
1043,31;  270,940;   90,675; 2060,653; 9,15061
1043,86;  256,540;   98,875; 2044,252; 8,10460
1044,40;  261,640;   92,975; 2018,052; 8,76147
1044,95;  257,540;   94,175; 1988,552; 8,62368
1045,50;  241,040;   75,375; 1934,353; 8,91162
1046,04;  271,740;  114,375; 1930,453; 8,66510
1046,59;  237,840;   96,175; 1878,353; 7,94898
1047,13;  273,240;  121,075; 1879,453; 8,65372
1047,68;  249,840;  115,675; 1860,052; 7,69128
1048,23;  249,140;  118,775; 1866,752; 7,45805
1048,77;  235,840;   90,175; 1784,953; 8,59493
1049,32;  229,540;  104,175; 1785,953; 7,45431
1049,86;  224,140;   92,675; 1760,552; 7,88217
1050,41;  214,140;   82,475; 1735,552; 7,96484
1050,96;  237,040;  100,875; 1698,652; 8,52215
1051,50;  220,240;  101,675; 1663,252; 7,59264
1052,05;  231,040;   94,675; 1664,052; 8,68911
1052,59;  218,940;   82,975; 1624,152; 8,82215
1053,14;  202,140;   84,475; 1582,652; 7,85388
1053,69;  221,740;   98,475; 1571,453; 8,36842
1054,23;  230,840;  104,575; 1569,052; 8,62185
1054,78;  221,040;  100,775; 1550,152; 8,29770
1055,32;  236,340;  123,075; 1550,453; 7,93518
1055,87;  195,840;   68,875; 1491,752; 8,92312
1056,41;  192,540;   78,775; 1469,552; 8,17996
1056,96;  215,340;   96,775; 1451,052; 8,75485
1057,50;  217,040;  113,375; 1470,853; 7,63659
1058,05;  180,440;   82,075; 1401,953; 7,45259
1058,59;  203,640;   95,875; 1396,552; 8,28530
1059,14;  214,340;  103,575; 1370,453; 8,74315
1059,68;  178,440;   75,975; 1329,353; 8,17511
1060,23;  217,840;  126,875; 1383,752; 7,23738
1060,77;  205,740;   97,375; 1317,052; 8,88473
1061,32;  214,240;  108,575; 1320,652; 8,71768
1061,86;  194,740;  111,175; 1289,752; 7,09033
1062,41;  191,040;   93,975; 1242,953; 8,44795
1062,95;  192,040;  109,575; 1230,853; 7,35456
1063,50;  208,840;  111,075; 1230,052; 8,73699
1064,04;  175,240;   90,475; 1197,453; 7,65734
1064,59;  186,640;  114,775; 1210,052; 6,56135
1065,13;  189,240;  103,475; 1170,552; 8,03737
1065,68;  186,440;  107,275; 1161,353; 7,51036
1066,22;  201,440;  115,875; 1166,453; 8,14457
1066,76;  208,840;  130,175; 1145,252; 7,74965
1067,31;  171,740;   99,875; 1110,552; 7,11058
1067,85;  182,140;  100,975; 1090,252; 8,20447
1068,40;  185,240;  110,275; 1095,353; 7,61006
1068,94;  176,140;   99,175; 1079,353; 7,85215
1069,49;  166,340;   98,175; 1041,652; 7,22487
1070,03;  175,840;  111,175; 1034,353; 7,00461
1070,57;  171,040;   88,775; 1012,852; 8,90239
1071,12;  151,640;   75,875;  987,153; 8,31415
1071,66;  202,740;  131,775; 1039,953; 7,81400
1072,21;  181,740;  112,475; 1011,352; 7,70572
1072,75;  171,740;  104,475;  978,552; 7,69554
1073,29;  146,740;   77,075;  942,453; 8,05024
1073,84;  167,840;   95,975;  941,153; 8,50295
1074,38;  163,240;   93,875;  928,253; 8,31338
1074,92;  172,940;  107,275;  940,153; 7,88411
1075,47;  176,240;  112,775;  938,852; 7,68269
1076,01;  185,140;  121,775;  926,253; 7,87654
1076,56;  161,540;   97,275;  891,953; 8,08693
1077,10;  151,740;   86,075;  865,253; 8,42748
1077,64;  157,540;   97,875;  884,453; 7,58539
1078,19;  180,940;  123,175;  887,753; 7,55515
1078,73;  173,940;   98,775;  853,852; 9,95461
1079,27;  184,440;  121,075;  875,552; 8,39853
1079,81;  182,640;  121,375;  860,953; 8,28378
1080,36;  156,940;  105,975;  836,052; 6,98077
1080,90;  151,940;   96,375;  819,753; 7,68133
1081,44;  143,940;   82,475;  789,552; 8,69282
1081,99;  140,140;   70,375;  771,753; 9,94685
1082,53;  171,640;  113,075;  798,653; 8,54243
1083,07;  170,840;  104,175;  791,453; 9,69987
1083,62;  166,640;  101,275;  772,552; 9,73740
1084,16;  162,240;   98,975;  782,453; 9,25634
1084,70;  170,040;  107,475;  767,153; 9,48418
1085,24;  163,140;  108,775;  750,653; 8,46968
1085,79;  147,440;  109,175;  747,552; 5,99410
1086,33;  147,440;   99,075;  711,453; 7,89791
1086,87;  165,740;  102,075;  714,852;10,38958
1087,41;  154,140;   84,475;  686,852;11,56501
1087,96;  166,640;  124,575;  732,552; 6,91884
1088,50;  148,940;  112,075;  696,953; 6,30303
1089,04;  165,640;  121,775;  715,153; 7,39243
1089,58;  138,140;   82,375;  655,953; 9,72231
1090,13;  148,340;  102,975;  653,153; 8,24552
1090,67;  165,540;  101,775;  678,753;11,05156
1091,21;  138,840;   92,075;  651,852; 8,35421
1091,75;  147,440;  106,875;  647,153; 7,50818
1092,29;  162,940;  105,875;  642,552;10,63302
1092,84;  136,040;  105,975;  628,352; 5,75542
1093,38;  170,240;  128,175;  662,753; 7,86883
1093,92;  164,540;  113,475;  640,052; 9,69753
1094,46;  169,040;  128,175;  638,852; 8,00211
1095,00;  137,640;   93,975;  602,052; 8,59416
1095,54;  135,040;   89,975;  591,352; 8,98824
1096,09;  145,340;  114,975;  597,352; 6,29486
1096,63;  164,540;  117,175;  598,453; 9,84151
1097,17;  142,240;  102,575;  573,052; 8,43080
1097,71;  161,540;  122,875;  582,453; 8,41316
1098,25;  138,140;  103,275;  553,653; 7,74128
1098,79;  163,540;  104,775;  568,753;12,66548
1099,33;  157,240;  111,975;  572,052; 9,83856
1099,88;  160,140;  110,775;  562,253;10,93410
1100,42;  120,340;   83,275;  521,253; 8,46276

