0151 ELITRO
Integration time [ms]:   8,000
Averaging Nr. [scans]: 10
Smoothing Nr. [pixels]: 0
Data measured with spectrometer [name]: 7314920SP
Wave   ;Sample   ;Dark     ;Reference;Reflectance
[nm]   ;[counts] ;[counts] ;[counts] ;[%]

 199,42;   97,751;   63,873;  150,055;39,30966
 200,02;  117,467;   92,669;  145,732;46,73313
 200,62;   71,092;   67,563;   88,793;16,62221
 201,22;  101,377;   86,969;  138,011;28,22835
 201,82;   89,882;   66,174;  141,790;31,35266
 202,42;  119,597;  101,668;  154,973;33,63388
 203,03;   63,746;   60,168;   91,775;11,32123
 203,63;   82,866;   69,967;  109,037;33,01360
 204,23;   92,829;   70,671;  129,903;37,40880
 204,83;   84,625;   74,567;  123,718;20,46424
 205,43;   75,551;   56,673;  123,555;28,22555
 206,03;   61,555;   50,167;   90,459;28,26486
 206,63;   73,533;   68,865;  100,007;14,99154
 207,24;  103,743;   74,675;  162,566;33,07227
 207,84;   50,585;   39,967;   83,699;24,28046
 208,44;   64,477;   50,669;   95,011;31,14052
 209,04;   58,103;   47,365;   85,066;28,48340
 209,64;   93,430;   69,972;  127,998;40,42671
 210,24;   69,025;   45,367;   97,218;45,62751
 210,84;   62,947;   51,469;  101,970;22,72865
 211,44;   92,128;   86,470;  122,908;15,52791
 212,05;   66,403;   60,865;   99,266;14,42308
 212,65;   79,746;   66,368;  112,975;28,70433
 213,25;  100,197;   93,768;  142,073;13,30788
 213,85;   92,484;   84,465;  114,904;26,34327
 214,45;   61,625;   53,367;  100,418;17,55200
 215,05;   52,547;   39,369;  100,070;21,71001
 215,65;   65,917;   55,169;  105,630;21,30023
 216,25;   60,225;   40,267;   82,518;47,23750
 216,85;   47,107;   34,069;   89,651;23,45752
 217,45;   71,946;   49,068;   97,375;47,35992
 218,05;   72,538;   58,270;  112,886;26,12413
 218,66;   41,137;   28,769;   75,692;26,35864
 219,26;   33,866;   26,567;   79,337;13,83060
 219,86;   46,689;   36,771;   81,584;22,13185
 220,46;   78,168;   54,270;  104,127;47,93318
 221,06;   82,029;   51,871;  115,903;47,09830
 221,66;   64,239;   43,471;  103,481;34,60742
 222,26;   67,130;   39,772;  102,398;43,68477
 222,86;   73,756;   67,268;  118,954;12,55342
 223,46;   62,025;   51,767;   88,918;27,61262
 224,06;   79,659;   64,971;  120,343;26,52572
 224,66;   73,278;   57,570;  105,805;32,56554
 225,26;   72,058;   48,169;  113,748;36,42649
 225,86;   71,940;   42,173;  112,376;42,40206
 226,46;   72,827;   49,968;  102,913;43,17378
 227,06;   56,178;   27,670;   87,705;47,48557
 227,66;   62,014;   37,665;   74,845;65,48922
 228,27;   53,168;   29,270;   96,227;35,69165
 228,87;  111,508;   89,170;  143,046;41,46214
 229,47;   58,100;   29,172;   92,357;45,78279
 230,07;   19,058;   11,169;   59,648;16,27124
 230,67;   51,807;   38,169;   84,651;29,34071
 231,27;   41,868;   27,670;   76,327;29,17989
 231,87;   59,907;   43,169;  100,751;29,06837
 232,47;   88,103;   43,775;  132,047;50,21692
 233,07;   63,763;   42,965;   75,547;63,83338
 233,67;   61,246;   53,768;   94,275;18,46168
 234,27;   32,155;    0,567;   53,259;59,94936
 234,87;   52,189;   34,771;  106,084;24,42464
 235,47;   36,458;   16,169;   74,148;34,99220
 236,07;   51,064;   30,266;   72,042;49,78543
 236,67;   60,045;   49,966;   85,180;28,62086
 237,27;   63,491;   28,873;  109,074;43,16400
 237,87;   48,778;   25,370;   99,805;31,44756
 238,47;   29,767;   14,269;   68,032;28,82670
 239,07;   46,460;   33,272;   95,738;21,11196
 239,67;   77,214;   43,477;  131,421;38,36238
 240,27;   61,940;   46,773;  119,176;20,94891
 240,87;   65,661;   50,773;  119,533;21,65173
 241,47;   46,172;   39,164;   76,131;18,95951
 242,07;   46,986;   39,968;   92,894;13,26058
 242,67;   30,821;  -11,027;   77,914;47,05107
 243,27;   21,125;    7,767;   46,418;34,56145
 243,87;   63,059;   48,671;  108,343;24,11154
 244,47;   59,229;   22,371;   99,703;47,66202
 245,07;   18,747;    2,669;   55,770;30,27852
 245,67;   51,646;   31,068;   85,575;37,75331
 246,27;   52,333;   34,965;   69,007;51,02111
 246,87;   35,956;   26,668;   63,154;25,45753
 247,46;   16,592;   19,663;   23,793;-74,36307
 248,06;   41,038;   20,470;   69,786;41,70631
 248,66;   49,130;   31,072;  105,898;24,13322
 249,26;   43,464;   32,366;   70,742;28,92027
 249,86;   56,340;   42,873;  102,176;22,70987
 250,46;   30,973;   16,775;   93,507;18,50283
 251,06;   30,446;   22,168;   65,375;19,15955
 251,66;   25,119;   20,771;   64,724; 9,89222
 252,26;   40,405;   38,866;   70,261; 4,90053
 252,86;   37,347;   35,969;   89,070; 2,59540
 253,46;    1,825;   -8,033;   22,118;32,69660
 254,06;   28,894;   31,766;   79,483;-6,01760
 254,66;   49,751;   34,973;  100,155;22,67159
 255,26;   66,011;   39,073;  118,836;33,77226
 255,86;   41,172;   37,464;   55,631;20,41480
 256,46;   35,428;   19,870;   70,208;30,90708
 257,05;   43,248;   23,570;   59,565;54,66951
 257,65;   67,989;   38,071;   97,684;50,18684
 258,25;   65,600;   37,372;  101,457;44,04752
 258,85;   42,547;   15,669;   51,770;74,45283
 259,45;   17,207;    6,869;   42,951;28,65182
 260,05;   44,525;   46,667;   85,818;-5,47000
 260,65;   44,205;   45,066;   83,561;-2,23788
 261,25;   50,959;   29,371;   85,943;38,15979
 261,85;   25,469;   -0,129;   47,622;53,60750
 262,45;   65,747;   46,169;  109,270;31,02677
 263,04;   69,081;   53,073;  116,295;25,31976
 263,64;   45,336;   33,767;   77,097;26,69875
 264,24;   71,999;   37,671;   89,062;66,79719
 264,84;   86,442;   58,974;  138,671;34,46498
 265,44;   35,176;   26,368;   67,716;21,30297
 266,04;   46,254;   48,865;   71,464;-11,55571
 266,64;   52,745;   39,866;   86,780;27,45140
 267,24;   46,045;   40,166;   68,980;20,40166
 267,84;   43,897;   24,668;   76,573;37,04570
 268,43;   72,016;   48,368;   95,935;49,71609
 269,03;   58,337;   46,969;   87,892;27,77965
 269,63;   71,835;   58,566;   92,402;39,21456
 270,23;   23,414;   10,765;   39,045;44,72706
 270,83;   61,105;   55,266;   83,161;20,93030
 271,43;   25,206;   23,967;   58,856; 3,54949
 272,03;   64,376;   64,168;   99,116; 0,59617
 272,62;   41,217;   23,269;   68,730;39,48096
 273,22;   33,508;   11,970;   61,046;43,88733
 273,82;   22,990;   17,460;   26,403;61,82871
 274,42;   27,243;   25,164;   46,890; 9,56798
 275,02;   34,193;   34,864;   60,388;-2,63000
 275,62;   71,100;   31,972;  100,457;57,13349
 276,21;   43,898;   22,770;   69,267;45,43900
 276,81;   54,985;   46,767;   71,099;33,77563
 277,41;   45,409;   22,971;   96,341;30,58211
 278,01;   27,693;   21,364;   42,788;29,54110
 278,61;   59,777;   38,869;   83,811;46,52304
 279,20;   78,840;   65,473;  119,076;24,93819
 279,80;    0,921;    6,762;   11,539;-122,27260
 280,40;   45,564;   36,866;   79,742;20,28752
 281,00;   10,777;   -4,331;   33,311;40,13698
 281,60;   47,372;   20,774;   74,812;49,22041
 282,20;   48,128;   36,670;   70,108;34,26637
 282,79;   33,116;   29,568;   70,135; 8,74688
 283,39;   26,535;   17,466;   44,702;33,29647
 283,99;   21,463;   23,165;   34,347;-15,21341
 284,59;   21,887;   16,869;   45,289;17,65733
 285,19;   33,655;   27,067;   57,759;21,46642
 285,78;   42,928;   23,270;   63,808;48,49261
 286,38;   41,133;   39,665;   59,207; 7,51552
 286,98;   46,516;   35,168;   73,535;29,57855
 287,58;   18,029;    4,771;   61,403;23,41076
 288,17;   32,811;    8,973;   80,336;33,40354
 288,77;   56,723;   19,976;   92,504;50,66638
 289,37;   15,447;   11,269;   57,670; 9,00452
 289,97;   40,563;   48,965;   66,647;-47,51104
 290,57;   54,750;   46,672;   93,260;17,33893
 291,16;   74,376;   63,868;  102,616;27,11971
 291,76;   25,108;    5,570;   47,346;46,76883
 292,36;   40,966;   34,367;   58,137;27,75942
 292,96;   19,670;   -3,127;   60,117;36,04721
 293,55;   39,085;   24,267;   65,399;36,02614
 294,15;   43,398;   26,870;   62,567;46,30015
 294,75;   44,433;   42,065;   66,207; 9,81145
 295,35;   21,376;   21,068;   52,016; 0,99636
 295,94;   43,515;   42,967;   66,740; 2,30714
 296,54;   35,827;   30,768;   70,613;12,69494
 297,14;   47,739;   29,971;   76,881;37,87660
 297,73;   28,244;   12,165;   40,085;57,58777
 298,33;   42,694;   28,066;   57,583;49,55976
 298,93;   45,256;   41,968;   82,554; 8,10215
 299,53;   35,190;   24,872;   69,079;23,33995
 300,12;   22,839;  -12,229;   59,481;48,90240
 300,72;   54,636;   41,567;   91,197;26,33199
 301,32;   60,989;   25,771;   99,584;47,71231
 301,92;   14,013;    3,664;   33,050;35,21669
 302,51;   38,895;   11,567;   49,978;71,14810
 303,11;   28,055;   14,667;   48,759;39,27165
 303,71;   38,467;   21,369;   82,132;28,13900
 304,30;   11,424;    5,466;   38,423;18,07952
 304,90;   20,394;   19,666;   44,283; 2,95965
 305,50;   33,514;   18,565;   64,345;32,65348
 306,09;   23,964;   15,466;   49,042;25,31111
 306,69;   52,999;   34,171;   90,262;33,56661
 307,29;   20,819;   18,760;   33,144;14,31657
 307,88;   61,187;   43,269;   72,489;61,32222
 308,48;   25,168;    0,070;   49,727;50,54281
 309,08;   11,652;   -4,437;   11,774;99,24575
 309,68;   29,944;   22,365;   39,585;44,01011
 310,27;   29,617;   20,169;   49,830;31,85458
 310,87;   41,827;   23,468;   54,813;58,56879
 311,47;   51,225;   54,967;   92,918;-9,85889
 312,06;   50,374;   47,865;   68,426;12,20114
 312,66;   60,076;   51,168;  100,016;18,23688
 313,26;   59,919;   48,571;   96,224;23,81342
 313,85;   41,755;   38,267;   65,959;12,59737
 314,45;   50,177;   42,969;   86,611;16,51681
 315,04;   61,074;   52,165;   81,826;30,03505
 315,64;   26,036;   21,267;   47,897;17,90652
 316,24;   44,268;   40,770;   85,627; 7,79830
 316,83;   57,664;   40,366;   76,742;47,55435
 317,43;   38,606;   35,167;   68,156;10,42288
 318,03;   54,832;   39,063;   70,012;50,95173
 318,62;   82,080;   73,061;   94,820;41,45133
 319,22;   40,997;    7,668;   66,973;56,19885
 319,82;   58,776;   40,768;   93,516;34,14033
 320,41;   69,767;   59,069;   98,732;26,97249
 321,01;  100,114;   80,465;  115,945;55,38009
 321,60;   75,743;   81,164;  102,790;-25,06717
 322,20;   96,551;   67,673;  132,855;44,30345
 322,80;   76,636;   54,567;   91,797;59,27692
 323,39;   59,023;   65,764;   94,828;-23,19444
 323,99;   73,905;   61,766;  102,661;29,68210
 324,59;   73,232;   73,063;   97,512; 0,69062
 325,18;   65,295;   40,967;   92,178;47,50660
 325,78;   89,644;   76,365;  108,885;40,83195
 326,37;   83,046;   74,868;  108,075;24,62806
 326,97;   77,436;   63,267;  111,497;29,37712
 327,57;   48,392;   42,263;   76,493;17,90505
 328,16;   65,972;   60,864;   93,631;15,59121
 328,76;   89,415;   50,467;  110,140;65,26966
 329,35;   90,389;   56,871;  137,484;41,57878
 329,95;   60,128;   27,470;   91,308;51,15750
 330,54;   75,925;   52,167;   94,018;56,76876
 331,14;   54,285;   26,967;   82,599;49,10520
 331,74;   66,914;   54,165;   96,145;30,36864
 332,33;   62,468;   35,370;  108,127;37,24460
 332,93;   57,113;   43,764;   79,250;37,61703
 333,52;   67,835;   42,466;   93,102;50,10006
 334,12;   86,337;   72,069;  140,392;20,88353
 334,71;   53,864;   50,666;   87,942; 8,58064
 335,31;   83,955;   63,267;  119,859;36,55727
 335,90;   35,971;   32,362;   53,836;16,80646
 336,50;   37,633;   30,665;   77,207;14,97286
 337,10;   65,017;   38,769;  121,530;31,71589
 337,69;   60,533;   51,765;   93,707;20,90664
 338,29;   56,766;   30,467;  101,037;37,26572
 338,88;   47,956;   22,468;   99,854;32,93680
 339,48;   60,001;   57,862;  111,677; 3,97476
 340,07;   65,475;   48,566;  107,321;28,77826
 340,67;   57,389;   31,171;  124,784;28,00672
 341,26;   62,164;   48,466;   98,942;27,13854
 341,86;   89,158;   61,469;  138,348;36,01520
 342,45;   80,087;   45,669;  142,689;35,47543
 343,05;   74,887;   27,269;  115,689;53,85470
 343,64;   65,445;   47,366;  122,480;24,06814
 344,24;   50,633;   28,765;   92,107;34,52470
 344,83;   83,663;   71,365;  121,747;24,41053
 345,43;   54,215;   29,667;  114,240;29,02632
 346,02;   60,707;   41,469;  124,351;23,21151
 346,62;   77,419;   40,971;  140,424;36,64816
 347,21;   75,144;   42,165;  131,985;36,71628
 347,81;   54,050;   26,172;  140,560;24,37131
 348,40;   46,372;   29,064;  100,731;24,15162
 349,00;   57,932;   49,163;  137,712; 9,90286
 349,59;   98,108;   65,870;  177,846;28,79020
 350,19;   61,119;   32,571;  139,424;26,71687
 350,78;   77,055;   55,467;  140,759;25,31126
 351,38;   48,807;   15,869;  140,951;26,33325
 351,97;   48,715;   26,767;  136,040;20,08588
 352,57;   60,568;   42,570;  155,827;15,89136
 353,16;   51,223;   30,564;  134,328;19,90934
 353,76;   67,208;   38,770;  169,846;21,69589
 354,35;   48,158;   27,669;  160,148;15,46519
 354,95;   79,098;   43,970;  182,067;25,43714
 355,54;   69,597;   38,368;  163,973;24,86244
 356,14;   63,258;   40,069;  164,749;18,59827
 356,73;   47,601;   29,162;  145,176;15,89371
 357,32;   47,667;   13,769;  164,432;22,49931
 357,92;   55,920;   17,772;  181,419;23,31100
 358,51;   88,190;   43,372;  214,179;26,23891
 359,11;   68,250;   36,772;  212,360;17,92711
 359,70;   53,248;   28,470;  189,965;15,34295
 360,30;   73,921;   54,562;  188,039;14,50367
 360,89;   57,856;   31,168;  188,054;17,01133
 361,48;   88,498;   55,570;  216,467;20,46524
 362,08;   51,406;   19,867;  187,156;18,85266
 362,67;   66,292;   39,763;  192,693;17,34709
 363,27;   97,995;   60,767;  247,678;19,91777
 363,86;   70,614;   35,765;  215,745;19,36255
 364,46;   94,272;   44,664;  257,231;23,33793
 365,05;  101,848;   64,659;  254,989;19,53937
 365,64;   99,739;   50,960;  269,706;22,29951
 366,24;  105,727;   38,558;  309,432;24,79728
 366,83;  116,255;   43,255;  335,383;24,98899
 367,43;  126,186;   51,545;  352,843;24,77315
 368,02;  146,627;   34,646;  399,757;30,67041
 368,61;  178,201;   62,239;  475,425;28,06523
 369,21;  150,233;   32,419;  445,299;28,53470
 369,80;  178,172;   43,007;  526,947;27,93016
 370,39;  219,711;   62,006;  604,971;29,04520
 370,99;  211,206;   42,089;  615,416;29,49754
 371,58;  224,353;   22,974;  630,953;33,12270
 372,18;  273,786;   37,166;  701,603;35,61214
 372,77;  255,161;   42,449;  679,385;33,39615
 373,36;  269,589;   42,747;  690,836;35,00171
 373,96;  252,869;   35,135;  639,498;36,02698
 374,55;  232,457;   29,844;  621,406;34,25048
 375,14;  220,791;   42,849;  573,826;33,51223
 375,74;  232,558;   69,157;  543,276;34,46415
 376,33;  180,545;   45,964;  464,589;32,14822
 376,92;  146,527;   33,278;  447,997;27,30731
 377,52;  240,219;   86,103;  548,460;33,33266
 378,11;  181,098;   46,703;  457,203;32,73951
 378,71;  208,256;   73,011;  514,270;30,64978
 379,30;  201,271;   59,517;  553,928;28,67132
 379,89;  215,338;   59,813;  556,103;31,33747
 380,49;  213,592;   31,018;  568,185;33,98832
 381,08;  253,451;   70,306;  570,990;36,57902
 381,67;  232,603;   55,008;  555,483;35,48535
 382,26;  206,951;   41,706;  539,390;33,20286
 382,86;  215,879;   54,003;  516,041;35,03517
 383,45;  236,787;   50,412;  562,105;36,42316
 384,04;  229,247;   38,712;  553,886;36,98453
 384,64;  230,958;   49,014;  566,760;35,14167
 385,23;  251,092;   64,406;  560,509;37,63036
 385,82;  258,200;   59,615;  592,774;37,24681
 386,42;  292,517;   61,024;  659,022;38,71142
 387,01;  265,518;   55,414;  580,541;40,01023
 387,60;  274,224;   69,009;  590,140;39,37881
 388,20;  248,287;   37,712;  590,805;38,07221
 388,79;  333,702;   72,418;  665,563;44,05060
 389,38;  279,351;   32,106;  564,890;46,40629
 389,97;  294,160;   45,415;  640,955;41,76791
 390,57;  326,069;   71,114;  654,038;43,73718
 391,16;  329,969;   62,514;  655,838;45,07732
 391,75;  317,508;   52,713;  638,562;45,19844
 392,34;  365,935;   60,821;  696,694;47,98344
 392,94;  349,142;   44,718;  689,683;47,20015
 393,53;  357,280;   41,016;  666,612;50,55412
 394,12;  391,427;   53,023;  719,105;50,80507
 394,72;  384,178;   54,213;  706,122;50,61518
 395,31;  408,500;   42,115;  694,874;56,12866
 395,90;  409,087;   42,924;  732,881;53,07046
 396,49;  469,681;   58,028;  779,187;57,08208
 397,09;  446,541;   47,417;  749,188;56,87389
 397,68;  477,468;   44,025;  800,719;57,28116
 398,27;  499,650;   54,626;  809,652;58,94147
 398,86;  489,948;   43,125;  807,657;58,44403
 399,45;  541,253;   56,630;  844,037;61,54672
 400,05;  507,974;   23,820;  799,518;62,41524
 400,64;  536,783;   56,419;  831,001;62,01585
 401,23;  557,954;   53,920;  859,956;62,53245
 401,82;  591,954;   67,220;  868,256;65,50692
 402,42;  606,705;   62,921;  873,953;67,04833
 403,01;  638,268;   81,525;  912,919;66,96500
 403,60;  656,914;   68,532;  940,513;67,47653
 404,19;  680,528;   76,024;  931,900;70,62980
 404,78;  662,066;   57,522;  909,929;70,92192
 405,38;  707,165;   68,332;  984,210;69,75083
 405,97;  680,709;   63,226;  953,933;69,32508
 406,56;  738,991;   71,528; 1004,366;71,55188
 407,15;  728,952;   68,829;  989,442;71,70474
 407,74;  774,643;   80,730; 1026,758;73,35011
 408,34;  742,705;   50,933; 1018,629;71,48650
 408,93;  786,204;   59,531; 1016,234;75,95592
 409,52;  776,137;   51,435; 1041,359;73,20783
 410,11;  842,844;   84,931; 1090,453;75,37506
 410,70;  814,360;   54,727; 1027,230;78,11109
 411,29;  819,351;   58,628; 1030,847;78,24605
 411,89;  866,148;   60,535; 1093,938;77,95726
 412,48;  855,121;   48,228; 1051,606;80,41761
 413,07;  895,796;   65,033; 1101,446;80,15753
 413,66;  894,607;   78,135; 1102,119;79,73487
 414,25;  926,559;   63,337; 1142,311;80,00395
 414,84;  924,804;   69,431; 1102,434;82,80446
 415,44;  943,203;   91,530; 1155,939;80,01365
 416,03;  961,179;   76,637; 1161,173;81,55944
 416,62;  963,820;   76,138; 1168,687;81,24870
 417,21;  962,446;   75,334; 1158,843;81,87401
 417,80;  983,729;   65,037; 1162,871;83,68227
 418,39; 1000,161;   78,440; 1179,201;83,73493
 418,98;  984,766;   55,634; 1143,405;85,41613
 419,58;  983,985;   64,033; 1142,067;85,33612
 420,17;  984,197;   52,735; 1164,540;83,77923
 420,76; 1039,479;   72,537; 1192,873;86,30817
 421,35; 1016,618;   60,236; 1155,197;87,34388
 421,94; 1066,661;   88,340; 1223,501;86,18350
 422,53; 1041,702;   61,540; 1195,320;86,45078
 423,12; 1041,130;   64,039; 1190,766;86,71948
 423,71; 1031,748;   60,835; 1162,138;88,16036
 424,30; 1073,168;   85,236; 1210,695;87,78039
 424,90; 1008,210;   39,438; 1163,809;86,16124
 425,49; 1086,591;   70,140; 1216,242;88,68772
 426,08; 1081,291;   80,240; 1209,641;88,63556
 426,67; 1045,688;   57,436; 1168,257;88,96590
 427,26; 1075,264;   60,343; 1230,391;86,74182
 427,85; 1083,880;   63,238; 1209,968;89,00453
 428,44; 1080,113;   68,442; 1218,093;87,99808
 429,03; 1097,333;   85,341; 1233,155;88,16684
 429,62; 1080,063;   78,941; 1240,296;86,20290
 430,21; 1117,355;   81,443; 1277,807;86,58831
 430,80; 1092,666;   70,445; 1235,381;87,74915
 431,39; 1108,595;   53,344; 1246,926;88,41040
 431,99; 1088,147;   78,535; 1206,838;89,48063
 432,58; 1130,130;   82,639; 1251,166;89,64206
 433,17; 1081,307;   69,735; 1238,319;86,56394
 433,76; 1135,348;   71,347; 1288,314;87,43057
 434,35; 1166,026;   88,245; 1292,462;89,50059
 434,94; 1156,959;   70,849; 1318,887;87,02543
 435,53; 1139,274;   78,643; 1278,669;88,38399
 436,12; 1128,325;   70,044; 1294,267;86,44512
 436,71; 1154,542;   87,740; 1303,239;87,76657
 437,30; 1164,122;   76,941; 1299,177;88,95021
 437,89; 1171,156;   76,245; 1320,802;87,97594
 438,48; 1159,794;   65,942; 1305,731;88,22883
 439,07; 1190,390;   95,238; 1347,147;87,47860
 439,66; 1193,398;   83,648; 1375,711;85,88982
 440,25; 1183,025;   85,844; 1390,567;84,09302
 440,84; 1184,210;   79,850; 1387,984;84,42252
 441,43; 1218,904;   78,054; 1440,985;83,70562
 442,02; 1181,690;   79,650; 1411,022;82,77477
 442,61; 1202,595;   93,344; 1397,226;85,07293
 443,20; 1218,640;   94,249; 1446,625;83,14189
 443,79; 1211,527;   74,546; 1412,957;84,95010
 444,38; 1218,409;   84,248; 1461,789;82,33224
 444,97; 1239,677;   84,146; 1466,359;83,60003
 445,56; 1250,787;  101,846; 1477,038;83,54769
 446,15; 1265,481;   81,651; 1522,539;82,15978
 446,74; 1236,465;   58,644; 1462,286;83,91179
 447,33; 1272,227;   82,646; 1538,357;81,71824
 447,92; 1284,841;   78,151; 1570,720;80,84654
 448,51; 1329,447;   89,746; 1586,019;82,85259
 449,10; 1337,136;   92,045; 1608,840;82,08697
 449,69; 1359,731;   73,950; 1627,741;82,75118
 450,28; 1367,428;   66,948; 1608,251;84,37536
 450,87; 1413,388;   78,647; 1656,333;84,60121
 451,46; 1445,749;   96,048; 1702,208;84,03276
 452,05; 1462,310;   70,950; 1715,384;84,61025
 452,64; 1534,361;   70,850; 1725,182;88,46535
 453,23; 1569,232;  113,752; 1794,936;86,57468
 453,82; 1596,271;   83,451; 1800,660;88,09759
 454,40; 1615,861;   65,450; 1786,682;90,07564
 454,99; 1684,703;  101,253; 1871,891;89,42824
 455,58; 1697,708;   69,747; 1832,095;92,37455
 456,17; 1751,582;   63,852; 1873,634;93,25602
 456,76; 1773,941;   67,751; 1918,820;92,17324
 457,35; 1848,509;   78,348; 1930,490;95,57373
 457,94; 1861,284;   66,954; 1978,929;93,84694
 458,53; 1894,201;   67,350; 2010,101;94,03423
 459,12; 2020,637;   82,657; 2111,116;95,53950
 459,71; 1992,969;   58,148; 2060,071;96,64812
 460,30; 2060,499;   84,448; 2087,511;98,65144
 460,89; 2065,841;   57,551; 2129,920;96,90795
 461,48; 2162,484;   75,954; 2173,829;99,45922
 462,06; 2170,250;   68,050; 2187,303;99,19532
 462,65; 2167,789;   48,249; 2176,527;99,58943
 463,24; 2255,605;   87,456; 2288,680;98,49743
 463,83; 2267,450;   54,450; 2229,803;101,73060
 464,42; 2328,559;   88,349; 2333,687;99,77163
 465,01; 2345,960;   73,050; 2336,482;100,41877
 465,60; 2374,890;   64,050; 2384,322;99,59350
 466,19; 2437,884;   73,354; 2462,829;98,95604
 466,77; 2454,281;   81,551; 2462,939;99,63645
 467,36; 2430,467;   69,457; 2459,256;98,79530
 467,95; 2497,851;   79,551; 2466,098;101,33050
 468,54; 2516,164;   71,954; 2513,866;100,09409
 469,13; 2545,162;   69,452; 2535,977;100,37239
 469,72; 2574,885;   67,555; 2582,723;99,68835
 470,31; 2611,825;   87,855; 2629,242;99,31465
 470,90; 2610,380;   76,750; 2652,044;98,38217
 471,48; 2593,707;   32,057; 2671,875;97,03887
 472,07; 2687,078;  125,747; 2686,454;100,02435
 472,66; 2698,893;   67,853; 2748,412;98,15265
 473,25; 2680,981;   68,351; 2723,339;98,40460
 473,84; 2681,474;   55,955; 2766,545;96,86155
 474,43; 2721,918;   55,459; 2843,049;95,65465
 475,01; 2743,334;   69,254; 2885,926;94,93758
 475,60; 2718,715;   49,755; 2882,364;94,22266
 476,19; 2735,127;   74,158; 2956,932;92,30585
 476,78; 2740,167;   71,057; 2964,456;92,24823
 477,37; 2727,815;   59,355; 2945,364;92,46193
 477,95; 2787,965;   75,656; 3018,661;92,16121
 478,54; 2762,103;   63,253; 3023,691;91,16389
 479,13; 2741,403;   56,253; 3070,291;89,08814
 479,72; 2775,724;   81,154; 3090,147;89,55054
 480,31; 2800,358;   63,459; 3167,468;88,17306
 480,89; 2760,534;   60,254; 3171,026;86,80418
 481,48; 2784,249;   46,260; 3214,084;86,43122
 482,07; 2807,064;   61,654; 3233,866;86,54560
 482,66; 2773,073;   52,853; 3253,650;84,98571
 483,25; 2852,749;   78,960; 3319,884;85,58637
 483,83; 2842,304;   59,954; 3325,385;85,20621
 484,42; 2864,584;   54,354; 3355,129;85,13849
 485,01; 2887,387;   65,958; 3400,413;84,61440
 485,60; 2942,843;   73,764; 3490,590;83,96911
 486,18; 2944,765;   66,956; 3490,761;84,05295
 486,77; 2935,632;   67,252; 3519,736;83,08162
 487,36; 3010,413;   58,464; 3561,750;84,26228
 487,95; 3048,800;   59,161; 3640,781;83,47168
 488,53; 3085,830;   54,461; 3642,522;84,48487
 489,12; 3084,362;   50,563; 3722,252;82,62679
 489,71; 3080,061;   38,062; 3680,357;83,51873
 490,30; 3142,689;   61,460; 3742,503;83,70533
 490,88; 3161,170;   87,561; 3859,141;81,49393
 491,47; 3209,032;   60,663; 3867,512;82,70276
 492,06; 3224,082;   62,563; 3920,615;81,94599
 492,65; 3246,010;   59,161; 3947,060;81,96841
 493,23; 3288,279;   54,860; 3982,825;82,31793
 493,82; 3295,833;   65,853; 4018,031;81,72658
 494,41; 3263,250;   51,361; 4066,179;80,00087
 494,99; 3315,474;   73,655; 4126,945;79,97996
 495,58; 3359,090;   86,060; 4224,403;79,09033
 496,17; 3302,506;   56,356; 4198,681;78,36541
 496,76; 3334,165;   65,356; 4276,761;77,61802
 497,34; 3319,877;   54,557; 4305,235;76,81880
 497,93; 3309,607;   66,057; 4350,675;75,70218
 498,52; 3332,599;   60,059; 4454,387;74,47190
 499,10; 3305,031;   75,862; 4533,217;72,44586
 499,69; 3292,639;   55,360; 4537,006;72,23415
 500,28; 3271,458;   37,959; 4592,068;71,00180
 500,86; 3232,321;   62,862; 4698,539;68,37101
 501,45; 3200,521;   53,462; 4730,438;67,28832
 502,04; 3188,661;   53,362; 4813,958;65,85939
 502,62; 3184,105;   70,956; 4856,181;65,05754
 503,21; 3134,546;   57,856; 4939,699;63,02311
 503,80; 3142,701;   69,662; 5015,577;62,13288
 504,38; 3093,579;   58,460; 5081,425;60,42485
 504,97; 3092,101;   49,962; 5122,776;59,96945
 505,56; 3059,648;   70,859; 5194,989;58,32774
 506,14; 3083,283;   64,064; 5263,709;58,06586
 506,73; 3006,433;   23,565; 5292,507;56,61229
 507,32; 3016,614;   62,865; 5376,045;55,59286
 507,90; 2993,649;   70,860; 5443,284;54,40355
 508,49; 2974,503;   58,865; 5500,366;53,58151
 509,08; 2978,472;   67,264; 5571,931;52,88619
 509,66; 2967,719;   69,960; 5677,644;51,67480
 510,25; 2966,740;   63,561; 5737,400;51,16781
 510,83; 2962,233;   45,165; 5855,607;50,20390
 511,42; 2983,927;   61,968; 5895,913;50,08546
 512,01; 3047,323;   59,164; 5980,328;50,46573
 512,59; 3026,601;   46,562; 6041,676;49,70779
 513,18; 3030,950;   59,961; 6114,379;49,07143
 513,77; 3038,996;   42,257; 6171,797;48,89012
 514,35; 3052,812;   37,763; 6190,255;49,00533
 514,94; 3106,031;   58,662; 6323,517;48,64229
 515,52; 3062,865;   48,166; 6358,342;47,77519
 516,11; 3158,863;   80,665; 6474,047;48,14664
 516,69; 3147,529;   41,959; 6446,727;48,48840
 517,28; 3194,757;   83,358; 6541,973;48,17441
 517,87; 3163,717;   45,558; 6604,054;47,54382
 518,45; 3225,298;   74,858; 6626,192;48,08852
 519,04; 3197,008;   54,258; 6707,970;47,23302
 519,62; 3241,582;   55,863; 6774,114;47,41887
 520,21; 3236,735;   24,466; 6828,002;47,21469
 520,79; 3279,846;   52,068; 7000,875;46,45083
 521,38; 3293,660;   52,960; 6995,363;46,67980
 521,97; 3320,556;   43,068; 7141,554;46,17165
 522,55; 3324,678;   67,759; 7195,230;45,69530
 523,14; 3310,948;   26,759; 7180,289;45,91005
 523,72; 3346,130;   77,561; 7383,422;44,73900
 524,31; 3387,033;   71,665; 7406,107;45,20274
 524,89; 3401,276;   48,468; 7526,815;44,83354
 525,48; 3388,245;   21,666; 7603,580;44,40275
 526,06; 3404,823;   56,264; 7633,128;44,19452
 526,65; 3506,578;   72,370; 7803,105;44,42279
 527,23; 3437,841;   46,262; 7840,596;43,51339
 527,82; 3507,896;   37,967; 7905,978;44,10173
 528,41; 3519,775;   67,366; 8041,021;43,29769
 528,99; 3464,104;   66,365; 8108,167;42,25096
 529,58; 3482,871;   42,562; 8168,736;42,33615
 530,16; 3524,851;   49,461; 8315,379;42,04481
 530,75; 3542,653;   73,964; 8417,069;41,57551
 531,33; 3501,745;   45,566; 8440,980;41,16746
 531,92; 3537,020;   48,560; 8567,344;40,95020
 532,50; 3595,498;   87,770; 8706,468;40,69905
 533,09; 3596,684;   65,665; 8807,204;40,39356
 533,67; 3610,938;   63,458; 8952,011;39,91065
 534,26; 3651,309;   65,760; 9007,665;40,09827
 534,84; 3719,910;   68,461; 9127,061;40,30920
 535,42; 3832,353;   61,564; 9205,969;41,23602
 536,01; 3956,982;   79,263; 9330,215;41,91697
 536,59; 4057,635;   43,366; 9482,202;42,52927
 537,18; 4276,439;   77,360; 9568,605;44,24160
 537,76; 4463,180;   56,972; 9764,700;45,38866
 538,35; 4609,086;   59,368; 9892,694;46,26836
 538,93; 4805,423;   72,664; 9941,828;47,95501
 539,52; 4970,878;   57,370;10111,405;48,87101
 540,10; 5152,917;   63,269;10309,029;49,67565
 540,69; 5293,602;   68,763;10444,071;50,35840
 541,27; 5453,331;   58,262;10514,917;51,59460
 541,85; 5584,994;   47,366;10658,783;52,18557
 542,44; 5666,549;   56,460;10765,484;52,38656
 543,02; 5804,817;   80,369;10952,729;52,65138
 543,61; 5923,325;   77,067;11102,218;53,02656
 544,19; 5975,824;   55,066;11264,023;52,82167
 544,78; 6038,005;   62,766;11296,562;53,18985
 545,36; 6172,777;   77,469;11521,011;53,26418
 545,94; 6176,453;   54,564;11563,069;53,19447
 546,53; 6239,239;   52,771;11724,882;53,00214
 547,11; 6347,396;   90,668;11879,873;53,07167
 547,70; 6395,439;   75,860;11954,706;53,20028
 548,28; 6432,903;   47,965;12093,066;53,00859
 548,86; 6512,704;   81,365;12327,767;52,51615
 549,45; 6535,256;   33,768;12364,953;52,72395
 550,03; 6635,166;   76,467;12507,537;52,76053
 550,62; 6692,765;   63,566;12662,842;52,61571
 551,20; 6784,825;   61,467;12808,418;52,74483
 551,78; 6847,212;   61,164;12952,850;52,63895
 552,37; 6921,953;   55,864;13112,469;52,58709
 552,95; 6996,363;   56,765;13214,547;52,74140
 553,54; 7014,633;   49,965;13393,207;52,19622
 554,12; 7066,236;   67,167;13498,797;52,10886
 554,70; 7204,297;   67,568;13736,973;52,20951
 555,29; 7187,144;   61,965;13856,285;51,65299
 555,87; 7269,738;   60,170;13987,786;51,76455
 556,45; 7300,661;   57,162;14154,058;51,38364
 557,04; 7359,685;   43,667;14376,600;51,04341
 557,62; 7424,885;   68,867;14525,499;50,88335
 558,20; 7512,409;   42,671;14799,940;50,61734
 558,79; 7576,246;  100,368;14905,875;50,49390
 559,37; 7589,925;   49,867;15000,418;50,43331
 559,95; 7723,637;   46,669;15169,691;50,76345
 560,54; 7790,427;   71,768;15324,613;50,60471
 561,12; 7768,305;   50,866;15485,562;50,00059
 561,70; 7871,007;   50,369;15679,551;50,03869
 562,29; 7939,386;   61,768;15810,994;50,01908
 562,87; 8025,256;   73,168;16023,953;49,85390
 563,45; 8082,957;   71,068;16194,754;49,69018
 564,04; 8114,841;   54,362;16227,195;49,83962
 564,62; 8187,467;   37,769;16438,332;49,69157
 565,20; 8263,121;   59,962;16715,838;49,25084
 565,78; 8333,773;   70,765;16797,326;49,40052
 566,37; 8475,595;   71,066;17011,283;49,61288
 566,95; 8478,617;   52,969;17124,330;49,35546
 567,53; 8580,461;   67,262;17308,857;49,37594
 568,12; 8669,004;   62,265;17367,766;49,73412
 568,70; 8763,394;   85,264;17565,889;49,64427
 569,28; 8856,007;   61,069;17745,252;49,73336
 569,86; 8906,255;   67,767;17910,758;49,53479
 570,45; 9021,388;   78,569;18124,689;49,55535
 571,03; 8988,391;   53,962;18259,898;49,07426
 571,61; 9194,318;   46,571;18424,824;49,77485
 572,19; 9108,752;   54,263;18395,773;49,36610
 572,78; 9202,346;   70,668;18668,975;49,09951
 573,36; 9355,053;   84,264;18797,668;49,54090
 573,94; 9365,013;   44,064;18892,750;49,45145
 574,52; 9371,259;   54,559;19030,768;49,09674
 575,11; 9476,973;   37,264;19159,830;49,36424
 575,69; 9551,845;   53,566;19268,680;49,43129
 576,27; 9568,900;   47,161;19391,381;49,22266
 576,85; 9638,553;   43,264;19549,668;49,19045
 577,44; 9684,161;   30,262;19814,158;48,79675
 578,02; 9730,699;   32,159;19753,887;49,17693
 578,60; 9784,343;   50,464;20073,791;48,61270
 579,18; 9909,262;   51,963;20160,752;49,01985
 579,76; 9905,123;   40,264;20300,129;48,69163
 580,35;10018,527;   60,170;20436,707;48,87169
 580,93;10074,605;   59,667;20641,557;48,65898
 581,51;10062,598;   24,770;20697,168;48,55667
 582,09;10116,611;   58,663;20755,756;48,59595
 582,67;10182,025;   49,567;20971,318;48,43026
 583,26;10235,326;   28,568;21227,014;48,14862
 583,84;10275,982;   14,164;21413,709;47,95344
 584,42;10358,793;   48,064;21513,287;48,03458
 585,00;10464,545;   81,366;21772,180;47,86901
 585,58;10477,885;   25,167;21912,299;47,75737
 586,17;10514,030;   46,761;21948,521;47,79191
 586,75;10471,835;    6,666;22026,902;47,52523
 587,33;10578,695;   47,767;22191,678;47,55677
 587,91;10602,135;   74,866;22390,201;47,17504
 588,49;10709,061;   63,962;22349,758;47,76629
 589,07;10711,576;   45,468;22403,215;47,70654
 589,65;10634,115;   28,267;22444,439;47,31338
 590,24;10657,591;   42,562;22447,799;47,37745
 590,82;10693,311;   28,261;22484,160;47,49331
 591,40;10719,482;   41,464;22520,209;47,50273
 591,98;10702,028;   45,759;22558,227;47,33497
 592,56;10702,110;   61,161;22699,961;47,00315
 593,14;10749,929;   43,359;22728,928;47,19551
 593,72;10760,733;   29,765;22889,107;46,94347
 594,30;10812,299;   36,759;22797,486;47,34269
 594,89;10725,823;   41,364;22862,428;46,81841
 595,47;10835,630;   38,961;22922,623;47,18069
 596,05;10798,186;   30,267;23003,799;46,87098
 596,63;10814,485;   31,167;23056,199;46,83302
 597,21;10777,364;   36,766;23145,441;46,47864
 597,79;10836,415;   35,467;23166,039;46,69555
 598,37;10854,058;   36,669;23222,748;46,65467
 598,95;10817,135;   50,766;23305,301;46,29793
 599,53;10750,996;   46,757;23207,996;46,21618
 600,11;10805,363;   48,665;23341,947;46,17940
 600,70;10815,032;   57,363;23315,111;46,25413
 601,28;10783,883;   38,564;23424,809;45,94718
 601,86;10663,534;   61,766;23355,102;45,51417
 602,44;10630,110;   23,661;23449,660;45,27640
 603,02;10626,735;   38,656;23576,521;44,98318
 603,60;10530,228;   54,858;23663,232;44,37141
 604,18;10470,222;   69,263;23594,734;44,21148
 604,76;10325,611;   59,263;23642,154;43,53304
 605,34;10051,654;   27,565;23530,764;42,64989
 605,92; 9965,181;   59,561;23453,719;42,34228
 606,50; 9675,190;   17,662;23498,998;41,12853
 607,08; 9422,245;   31,666;23394,881;40,19386
 607,66; 9201,564;   39,266;23561,643;38,95142
 608,24; 8864,755;   46,067;23522,059;37,56471
 608,82; 8530,173;   26,164;23532,031;36,17824
 609,40; 8155,475;   46,466;23471,021;34,61756
 609,98; 7913,023;   18,864;23505,928;33,61067
 610,56; 7644,959;   43,861;23497,662;32,40881
 611,14; 7402,544;   30,765;23481,086;31,43573
 611,72; 7383,604;   42,665;23572,467;31,19847
 612,30; 7330,941;   24,962;23468,496;31,16415
 612,88; 7462,178;   60,659;23517,730;31,55347
 613,46; 7579,391;   21,862;23505,697;32,18183
 614,04; 7866,697;   30,068;23461,873;33,44441
 614,62; 8091,200;   41,561;23489,982;34,32913
 615,20; 8304,376;   52,768;23402,416;35,33933
 615,78; 8489,018;   25,569;23463,430;36,11016
 616,36; 8684,112;   41,364;23400,150;36,99999
 616,94; 8738,664;    7,666;23272,242;37,52915
 617,52; 8894,406;   24,067;23373,656;37,98927
 618,10; 9029,188;   63,559;23336,107;38,52449
 618,68; 8984,194;   17,966;23253,184;38,58896
 619,26; 9019,316;   39,268;23398,834;38,44270
 619,84; 9015,422;   18,963;23277,133;38,68085
 620,42; 8978,833;   31,165;23313,506;38,43114
 621,00; 8922,533;   28,865;23209,607;38,36662
 621,58; 8873,239;   38,760;23216,406;38,11638
 622,16; 8831,148;   49,270;23335,164;37,71330
 622,74; 8753,265;   47,066;23327,742;37,39667
 623,32; 8678,524;   42,166;23291,223;37,14714
 623,90; 8599,289;   66,971;23311,484;36,70681
 624,48; 8506,391;   32,662;23196,598;36,58156
 625,05; 8394,091;   34,562;23105,098;36,23466
 625,63; 8291,491;   52,962;23188,799;35,60939
 626,21; 8137,441;   38,262;23117,596;35,09278
 626,79; 8074,226;   53,967;23219,719;34,62119
 627,37; 7841,331;   28,162;23090,717;33,87816
 627,95; 7802,276;   72,768;23200,215;33,42136
 628,53; 7603,333;   49,365;23176,607;32,66264
 629,11; 7427,118;   48,259;23043,449;32,08871
 629,69; 7298,467;   53,369;23256,932;31,22408
 630,27; 7188,622;   80,763;23105,434;30,87062
 630,84; 7062,491;   43,862;23021,197;30,54588
 631,42; 6957,706;   54,367;23319,656;29,67227
 632,00; 6837,659;   45,459;23125,768;29,42855
 632,58; 6779,402;   50,263;23105,172;29,18745
 633,16; 6770,979;   49,870;23096,906;29,16257
 633,74; 6748,393;   56,264;23018,488;29,14408
 634,32; 6748,370;   45,661;23007,842;29,19021
 634,90; 6935,608;   51,970;23195,746;29,74294
 635,47; 6897,819;   38,860;23035,645;29,82573
 636,05; 6958,670;   37,461;22989,342;30,15530
 636,63; 7097,233;   45,965;23104,807;30,57946
 637,21; 7289,723;   67,464;23150,529;31,28813
 637,79; 7380,784;   71,465;23192,904;31,61273
 638,37; 7437,555;   54,055;23070,883;32,07870
 638,94; 7524,944;   33,265;23100,686;32,47731
 639,52; 7609,844;   41,665;23195,285;32,68681
 640,10; 7669,333;   64,264;23215,900;32,84895
 640,68; 7684,388;   54,164;23175,334;33,00103
 641,26; 7682,643;   35,864;23250,268;32,93980
 641,84; 7719,998;   39,164;23235,002;33,11298
 642,41; 7666,552;   28,264;23192,936;32,97387
 642,99; 7663,707;   48,464;23145,568;32,97055
 643,57; 7581,662;   22,064;23158,402;32,67413
 644,15; 7551,216;   27,064;23178,035;32,50037
 644,73; 7519,671;   37,564;23277,568;32,19495
 645,30; 7448,726;   55,264;23230,303;31,90269
 645,88; 7396,980;   44,964;23362,635;31,52980
 646,46; 7267,435;   59,264;23447,568;30,81955
 647,04; 7218,589;   51,864;23367,902;30,73732
 647,61; 7159,044;   46,564;23396,336;30,46060
 648,19; 7164,199;   61,664;23433,369;30,38946
 648,77; 7087,753;   26,264;23442,002;30,15702
 649,35; 7071,008;   51,064;23590,137;29,82252
 649,92; 7034,963;   42,464;23596,070;29,68759
 650,50; 7016,618;   30,064;23551,104;29,70342
 651,08; 7062,772;   39,964;23450,537;29,99844
 651,66; 7065,727;   21,864;23534,770;29,95743
 652,23; 7133,381;   39,064;23561,004;30,16043
 652,81; 7162,836;   36,464;23644,137;30,18668
 653,39; 7240,891;   56,164;23647,170;30,45536
 653,97; 7293,445;   37,065;23882,504;30,43090
 654,54; 7330,500;   23,565;23823,137;30,70196
 655,12; 7360,055;   30,965;23831,971;30,79319
 655,70; 7409,009;   42,065;23962,805;30,79731
 656,28; 7471,664;   32,765;23947,037;31,10653
 656,85; 7481,319;   44,065;24051,070;30,97952
 657,43; 7461,673;   -1,035;23831,305;31,31337
 658,01; 7478,228;   21,465;24078,539;30,99614
 658,58; 7564,783;   55,165;24234,371;31,05817
 659,16; 7511,837;   51,965;24154,105;30,95108
 659,74; 7588,192;   59,465;24338,039;31,00976
 660,32; 7619,647;   71,665;24327,672;31,11799
 660,89; 7577,602;   34,265;24347,305;31,02589
 661,47; 7615,856;   51,665;24464,939;30,98393
 662,05; 7667,111;   25,365;24587,373;31,11206
 662,62; 7771,166;   59,665;24584,006;31,44427
 663,20; 7871,720;   80,665;24740,139;31,59457
 663,78; 7965,275;   47,965;24902,773;31,85424
 664,35; 8019,330;   52,465;24921,006;32,03591
 664,93; 8129,384;   64,465;25123,539;32,18363
 665,51; 8263,738;   49,565;25170,973;32,69790
 666,08; 8360,493;   30,165;25185,707;33,11528
 666,66; 8559,048;   47,465;25667,539;33,22232
 667,23; 8670,503;   51,765;25732,773;33,56075
 667,81; 8792,058;   65,865;25889,307;33,79175
 668,39; 8860,313;   43,265;26047,141;33,90667
 668,96; 9000,566;   54,665;26309,074;34,07390
 669,54; 9033,722;   38,765;26408,408;34,11103
 670,12; 9190,376;   51,165;26808,740;34,15560
 670,69; 9296,131;   64,165;26950,674;34,33680
 671,27; 9298,085;   25,565;27096,008;34,25330
 671,84; 9350,440;   40,665;27105,240;34,39838
 672,42; 9431,295;   66,265;27253,875;34,44595
 673,00; 9357,249;   57,165;27531,408;33,85019
 673,57; 9223,404;   59,965;27276,441;33,66872
 674,15; 9253,759;   64,065;27613,475;33,35713
 674,72; 9160,413;   58,565;27536,209;33,12456
 675,30; 9123,568;   69,466;27513,541;32,99110
 675,88; 9023,123;   36,266;27573,176;32,63568
 676,45; 8997,277;   59,466;27677,309;32,36245
 677,03; 9002,732;   67,866;27525,043;32,54110
 677,60; 8927,887;   41,466;27770,576;32,04726
 678,18; 9005,541;   59,466;27877,510;32,15925
 678,76; 8988,096;   40,766;27809,143;32,22129
 679,33; 9082,051;   57,666;27813,176;32,51385
 679,91; 9097,205;   44,266;27813,311;32,60083
 680,48; 9191,060;   28,766;27740,242;33,06317
 681,06; 9230,015;   50,866;27735,176;33,15650
 681,63; 9256,669;   37,566;27736,209;33,28359
 682,21; 9347,324;   67,966;27797,543;33,46376
 682,78; 9357,179;   20,566;27459,576;34,02678
 683,36; 9447,934;   46,966;27565,510;34,16230
 683,93; 9557,988;   30,466;27450,645;34,74639
 684,51; 9547,143;   26,166;27477,277;34,68339
 685,08; 9679,697;   38,966;27733,711;34,81069
 685,66; 9777,752;   53,066;27694,045;35,18213
 686,24; 9822,606;   33,766;27796,578;35,25882
 686,81; 9870,361;   57,666;27899,910;35,24391
 687,39; 9767,116;   38,866;27807,844;35,03280
 687,96; 9871,570;   54,166;27850,479;35,31909
 688,54; 9835,025;   30,866;27984,811;35,07254
 689,11; 9807,580;   26,966;28043,545;34,91009
 689,69; 9880,935;   29,666;28019,279;35,19616
 690,26; 9899,189;   59,466;28289,313;34,85575
 690,84; 9841,744;   50,066;28239,846;34,73485
 691,41; 9825,898;   35,966;28403,879;34,51058
 691,98; 9841,953;   31,466;28427,912;34,54829
 692,56; 9901,508;   32,866;28437,445;34,74314
 693,13;10000,463;   64,866;28655,080;34,75174
 693,71; 9990,917;   24,466;28657,912;34,80702
 694,28;10105,072;   41,966;28715,945;35,09491
 694,86;10155,326;   47,266;28928,879;34,99825
 695,43;10234,281;   61,366;29100,912;35,03125
 696,01;10385,236;   36,266;29145,547;35,55213
 696,58;10371,690;   42,167;29083,879;35,56789
 697,16;10580,045;   38,067;29126,414;36,24124
 697,73;10730,100;   63,467;29338,246;36,43625
 698,30;10800,954;   51,867;29223,980;36,84713
 698,88;10833,709;   40,467;29558,613;36,56477
 699,45;10987,964;   35,367;29765,848;36,83962
 700,03;11040,519;   56,067;29750,980;36,99102
 700,60;11136,573;   56,267;29850,613;37,18929
 701,18;11218,328;   61,867;29963,947;37,30998
 701,75;11355,782;   74,367;30094,682;37,57927
 702,32;11325,938;   50,367;29901,914;37,77215
 702,90;11384,592;   52,467;30254,148;37,52150
 703,47;11443,047;   51,367;30428,881;37,50037
 704,05;11478,901;   67,767;30546,715;37,43940
 704,62;11433,956;   39,867;30587,848;37,29899
 705,19;11445,811;   43,667;30586,982;37,33106
 705,77;11459,465;   29,967;30618,314;37,36553
 706,34;11463,520;   61,667;30627,049;37,30316
 706,91;11422,774;   46,367;30673,883;37,14440
 707,49;11522,329;   57,267;30976,316;37,08090
 708,06;11510,284;   66,367;31089,049;36,88887
 708,64;11523,339;   25,767;31093,582;37,00798
 709,21;11631,593;   58,167;31179,316;37,18830
 709,78;11677,048;   41,367;31281,150;37,24636
 710,36;11711,603;   61,667;31419,684;37,15138
 710,93;11900,257;   50,567;31562,416;37,60392
 711,50;12020,312;   44,467;31506,049;38,06498
 712,08;12303,767;   76,567;31925,383;38,39138
 712,65;12282,521;   73,667;31775,916;38,51100
 713,22;12413,876;   69,067;31900,250;38,78212
 713,80;12504,631;   84,167;31966,883;38,95673
 714,37;12583,785;   55,767;31827,018;39,43193
 714,94;12662,340;   53,967;31727,551;39,80722
 715,52;12721,494;   47,867;31732,984;39,99867
 716,09;12918,549;   65,467;31891,918;40,38490
 716,66;12894,304;   73,467;31935,051;40,23917
 717,23;12888,158;   66,867;31908,484;40,26583
 717,81;12901,013;   50,168;31812,018;40,46000
 718,38;12892,268;   47,468;31671,252;40,61753
 718,95;12820,723;   59,068;31618,984;40,43628
 719,53;12943,977;   56,568;31661,418;40,77668
 720,10;12874,332;   59,968;31481,252;40,78243
 720,67;12771,687;   35,768;31355,984;40,66357
 721,24;12807,541;   59,468;31256,020;40,86373
 721,82;12813,296;   49,968;31236,053;40,92636
 722,39;12742,250;   64,068;31235,885;40,67194
 722,96;12752,405;   64,968;31261,420;40,66949
 723,53;12704,859;   88,268;31151,953;40,61524
 724,11;12770,714;   61,568;31207,486;40,80517
 724,68;12790,869;   71,568;31242,020;40,80564
 725,25;12851,023;   72,768;31399,953;40,78967
 725,82;12969,979;   96,068;31564,387;40,91070
 726,40;13042,133;   62,668;31714,820;41,00658
 726,97;13119,388;   62,168;31875,354;41,04342
 727,54;13216,643;   46,968;31801,486;41,47339
 728,11;13285,697;   49,568;32045,820;41,36775
 728,69;13258,852;   39,568;31938,953;41,44056
 729,26;13383,906;   53,568;32105,088;41,59035
 729,83;13539,661;   53,268;32264,621;41,86845
 730,40;13597,315;   66,768;32291,754;41,98775
 730,97;13814,870;   44,268;32590,588;42,31078
 731,55;13882,125;   41,468;32755,820;42,30760
 732,12;13986,779;   86,268;32841,656;42,43733
 732,69;14012,334;   66,968;32889,988;42,48654
 733,26;14044,289;   55,168;32930,520;42,55200
 733,83;14156,144;   41,168;32979,055;42,85331
 734,41;14180,398;   65,468;32991,590;42,86849
 734,98;14234,053;   51,368;33155,621;42,84248
 735,55;14217,808;   43,168;33183,656;42,77137
 736,12;14319,563;   65,968;33377,289;42,78904
 736,69;14424,717;   76,968;33377,922;43,08510
 737,26;14352,172;   57,468;33552,254;42,67740
 737,84;14359,126;   70,768;33487,188;42,75849
 738,41;14280,881;   63,168;33492,422;42,53075
 738,98;14314,735;   63,569;33375,055;42,78154
 739,55;14238,490;   49,669;33377,789;42,57312
 740,12;14337,045;   62,969;33678,023;42,46334
 740,69;14292,399;   70,569;33575,656;42,44678
 741,26;14269,154;   56,269;33557,391;42,42510
 741,83;14384,608;   53,869;33719,523;42,56783
 742,41;14376,163;   56,169;33833,055;42,39584
 742,98;14453,118;   91,469;33874,590;42,51132
 743,55;14512,073;   53,569;33836,824;42,79784
 744,12;14397,027;   50,469;33859,855;42,43366
 744,69;14567,282;   59,569;33848,492;42,93630
 745,26;14529,137;   42,169;33677,723;43,07040
 745,83;14667,691;   58,769;33854,355;43,22731
 746,40;14707,346;   57,969;33844,789;43,35826
 746,97;14771,501;   44,769;33828,125;43,59168
 747,55;14805,455;   62,269;33966,957;43,48421
 748,12;14912,811;   57,869;33910,191;43,88160
 748,69;14909,365;   68,769;33877,625;43,89559
 749,26;15042,720;   65,069;33958,559;44,19035
 749,83;14925,074;   42,569;33911,992;43,94083
 750,40;15086,129;   89,669;34158,824;44,01770
 750,97;15108,783;   96,269;34144,160;44,09235
 751,54;15131,038;   40,569;33980,793;44,46190
 752,11;15053,893;   52,969;33874,727;44,35288
 752,68;15060,747;   87,869;33912,859;44,26573
 753,25;15047,103;   60,269;33774,594;44,45242
 753,82;14973,957;   65,069;33810,527;44,18043
 754,39;15037,512;   75,169;33727,160;44,46198
 754,96;14921,767;   60,069;33616,395;44,28881
 755,53;14929,820;   29,469;33796,527;44,12689
 756,10;14848,575;   64,169;33720,961;43,92696
 756,67;14816,230;   73,369;33813,395;43,69547
 757,24;14704,785;   72,769;33740,426;43,46016
 757,81;14669,539;   16,469;33677,762;43,53092
 758,38;14661,395;   54,569;33822,695;43,25625
 758,95;14696,648;   79,469;33743,426;43,42086
 759,52;14584,604;   57,469;33615,859;43,28913
 760,09;14587,658;   68,570;33306,992;43,68164
 760,66;14586,013;   59,570;33309,727;43,68834
 761,23;14571,067;   91,070;33353,961;43,53199
 761,80;14543,122;   56,270;33295,793;43,58321
 762,37;14561,577;   68,970;33167,727;43,78596
 762,94;14641,932;   70,970;33187,461;43,99911
 763,51;14602,886;   36,070;32949,793;44,25758
 764,08;14555,641;   66,270;32998,527;43,99750
 764,65;14603,495;   69,570;32798,961;44,40634
 765,22;14673,550;   54,670;32804,496;44,63804
 765,79;14587,904;   77,370;32691,928;44,49097
 766,36;14739,359;   73,170;32743,063;44,89207
 766,93;14875,914;   68,970;32551,295;45,58462
 767,50;14932,669;   89,470;32828,328;45,33817
 768,07;14856,924;   63,870;32699,262;45,32826
 768,64;14771,979;   86,470;32572,596;45,20548
 769,21;14594,032;   57,970;32359,729;45,00084
 769,78;14588,587;   78,770;32244,963;45,10890
 770,34;14410,042;   45,570;32031,195;44,90915
 770,91;14353,696;   58,470;31921,430;44,86472
 771,48;14311,451;   62,370;31836,863;44,84440
 772,05;14265,706;   66,470;31610,697;45,01374
 772,62;14125,161;   42,670;31443,029;44,84818
 773,19;14193,716;   59,370;31579,764;44,84191
 773,76;14167,870;   71,070;31506,297;44,84396
 774,33;14085,125;   74,170;31447,330;44,65905
 774,90;13914,079;   52,870;31206,064;44,49370
 775,47;13849,434;   59,970;30957,498;44,62967
 776,03;13736,188;   73,470;30984,330;44,20038
 776,60;13744,743;   55,970;30757,863;44,58609
 777,17;13705,898;   65,470;30698,098;44,52908
 777,74;13603,253;   30,870;30522,031;44,51252
 778,31;13572,107;   68,970;30582,064;44,25358
 778,88;13626,162;   30,470;30366,898;44,81639
 779,45;13511,717;   75,770;30358,131;44,36889
 780,01;13470,571;   58,370;30299,664;44,35062
 780,58;13399,226;   60,570;30177,998;44,28883
 781,15;13360,980;   38,771;29979,432;44,49538
 781,72;13445,335;   66,771;29962,266;44,75111
 782,29;13463,689;   51,771;29667,100;45,28708
 782,86;13440,944;   55,571;29617,732;45,27874
 783,42;13370,600;   56,171;29598,166;45,06950
 783,99;13376,254;   66,671;29482,100;45,24695
 784,56;13373,108;   55,171;29320,232;45,50798
 785,13;13192,963;   40,271;29247,266;45,03268
 785,70;13137,218;   49,071;29060,299;45,11407
 786,26;13098,973;   51,671;28910,732;45,21042
 786,83;13012,827;   84,371;28889,166;44,88300
 787,40;12893,882;   57,171;28783,500;44,68622
 787,97;12879,536;   43,971;28581,133;44,97842
 788,54;12835,691;   70,371;28515,268;44,87737
 789,10;12834,946;   57,971;28344,400;45,16998
 789,67;12729,801;   70,371;28245,334;44,93149
 790,24;12569,855;   51,071;28193,768;44,48324
 790,81;12460,610;   88,271;27914,400;44,46303
 791,37;12449,965;   73,671;27872,135;44,52150
 791,94;12407,619;   70,771;27886,367;44,35227
 792,51;12305,474;   46,271;27539,201;44,59038
 793,08;12237,528;   69,771;27555,234;44,26979
 793,64;12228,383;   71,271;27455,168;44,39511
 794,21;12121,938;   69,671;27250,602;44,34089
 794,78;12006,893;   53,071;27147,035;44,11987
 795,35;11914,848;   73,471;27007,969;43,96361
 795,91;11926,202;   48,071;26789,301;44,41879
 796,48;11791,956;   55,771;26710,734;44,03002
 797,05;11726,611;   57,671;26624,369;43,92319
 797,62;11784,466;   41,971;26600,701;44,21331
 798,18;11713,721;   57,471;26410,736;44,23076
 798,75;11604,275;   56,571;26279,770;44,03622
 799,32;11698,130;   60,771;26209,102;44,50517
 799,88;11643,385;   55,971;26051,535;44,57458
 800,45;11536,139;   33,971;25945,270;44,39055
 801,02;11545,693;   65,271;25880,104;44,47219
 801,58;11566,148;   90,872;25660,436;44,87866
 802,15;11544,403;   72,872;25615,270;44,91173
 802,72;11403,558;   66,172;25404,703;44,74366
 803,28;11376,313;   49,172;25288,938;44,87815
 803,85;11250,867;   41,972;25144,871;44,65180
 804,42;11193,922;   77,772;24948,004;44,69661
 804,98;11204,276;  100,672;24935,537;44,70974
 805,55;11178,631;   56,972;24702,371;45,12672
 806,12;11066,886;   83,572;24611,004;44,77971
 806,68;10904,040;   66,472;24493,738;44,36668
 807,25;10897,195;   74,972;24436,271;44,42383
 807,82;10895,350;   86,872;24407,805;44,44105
 808,38;10827,604;   73,672;24367,037;44,26695
 808,95;10786,259;   62,972;24166,971;44,48758
 809,52;10706,214;   50,272;24162,004;44,19401
 810,08;10663,368;   55,172;23994,938;44,31203
 810,65;10667,523;   77,172;24169,672;43,95705
 811,21;10691,878;   69,972;24123,404;44,15963
 811,78;10752,133;   92,472;24337,539;43,96631
 812,35;10655,188;   64,972;24173,871;43,92658
 812,91;10706,042;   90,072;24239,705;43,95914
 813,48;10722,996;   68,172;24202,738;44,14757
 814,04;10666,451;   64,172;24088,373;44,13166
 814,61;10614,006;   77,572;24176,006;43,72248
 815,18;10550,261;   67,772;23892,539;43,99828
 815,74;10612,215;   69,772;23709,172;44,59691
 816,31;10615,170;   83,372;23614,406;44,75705
 816,87;10430,524;   43,272;23489,641;44,30218
 817,44;10411,979;   76,972;23452,273;44,21337
 818,00;10323,034;   43,272;23159,506;44,46988
 818,57;10399,088;   71,872;23076,340;44,89222
 819,14;10298,543;   82,872;22924,273;44,72436
 819,70;10214,798;   72,672;22792,707;44,63957
 820,27;10167,752;   62,972;22691,941;44,65418
 820,83; 9990,307;   70,072;22541,373;44,14624
 821,40;10008,062;   98,072;22431,908;44,37209
 821,96; 9890,316;   75,272;22315,541;44,13186
 822,53; 9834,871;   70,973;22257,574;44,00809
 823,09; 9788,626;   81,073;22073,309;44,14082
 823,66; 9731,880;   68,173;21862,541;44,34039
 824,22; 9729,835;   77,173;21851,674;44,33012
 824,79; 9526,989;   75,473;21561,408;43,98932
 825,35; 9549,744;   65,173;21648,041;43,94491
 825,92; 9470,099;   75,173;21398,875;44,05861
 826,48; 9464,153;   87,673;21501,309;43,78743
 827,05; 9366,309;   89,573;21448,242;43,43312
 827,61; 9356,263;   75,273;21249,076;43,83242
 828,18; 9209,418;   60,873;21191,209;43,29579
 828,74; 9189,872;   91,673;21053,543;43,40357
 829,31; 9136,027;   83,373;21002,176;43,27520
 829,87; 9082,582;   73,073;20733,709;43,60712
 830,44; 9049,336;   85,173;20631,443;43,62915
 831,00; 9099,891;   91,273;20673,977;43,76790
 831,57; 9061,146;  101,573;20631,609;43,64129
 832,13; 8963,601;   72,073;20323,344;43,90602
 832,69; 8958,354;   58,173;20309,477;43,94868
 833,26; 8911,510;   85,473;20322,711;43,61285
 833,82; 8897,464;   93,073;20197,744;43,79276
 834,39; 8800,019;   78,773;20137,477;43,47861
 834,95; 8744,474;   57,173;19959,410;43,64987
 835,52; 8757,929;   87,873;19851,744;43,86821
 836,08; 8713,983;   95,573;19951,877;43,40390
 836,64; 8730,638;   76,273;19800,711;43,87636
 837,21; 8657,492;   88,673;19552,443;44,02446
 837,77; 8624,047;   91,873;19491,777;43,98049
 838,34; 8554,502;   67,473;19470,012;43,74185
 838,90; 8505,856;   64,473;19306,045;43,87055
 839,46; 8512,711;   83,873;19312,479;43,83489
 840,03; 8399,365;   76,173;19300,811;43,29440
 840,59; 8402,320;   85,873;19175,645;43,56494
 841,16; 8301,075;  105,173;19156,578;43,01993
 841,72; 8265,529;   59,373;18965,512;43,40472
 842,28; 8263,784;   77,873;18857,246;43,58991
 842,85; 8254,739;   95,573;18812,578;43,59226
 843,41; 8193,794;  105,374;18740,813;43,40343
 843,97; 8137,748;   89,174;18686,846;43,27732
 844,54; 8120,703;  104,774;18624,979;43,28208
 845,10; 8031,757;   89,174;18523,713;43,08534
 845,67; 8065,912;   68,774;18413,445;43,59379
 846,23; 8031,467;   78,674;18361,080;43,49971
 846,79; 7936,321;   90,474;18265,613;43,16802
 847,36; 7846,676;   55,774;18179,047;42,98839
 847,92; 7895,831;   84,874;18034,680;43,51555
 848,48; 7861,985;   41,874;18039,213;43,45149
 849,04; 7824,840;   62,374;17949,447;43,39707
 849,61; 7836,695;   56,274;17918,580;43,55776
 850,17; 7894,450;   68,174;17819,514;44,08837
 850,73; 7829,104;   71,474;17764,848;43,84483
 851,30; 7705,659;   46,074;17669,881;43,46158
 851,86; 7759,813;   75,874;17597,914;43,85300
 852,42; 7730,668;   51,174;17568,348;43,83980
 852,99; 7759,123;   79,274;17583,082;43,87530
 853,55; 7719,078;   83,174;17542,514;43,73535
 854,11; 7681,732;   70,074;17432,049;43,84097
 854,67; 7634,287;   85,474;17420,881;43,54563
 855,24; 7489,542;   51,874;17213,414;43,33916
 855,80; 7575,796;   76,874;17244,848;43,67971
 856,36; 7550,751;   80,574;17175,881;43,69724
 856,92; 7408,405;   54,474;17027,215;43,32789
 857,49; 7491,260;   81,274;17048,248;43,67300
 858,05; 7390,715;   67,274;16968,482;43,33087
 858,61; 7420,569;   65,774;17003,316;43,42304
 859,17; 7331,024;   77,374;16904,250;43,10752
 859,74; 7318,479;   82,074;16836,883;43,19002
 860,30; 7248,133;   93,074;16663,016;43,18096
 860,86; 7191,688;   72,074;16692,350;42,83692
 861,42; 7204,843;   74,674;16545,883;43,28868
 861,99; 7161,598;   54,674;16506,717;43,19782
 862,55; 7157,252;   66,374;16393,051;43,43124
 863,11; 7136,107;   75,174;16437,283;43,15417
 863,67; 7089,062;   61,274;16290,117;43,30430
 864,23; 7154,716;   80,175;16199,351;43,88898
 864,80; 7072,371;   69,175;16081,384;43,73660
 865,36; 7114,726;   71,875;16120,817;43,88358
 865,92; 7136,780;   96,175;16088,751;44,02421
 866,48; 7071,635;   67,375;15987,384;43,99658
 867,04; 6902,589;   60,675;15891,418;43,21916
 867,60; 6977,144;   99,375;15884,451;43,57134
 868,17; 6959,199;   93,675;15884,685;43,47742
 868,73; 6849,854;   82,775;15672,618;43,40697
 869,29; 6770,108;   59,475;15470,151;43,54535
 869,85; 6867,363;  100,475;15369,685;44,31721
 870,41; 6778,518;   80,575;15293,418;44,02821
 870,97; 6734,972;   92,975;15232,252;43,87262
 871,54; 6668,626;   84,175;15178,686;43,62150
 872,10; 6613,881;   84,275;15055,419;43,61461
 872,66; 6520,136;   66,775;14910,652;43,47490
 873,22; 6507,891;   81,975;14890,586;43,39310
 873,78; 6394,646;   65,275;14742,419;43,12399
 874,34; 6421,400;   95,075;14662,652;43,42743
 874,90; 6364,500;  109,775;14536,053;43,35647
 875,46; 6317,000;   96,375;14412,952;43,45050
 876,03; 6243,600;   86,475;14363,353;43,12655
 876,59; 6185,600;   64,475;14153,253;43,44681
 877,15; 6158,200;  101,475;14166,853;43,06123
 877,71; 6151,800;   78,275;14064,652;43,42457
 878,27; 6076,200;   95,675;13910,553;43,29047
 878,83; 6101,200;  114,275;13971,753;43,20357
 879,39; 6083,800;   91,075;14082,753;42,83064
 879,95; 6003,100;   86,275;13964,253;42,63463
 880,51; 6044,500;   75,175;13927,253;43,09335
 881,07; 6092,200;   82,375;13978,753;43,24742
 881,63; 6096,100;   92,575;13971,253;43,25718
 882,19; 6068,900;   82,675;13921,553;43,25658
 882,75; 6114,400;   86,275;14019,553;43,26423
 883,31; 6128,600;   95,575;14187,853;42,81086
 883,88; 6164,400;   96,375;14174,353;43,10296
 884,44; 6175,700;   76,175;14175,753;43,26034
 885,00; 6224,300;  106,075;14266,952;43,20513
 885,56; 6229,800;  101,675;14299,452;43,16257
 886,12; 6276,500;  109,875;14421,152;43,08927
 886,68; 6230,000;   90,775;14436,753;42,79405
 887,24; 6269,000;  102,475;14574,952;42,60864
 887,80; 6350,400;   86,975;14671,753;42,94495
 888,36; 6402,500;  106,275;14715,652;43,09715
 888,92; 6376,600;   98,975;14773,353;42,77950
 889,48; 6483,300;   99,575;14973,853;42,91788
 890,04; 6530,900;   95,275;14803,053;43,75661
 890,60; 6525,900;  117,475;15014,652;43,01771
 891,16; 6531,500;   99,875;15075,853;42,94628
 891,72; 6581,500;  113,275;15058,452;43,27968
 892,28; 6593,800;  112,475;15126,053;43,16976
 892,84; 6543,600;   93,775;15039,853;43,15397
 893,39; 6547,300;  117,575;15112,952;42,87805
 893,95; 6525,500;  112,975;15044,753;42,94549
 894,51; 6478,500;   66,375;14891,253;43,25246
 895,07; 6510,100;  127,375;14906,353;43,18787
 895,63; 6399,400;   74,275;14689,952;43,27630
 896,19; 6336,200;   90,375;14601,952;43,04029
 896,75; 6302,200;  105,175;14460,152;43,16987
 897,31; 6215,000;   82,775;14295,853;43,14495
 897,87; 6175,100;   98,175;14146,853;43,25621
 898,43; 6118,500;   87,775;14075,753;43,11363
 898,99; 6097,200;  109,175;14002,753;43,09923
 899,55; 6081,100;  109,475;13940,652;43,17510
 900,11; 6018,000;  104,975;13747,553;43,34243
 900,67; 5984,400;   91,375;13658,652;43,43557
 901,22; 5939,100;  108,375;13601,952;43,21111
 901,78; 5813,800;   91,275;13560,053;42,48734
 902,34; 5827,300;  103,075;13451,152;42,88426
 902,90; 5745,800;   73,575;13350,652;42,72194
 903,46; 5729,500;   95,775;13236,353;42,87274
 904,02; 5656,700;   88,075;13091,553;42,82412
 904,58; 5541,200;   67,075;12918,152;42,59662
 905,14; 5541,600;   63,975;12874,553;42,75861
 905,70; 5522,300;   66,775;12696,053;43,19744
 906,25; 5466,800;   84,375;12708,452;42,63618
 906,81; 5451,800;   87,675;12732,152;42,42267
 907,37; 5438,700;   79,275;12616,152;42,74928
 907,93; 5401,400;   74,775;12588,152;42,56744
 908,49; 5374,600;  101,875;12497,652;42,53646
 909,05; 5292,800;   89,675;12425,553;42,17880
 909,60; 5345,300;   86,575;12340,452;42,91478
 910,16; 5227,800;   67,675;12291,853;42,21245
 910,72; 5221,600;  100,475;12207,753;42,29791
 911,28; 5193,700;   90,875;12156,053;42,29383
 911,84; 5135,500;   79,575;12106,753;42,03750
 912,39; 5117,600;   73,475;12049,353;42,11904
 912,95; 5141,500;  104,475;12001,452;42,33870
 913,51; 5093,900;   85,375;11945,253;42,23083
 914,07; 5020,900;   83,775;11813,452;42,09088
 914,63; 4991,200;   64,775;11748,053;42,16646
 915,18; 4975,800;   77,475;11617,853;42,44510
 915,74; 4894,800;   63,975;11632,652;41,75780
 916,30; 4817,100;   61,475;11588,553;41,25612
 916,86; 4810,500;   83,575;11514,652;41,35153
 917,42; 4784,200;   82,275;11425,152;41,45267
 917,97; 4764,500;   75,375;11265,452;41,90431
 918,53; 4712,500;   67,775;11196,253;41,73729
 919,09; 4694,100;   88,975;11223,753;41,35803
 919,65; 4661,100;   83,375;11083,452;41,61539
 920,20; 4595,500;   61,875;10983,053;41,51224
 920,76; 4500,700;   65,475;10849,452;41,12792
 921,32; 4448,000;   82,675;10770,952;40,84218
 921,87; 4469,200;   97,475;10670,253;41,34888
 922,43; 4319,100;   64,675;10561,353;40,53116
 922,99; 4312,500;   61,875;10406,753;41,08918
 923,55; 4237,500;   63,775;10357,353;40,54688
 924,10; 4230,200;   73,575;10282,853;40,71420
 924,66; 4206,900;   78,675;10170,152;40,90803
 925,22; 4099,500;   43,275;10093,952;40,35773
 925,77; 4074,100;   66,075; 9927,053;40,64531
 926,33; 4050,200;   90,375; 9903,253;40,35335
 926,89; 3930,000;   71,975; 9692,753;40,10097
 927,44; 3876,000;   52,175; 9580,553;40,13091
 928,00; 3838,400;   66,875; 9533,753;39,83916
 928,56; 3802,800;   80,375; 9372,253;40,06106
 929,12; 3762,200;   72,775; 9275,152;40,09209
 929,67; 3695,300;   67,575; 9091,053;40,20318
 930,23; 3639,500;   50,975; 8915,253;40,48299
 930,78; 3622,700;  100,675; 8842,553;40,28911
 931,34; 3532,000;   61,975; 8632,152;40,48954
 931,90; 3442,300;   61,675; 8494,353;40,08958
 932,45; 3358,100;   78,775; 8290,753;39,93344
 933,01; 3244,500;   52,975; 8024,453;40,03681
 933,57; 3139,800;   72,175; 7753,252;39,93743
 934,12; 2980,000;   70,475; 7399,553;39,69838
 934,68; 2837,700;   59,075; 7020,252;39,91602
 935,24; 2683,200;   67,875; 6614,752;39,94767
 935,79; 2498,400;   72,975; 6254,853;39,23444
 936,35; 2357,800;   91,375; 5812,252;39,61674
 936,90; 2175,900;   80,275; 5348,752;39,77667
 937,46; 2020,700;   72,775; 4956,953;39,88235
 938,02; 1853,200;   63,375; 4549,152;39,90000
 938,57; 1733,000;   73,175; 4265,053;39,59622
 939,13; 1636,000;   70,575; 3986,752;39,97329
 939,68; 1495,600;   57,375; 3713,452;39,33792
 940,24; 1435,900;   68,775; 3504,052;39,79664
 940,79; 1409,500;   91,875; 3391,052;39,93798
 941,35; 1341,100;   79,675; 3217,552;40,19994
 941,91; 1275,200;   71,375; 3122,252;39,45832
 942,46; 1260,200;   75,075; 3063,552;39,65648
 943,02; 1246,200;   65,375; 3050,752;39,55362
 943,57; 1222,800;   61,275; 2982,452;39,76222
 944,13; 1219,500;   67,375; 2974,452;39,63173
 944,68; 1244,500;   65,975; 3041,752;39,60394
 945,24; 1244,000;   82,275; 3060,052;39,01316
 945,79; 1242,600;   68,775; 3104,052;38,67274
 946,35; 1259,000;   51,775; 3194,752;38,41023
 946,90; 1339,300;   98,575; 3283,552;38,95554
 947,46; 1332,900;   52,175; 3311,052;39,29958
 948,01; 1355,900;   51,575; 3390,052;39,06946
 948,57; 1424,000;   86,775; 3552,952;38,57924
 949,12; 1403,200;   65,875; 3613,353;37,69791
 949,68; 1473,600;   76,275; 3732,653;38,21610
 950,23; 1498,300;   70,075; 3833,252;37,95264
 950,79; 1532,600;   75,775; 3933,452;37,76430
 951,34; 1566,800;   83,275; 4070,952;37,20273
 951,90; 1580,300;   57,475; 4140,853;37,29327
 952,45; 1627,200;   81,075; 4292,152;36,71566
 953,01; 1640,600;   65,975; 4364,252;36,63386
 953,56; 1693,200;   87,975; 4500,853;36,37592
 954,12; 1669,200;   42,075; 4567,553;35,95477
 954,67; 1725,000;   70,875; 4720,453;35,57581
 955,23; 1736,800;   61,975; 4804,553;35,31466
 955,78; 1790,900;   67,175; 4882,953;35,79329
 956,33; 1789,800;   58,575; 4947,252;35,41295
 956,89; 1815,800;   53,475; 5038,553;35,35201
 957,44; 1830,500;   53,675; 5170,752;34,72343
 958,00; 1844,200;   49,475; 5238,353;34,58792
 958,55; 1897,400;   70,475; 5313,953;34,84186
 959,10; 1896,800;   52,375; 5370,252;34,68348
 959,66; 1912,800;   74,275; 5488,752;33,95572
 960,21; 1926,000;   78,475; 5567,453;33,65882
 960,77; 1939,400;   54,275; 5606,152;33,95473
 961,32; 1939,400;   48,375; 5663,453;33,67763
 961,87; 1983,000;   79,775; 5738,752;33,63196
 962,43; 1955,200;   68,975; 5780,652;33,02401
 962,98; 2005,500;   76,175; 5828,652;33,53903
 963,54; 1935,900;   27,075; 5820,652;32,94726
 964,09; 1985,100;   56,275; 5873,953;33,15455
 964,64; 1983,500;   64,975; 5901,053;32,87353
 965,20; 1983,100;   44,375; 5966,652;32,73614
 965,75; 1944,000;   66,575; 5976,353;31,76812
 966,30; 1955,700;   75,275; 6068,553;31,37557
 966,86; 1965,700;   62,975; 6121,953;31,40340
 967,41; 1943,300;   81,075; 6084,453;31,01962
 967,96; 1956,000;   75,175; 6108,953;31,17160
 968,52; 1941,900;   81,775; 6126,353;30,77345
 969,07; 1919,700;   72,975; 6120,152;30,53863
 969,62; 1901,900;   77,175; 6134,953;30,12202
 970,18; 1838,700;   57,575; 6147,652;29,24634
 970,73; 1859,500;   66,475; 6203,553;29,21627
 971,28; 1879,400;   95,775; 6197,053;29,23363
 971,84; 1832,500;   55,075; 6118,752;29,31266
 972,39; 1852,700;   95,875; 6148,652;29,02510
 972,94; 1807,900;   54,975; 6140,652;28,80411
 973,49; 1798,300;   64,575; 6141,252;28,53081
 974,05; 1784,100;   64,375; 6178,053;28,12914
 974,60; 1758,700;   88,575; 6213,252;27,26878
 975,15; 1799,800;   77,675; 6231,553;27,98439
 975,71; 1737,600;   62,375; 6121,453;27,64818
 976,26; 1732,000;   77,575; 6110,252;27,42439
 976,81; 1754,700;   90,675; 6134,152;27,53423
 977,36; 1728,500;   84,775; 6156,953;27,06978
 977,92; 1718,000;   90,175; 6209,353;26,60202
 978,47; 1653,500;   77,175; 6060,252;26,34639
 979,02; 1669,100;   95,475; 6085,652;26,27009
 979,57; 1640,600;   86,775; 6058,453;26,01991
 980,13; 1625,400;   76,175; 6038,752;25,98247
 980,68; 1625,100;   77,075; 6010,553;26,08967
 981,23; 1591,500;   89,175; 6054,652;25,18365
 981,78; 1588,200;   82,075; 5974,152;25,56187
 982,33; 1565,900;   79,275; 5893,252;25,56985
 982,89; 1540,900;   94,375; 5938,152;24,75325
 983,44; 1497,000;   65,675; 5935,853;24,38299
 983,99; 1531,900;  104,775; 5949,453;24,41751
 984,54; 1477,900;   81,475; 5900,053;23,99942
 985,09; 1436,600;   87,275; 5873,752;23,31859
 985,65; 1416,300;   69,375; 5811,853;23,45547
 986,20; 1410,900;  106,575; 5791,152;22,94498
 986,75; 1406,700;   95,875; 5823,953;22,88420
 987,30; 1356,000;   97,175; 5726,053;22,36369
 987,85; 1330,400;   92,475; 5721,353;21,99240
 988,40; 1321,000;   96,675; 5693,953;21,87358
 988,96; 1300,200;  114,875; 5666,553;21,35075
 989,51; 1267,200;  108,875; 5644,053;20,92661
 990,06; 1291,700;  128,275; 5680,853;20,95288
 990,61; 1233,500;   93,575; 5569,053;20,81873
 991,16; 1229,900;  104,375; 5558,053;20,63791
 991,71; 1188,700;   79,875; 5505,853;20,43549
 992,26; 1198,600;   93,475; 5457,252;20,60348
 992,81; 1169,900;   75,075; 5427,053;20,45646
 993,37; 1169,000;  113,475; 5390,553;20,00207
 993,92; 1171,900;  108,375; 5368,953;20,21689
 994,47; 1154,900;  117,475; 5329,652;19,90387
 995,02; 1146,900;  118,475; 5313,252;19,79729
 995,57; 1106,300;   90,875; 5274,652;19,58852
 996,12; 1137,500;  133,575; 5247,553;19,63100
 996,67; 1106,500;  132,375; 5191,652;19,25423
 997,22; 1052,500;   99,875; 5128,652;18,94347
 997,77; 1065,300;  115,275; 5110,553;19,01846
 998,32; 1038,100;  103,775; 5015,652;19,02175
 998,87; 1036,000;  114,275; 5018,752;18,79354
 999,42; 1024,000;  101,675; 4972,553;18,93550
 999,97;  984,000;  109,975; 4956,353;18,03460
1000,53; 1005,800;  123,475; 4993,752;18,11652
1001,08;  959,900;   98,375; 4879,053;18,02098
1001,63;  956,300;  144,475; 4878,053;17,15035
1002,18;  900,200;   85,075; 4777,453;17,37126
1002,73;  935,200;  131,375; 4813,853;17,16666
1003,28;  897,400;  103,575; 4811,953;16,85984
1003,83;  880,700;  119,075; 4691,752;16,65600
1004,38;  909,200;  137,775; 4703,152;16,89729
1004,93;  853,300;  114,375; 4680,953;16,18115
1005,48;  823,400;  104,075; 4573,053;16,09596
1006,03;  800,200;  112,775; 4525,652;15,57770
1006,58;  798,900;  111,475; 4486,553;15,71229
1007,13;  761,000;   94,475; 4466,252;15,24609
1007,68;  762,900;  104,975; 4462,453;15,09876
1008,23;  753,900;  114,575; 4425,853;14,82913
1008,78;  753,300;  107,375; 4384,152;15,10308
1009,33;  763,700;  121,875; 4307,752;15,33311
1009,88;  710,100;   84,775; 4329,553;14,73163
1010,43;  726,900;  118,875; 4320,752;14,47032
1010,98;  713,400;  100,675; 4310,053;14,55619
1011,52;  700,800;   97,075; 4264,953;14,48519
1012,07;  741,000;  144,475; 4319,252;14,28879
1012,62;  703,100;  103,875; 4259,152;14,42082
1013,17;  712,200;   97,175; 4172,053;15,09309
1013,72;  682,800;   94,575; 4143,453;14,52810
1014,27;  685,500;  100,275; 4105,853;14,61025
1014,82;  661,400;   86,875; 4042,952;14,52259
1015,37;  633,800;   84,375; 3964,853;14,15870
1015,92;  647,400;  109,475; 3894,252;14,21286
1016,47;  603,700;   90,275; 3819,452;13,76778
1017,02;  586,000;   81,075; 3732,153;13,82948
1017,57;  601,000;   96,475; 3718,853;13,92801
1018,11;  577,700;   77,275; 3656,252;13,98235
1018,66;  602,700;  120,175; 3636,552;13,72222
1019,21;  572,500;  109,675; 3579,552;13,33837
1019,76;  529,800;   77,675; 3497,353;13,22128
1020,31;  506,700;   71,975; 3446,452;12,88274
1020,86;  534,000;   96,175; 3448,052;13,06208
1021,41;  495,900;   80,175; 3387,052;12,57153
1021,96;  499,500;   83,675; 3385,853;12,59245
1022,50;  507,300;  105,975; 3332,952;12,43656
1023,05;  480,400;   94,675; 3288,052;12,07890
1023,60;  452,800;   97,975; 3251,353;11,25222
1024,15;  456,600;   81,075; 3184,853;12,09897
1024,70;  456,800;   95,075; 3176,252;11,73983
1025,25;  441,700;   81,175; 3127,452;11,83494
1025,79;  457,500;  101,175; 3110,752;11,83970
1026,34;  441,700;   83,475; 3044,653;12,09738
1026,89;  438,300;  102,175; 3039,052;11,44498
1027,44;  409,300;   95,875; 2952,952;10,97013
1027,99;  418,600;   93,475; 2944,552;11,40358
1028,53;  414,600;   89,675; 2900,052;11,56161
1029,08;  414,100;  114,775; 2876,653;10,83774
1029,63;  421,300;  114,875; 2854,952;11,18308
1030,18;  390,300;   92,075; 2788,552;11,05980
1030,73;  380,800;   91,175; 2739,552;10,93594
1031,27;  376,800;   85,875; 2715,252;11,06441
1031,82;  369,800;   81,875; 2686,452;11,05458
1032,37;  372,900;   98,875; 2688,853;10,58021
1032,92;  372,400;  100,575; 2675,452;10,55681
1033,46;  373,200;   99,775; 2599,252;10,93929
1034,01;  338,300;   78,375; 2582,952;10,37800
1034,56;  370,400;   98,875; 2559,252;11,03591
1035,11;  365,200;   92,375; 2523,552;11,22193
1035,65;  364,400;   87,575; 2478,052;11,58032
1036,20;  356,400;   99,375; 2454,452;10,91365
1036,75;  364,100;  118,675; 2446,353;10,54377
1037,29;  333,400;   90,275; 2398,252;10,53411
1037,84;  308,600;   78,375; 2347,252;10,14709
1038,39;  319,000;   91,075; 2329,952;10,18033
1038,94;  298,500;   73,075; 2277,153;10,22763
1039,48;  320,700;   83,575; 2278,552;10,80307
1040,03;  322,600;  102,875; 2245,252;10,25613
1040,58;  300,400;  101,175; 2194,552; 9,51692
1041,12;  297,900;   91,375; 2191,653; 9,83322
1041,67;  287,600;  101,075; 2166,752; 9,02973
1042,22;  308,200;  118,475; 2145,252; 9,36092
1042,76;  269,400;   99,275; 2118,452; 8,42546
1043,31;  276,200;   90,675; 2060,653; 9,41762
1043,86;  279,400;   98,875; 2044,252; 9,27969
1044,40;  298,000;   92,975; 2018,052;10,65022
1044,95;  272,100;   94,175; 1988,552; 9,39227
1045,50;  246,900;   75,375; 1934,353; 9,22685
1046,04;  270,500;  114,375; 1930,453; 8,59682
1046,59;  263,500;   96,175; 1878,353; 9,38880
1047,13;  273,700;  121,075; 1879,453; 8,67988
1047,68;  261,800;  115,675; 1860,052; 8,37691
1048,23;  257,300;  118,775; 1866,752; 7,92487
1048,77;  251,000;   90,175; 1784,953; 9,48945
1049,32;  245,100;  104,175; 1785,953; 8,37953
1049,86;  247,300;   92,675; 1760,552; 9,27076
1050,41;  224,600;   82,475; 1735,552; 8,59760
1050,96;  254,200;  100,875; 1698,652; 9,59614
1051,50;  247,800;  101,675; 1663,252; 9,35753
1052,05;  249,700;   94,675; 1664,052; 9,87812
1052,59;  233,800;   82,975; 1624,152; 9,78635
1053,14;  219,300;   84,475; 1582,652; 8,99927
1053,69;  230,500;   98,475; 1571,453; 8,96314
1054,23;  236,500;  104,575; 1569,052; 9,00833
1054,78;  231,800;  100,775; 1550,152; 9,04009
1055,32;  251,500;  123,075; 1550,453; 8,99727
1055,87;  194,700;   68,875; 1491,752; 8,84300
1056,41;  209,900;   78,775; 1469,552; 9,42818
1056,96;  210,000;   96,775; 1451,052; 8,36055
1057,50;  245,200;  113,375; 1470,853; 9,71103
1058,05;  207,400;   82,075; 1401,953; 9,49520
1058,59;  208,900;   95,875; 1396,552; 8,68970
1059,14;  216,300;  103,575; 1370,453; 8,89786
1059,68;  172,400;   75,975; 1329,353; 7,69321
1060,23;  231,900;  126,875; 1383,752; 8,35603
1060,77;  202,600;   97,375; 1317,052; 8,62728
1061,32;  212,600;  108,575; 1320,652; 8,58237
1061,86;  204,100;  111,175; 1289,752; 7,88451
1062,41;  207,700;   93,975; 1242,953; 9,89793
1062,95;  194,400;  109,575; 1230,853; 7,56503
1063,50;  215,000;  111,075; 1230,052; 9,28750
1064,04;  184,800;   90,475; 1197,453; 8,52095
1064,59;  199,900;  114,775; 1210,052; 7,77200
1065,13;  185,200;  103,475; 1170,552; 7,65877
1065,68;  188,900;  107,275; 1161,353; 7,74374
1066,22;  200,200;  115,875; 1166,453; 8,02654
1066,76;  198,800;  130,175; 1145,252; 6,76057
1067,31;  166,300;   99,875; 1110,552; 6,57232
1067,85;  176,100;  100,975; 1090,252; 7,59393
1068,40;  181,400;  110,275; 1095,353; 7,22024
1068,94;  178,400;   99,175; 1079,353; 8,08272
1069,49;  182,200;   98,175; 1041,652; 8,90588
1070,03;  175,200;  111,175; 1034,353; 6,93529
1070,57;  162,000;   88,775; 1012,852; 7,92412
1071,12;  158,000;   75,875;  987,153; 9,01207
1071,66;  209,100;  131,775; 1039,953; 8,51431
1072,21;  196,900;  112,475; 1011,352; 9,39227
1072,75;  175,400;  104,475;  978,552; 8,11427
1073,29;  156,500;   77,075;  942,453; 9,17808
1073,84;  164,300;   95,975;  941,153; 8,08410
1074,38;  158,000;   93,875;  928,253; 7,68537
1074,92;  169,300;  107,275;  940,153; 7,44707
1075,47;  188,600;  112,775;  938,852; 9,17892
1076,01;  189,800;  121,775;  926,253; 8,45580
1076,56;  159,200;   97,275;  891,953; 7,79247
1077,10;  156,500;   86,075;  865,253; 9,03838
1077,64;  151,400;   97,875;  884,453; 6,80480
1078,19;  185,600;  123,175;  887,753; 8,16464
1078,73;  172,900;   98,775;  853,852; 9,81687
1079,27;  179,100;  121,075;  875,552; 7,69075
1079,81;  190,000;  121,375;  860,953; 9,27895
1080,36;  168,500;  105,975;  836,052; 8,56416
1080,90;  161,200;   96,375;  819,753; 8,96143
1081,44;  151,600;   82,475;  789,552; 9,77616
1081,99;  125,500;   70,375;  771,753; 7,85953
1082,53;  161,900;  113,075;  798,653; 7,12173
1083,07;  161,900;  104,175;  791,453; 8,39908
1083,62;  151,000;  101,275;  772,552; 7,40752
1084,16;  162,800;   98,975;  782,453; 9,33827
1084,70;  154,500;  107,475;  767,153; 7,12848
1085,24;  159,500;  108,775;  750,653; 7,90260
1085,79;  150,500;  109,175;  747,552; 6,47344
1086,33;  142,500;   99,075;  711,453; 7,09121
1086,87;  157,500;  102,075;  714,852; 9,04488
1087,41;  141,800;   84,475;  686,852; 9,51646
1087,96;  165,100;  124,575;  732,552; 6,66554
1088,50;  150,800;  112,075;  696,953; 6,62105
1089,04;  172,200;  121,775;  715,153; 8,49796
1089,58;  135,300;   82,375;  655,953; 9,22718
1090,13;  143,700;  102,975;  653,153; 7,40216
1090,67;  159,500;  101,775;  678,753;10,00472
1091,21;  134,200;   92,075;  651,852; 7,52531
1091,75;  140,300;  106,875;  647,153; 6,18664
1092,29;  160,900;  105,875;  642,552;10,25290
1092,84;  138,400;  105,975;  628,352; 6,20720
1093,38;  173,700;  128,175;  662,753; 8,51607
1093,92;  160,900;  113,475;  640,052; 9,00627
1094,46;  158,600;  128,175;  638,852; 5,95777
1095,00;  137,400;   93,975;  602,052; 8,54692
1095,54;  133,400;   89,975;  591,352; 8,66114
1096,09;  152,000;  114,975;  597,352; 7,67552
1096,63;  155,100;  117,175;  598,453; 7,88007
1097,17;  138,800;  102,575;  573,052; 7,69963
1097,71;  169,400;  122,875;  582,453;10,12343
1098,25;  141,500;  103,275;  553,653; 8,48732
1098,79;  154,900;  104,775;  568,753;10,80332
1099,33;  161,800;  111,975;  572,052;10,82970
1099,88;  140,500;  110,775;  562,253; 6,58394
1100,42;  115,600;   83,275;  521,253; 7,38052

