0134 elitro
Integration time [ms]:   8,000
Averaging Nr. [scans]: 10
Smoothing Nr. [pixels]: 0
Data measured with spectrometer [name]: 7314920SP
Wave   ;Sample   ;Dark     ;Reference;Reflectance
[nm]   ;[counts] ;[counts] ;[counts] ;[%]

 199,42;   87,471;   63,873;  150,055;27,38121
 200,02;  111,345;   92,669;  145,732;35,19623
 200,62;   64,437;   67,563;   88,793;-14,72312
 201,22;  106,694;   86,969;  138,011;38,64553
 201,82;   84,819;   66,174;  141,790;24,65669
 202,42;  116,662;  101,668;  154,973;28,12797
 203,03;   60,246;   60,168;   91,775; 0,24837
 203,63;   89,114;   69,967;  109,037;49,00591
 204,23;   80,741;   70,671;  129,903;17,00087
 204,83;   95,748;   74,567;  123,718;43,09278
 205,43;   77,371;   56,673;  123,555;30,94656
 206,03;   57,864;   50,167;   90,459;19,10474
 206,63;   66,735;   68,865;  100,007;-6,83952
 207,24;  109,084;   74,675;  162,566;39,14882
 207,84;   58,281;   39,967;   83,699;41,87885
 208,44;   70,294;   50,669;   95,011;44,25933
 209,04;   52,918;   47,365;   85,066;14,72885
 209,64;   93,972;   69,972;  127,998;41,36062
 210,24;   62,548;   45,367;   97,218;33,13448
 210,84;   68,977;   51,469;  101,970;34,66918
 211,44;  104,110;   86,470;  122,908;48,41097
 212,05;   72,818;   60,865;   99,266;31,12637
 212,65;   86,546;   66,368;  112,975;43,29463
 213,25;  101,862;   93,768;  142,073;16,75504
 213,85;   90,850;   84,465;  114,904;20,97611
 214,45;   63,748;   53,367;  100,418;22,06240
 215,05;   49,377;   39,369;  100,070;16,48782
 215,65;   63,660;   55,169;  105,630;16,82757
 216,25;   44,448;   40,267;   82,518; 9,89470
 216,85;   49,611;   34,069;   89,651;27,96274
 217,45;   70,946;   49,068;   97,375;45,29017
 218,05;   66,859;   58,270;  112,886;15,72622
 218,66;   45,828;   28,769;   75,692;36,35611
 219,26;   50,614;   26,567;   79,337;45,56871
 219,86;   58,275;   36,771;   81,584;47,98580
 220,46;   81,476;   54,270;  104,127;54,56822
 221,06;   73,741;   51,871;  115,903;34,15474
 221,66;   61,990;   43,471;  103,481;30,85964
 222,26;   60,072;   39,772;  102,398;32,41445
 222,86;   79,096;   67,268;  118,954;22,88347
 223,46;   75,048;   51,767;   88,918;62,66449
 224,06;   76,558;   64,971;  120,343;20,92545
 224,66;   84,625;   57,570;  105,805;56,08990
 225,26;   72,727;   48,169;  113,748;37,44672
 225,86;   79,321;   42,173;  112,376;52,91559
 226,46;   59,279;   49,968;  102,913;17,58512
 227,06;   52,325;   27,670;   87,705;41,06769
 227,66;   56,367;   37,665;   74,845;50,30160
 228,27;   62,276;   29,270;   96,227;49,29445
 228,87;   95,542;   89,170;  143,046;11,82736
 229,47;   60,855;   29,172;   92,357;50,14284
 230,07;   30,327;   11,169;   59,648;39,51647
 230,67;   49,311;   38,169;   84,651;23,97112
 231,27;   42,276;   27,670;   76,327;30,01850
 231,87;   67,211;   43,169;  100,751;41,75300
 232,47;   83,817;   43,775;  132,047;45,36231
 233,07;   56,852;   42,965;   75,547;42,62078
 233,67;   70,546;   53,768;   94,275;41,42083
 234,27;   28,464;    0,567;   53,259;52,94488
 234,87;   48,175;   34,771;  106,084;18,79594
 235,47;   30,827;   16,169;   74,148;25,28017
 236,07;   30,783;   30,266;   72,042; 1,23711
 236,67;   64,615;   49,966;   85,180;41,59939
 237,27;   56,937;   28,873;  109,074;34,99177
 237,87;   51,825;   25,370;   99,805;35,54107
 238,47;   26,445;   14,269;   68,032;22,64799
 239,07;   52,389;   33,272;   95,738;30,60335
 239,67;   72,398;   43,477;  131,421;32,88575
 240,27;   68,621;   46,773;  119,176;30,17619
 240,87;   63,120;   50,773;  119,533;17,95602
 241,47;   51,270;   39,164;   76,131;32,74841
 242,07;   41,312;   39,968;   92,894; 2,54024
 242,67;   24,254;  -11,027;   77,914;39,66736
 243,27;   23,648;    7,767;   46,418;41,08700
 243,87;   61,158;   48,671;  108,343;20,92580
 244,47;   53,841;   22,371;   99,703;40,69462
 245,07;   26,177;    2,669;   55,770;44,27089
 245,67;   49,846;   31,068;   85,575;34,45130
 246,27;   33,835;   34,965;   69,007;-3,31932
 246,87;   41,496;   26,668;   63,154;40,63928
 247,46;   10,737;   19,663;   23,793;-216,12399
 248,06;   37,559;   20,470;   69,786;34,65193
 248,66;   48,272;   31,072;  105,898;22,98643
 249,26;   40,183;   32,366;   70,742;20,36882
 249,86;   60,021;   42,873;  102,176;28,91671
 250,46;   45,600;   16,775;   93,507;37,56639
 251,06;   30,346;   22,168;   65,375;18,92848
 251,66;   23,892;   20,771;   64,724; 7,10066
 252,26;   50,249;   38,866;   70,261;36,25652
 252,86;   43,377;   35,969;   89,070;13,95128
 253,46;    5,548;   -8,033;   22,118;45,04171
 254,06;   29,500;   31,766;   79,483;-4,74914
 254,66;   42,871;   34,973;  100,155;12,11626
 255,26;   76,404;   39,073;  118,836;46,80321
 255,86;   31,570;   37,464;   55,631;-32,44167
 256,46;   24,310;   19,870;   70,208; 8,82066
 257,05;   31,008;   23,570;   59,565;20,66436
 257,65;   65,475;   38,071;   97,684;45,96964
 258,25;   57,955;   37,372;  101,457;32,11787
 258,85;   32,077;   15,669;   51,770;45,45106
 259,45;   23,411;    6,869;   42,951;45,84613
 260,05;   44,448;   46,667;   85,818;-5,66870
 260,65;   53,249;   45,066;   83,561;21,25667
 261,25;   41,158;   29,371;   85,943;20,83512
 261,85;   11,007;   -0,129;   47,622;23,32093
 262,45;   62,177;   46,169;  109,270;25,36930
 263,04;   69,888;   53,073;  116,295;26,59599
 263,64;   46,297;   33,767;   77,097;28,91707
 264,24;   68,324;   37,671;   89,062;59,64613
 264,84;   90,152;   58,974;  138,671;39,12111
 265,44;   30,263;   26,368;   67,716; 9,42130
 266,04;   47,433;   48,865;   71,464;-6,33722
 266,64;   56,715;   39,866;   86,780;35,91422
 267,24;   44,315;   40,166;   68,980;14,39841
 267,84;   40,262;   24,668;   76,573;30,04264
 268,43;   61,729;   48,368;   95,935;28,08995
 269,03;   52,428;   46,969;   87,892;13,34054
 269,63;   59,766;   58,566;   92,402; 3,54596
 270,23;   12,167;   10,765;   39,045; 4,95742
 270,83;   58,549;   55,266;   83,161;11,76830
 271,43;   30,180;   23,967;   58,856;17,80676
 272,03;   61,263;   64,168;   99,116;-8,31086
 272,62;   31,260;   23,269;   68,730;17,57851
 273,22;   25,242;   11,970;   61,046;27,04405
 273,82;   19,875;   17,460;   26,403;27,00245
 274,42;   24,853;   25,164;   46,890;-1,43055
 275,02;   40,468;   34,864;   60,388;21,95656
 275,62;   57,055;   31,972;  100,457;36,62516
 276,21;   46,893;   22,770;   69,267;51,88027
 276,81;   45,481;   46,767;   71,099;-5,28230
 277,41;   43,673;   22,971;   96,341;28,21593
 278,01;   16,568;   21,364;   42,788;-22,38631
 278,61;   56,594;   38,869;   83,811;39,44072
 279,20;   75,121;   65,473;  119,076;18,00001
 279,80;    8,723;    6,762;   11,539;41,06279
 280,40;   44,283;   36,866;   79,742;17,29815
 281,00;    0,394;   -4,331;   33,311;12,55338
 281,60;   53,969;   20,774;   74,812;61,43003
 282,20;   43,510;   36,670;   70,108;20,45606
 282,79;   33,929;   29,568;   70,135;10,75135
 283,39;   21,466;   17,466;   44,702;14,68584
 283,99;   18,752;   23,165;   34,347;-39,46187
 284,59;   21,344;   16,869;   45,289;15,74341
 285,19;   27,664;   27,067;   57,759; 1,94730
 285,78;   38,810;   23,270;   63,808;38,33448
 286,38;   44,135;   39,665;   59,207;22,87374
 286,98;   50,629;   35,168;   73,535;40,29916
 287,58;   21,241;    4,771;   61,403;29,08243
 288,17;   33,404;    8,973;   80,336;34,23573
 288,77;   52,616;   19,976;   92,504;45,00334
 289,37;   19,177;   11,269;   57,670;17,04333
 289,97;   42,252;   48,965;   66,647;-37,96313
 290,57;   46,540;   46,672;   93,260;-0,28374
 291,16;   74,763;   63,868;  102,616;28,11891
 291,76;   24,242;    5,570;   47,346;44,69592
 292,36;   32,414;   34,367;   58,137;-8,21796
 292,96;   23,738;   -3,127;   60,117;42,47924
 293,55;   43,781;   24,267;   65,399;47,44343
 294,15;   38,493;   26,870;   62,567;32,55991
 294,75;   47,335;   42,065;   66,207;21,82914
 295,35;   27,663;   21,068;   52,016;21,31160
 295,94;   43,698;   42,967;   66,740; 3,07787
 296,54;   37,779;   30,768;   70,613;17,59428
 297,14;   44,090;   29,971;   76,881;30,09778
 297,73;   12,884;   12,165;   40,085; 2,57505
 298,33;   38,900;   28,066;   57,583;36,70371
 298,93;   45,996;   41,968;   82,554; 9,92333
 299,53;   28,206;   24,872;   69,079; 7,54129
 300,12;   21,190;  -12,229;   59,481;46,60280
 300,72;   55,197;   41,567;   91,197;27,46273
 301,32;   44,675;   25,771;   99,584;25,61057
 301,92;    7,436;    3,664;   33,050;12,83659
 302,51;   36,531;   11,567;   49,978;64,99146
 303,11;   29,064;   14,667;   48,759;42,23192
 303,71;   40,445;   21,369;   82,132;31,39443
 304,30;   23,216;    5,466;   38,423;53,85958
 304,90;   23,100;   19,666;   44,283;13,94907
 305,50;   37,567;   18,565;   64,345;41,50742
 306,09;   34,183;   15,466;   49,042;55,74399
 306,69;   52,624;   34,171;   90,262;32,89801
 307,29;   13,292;   18,760;   33,144;-38,01745
 307,88;   51,944;   43,269;   72,489;29,68624
 308,48;   14,276;    0,070;   49,727;28,60846
 309,08;    0,971;   -4,437;   11,774;33,36186
 309,68;   22,984;   22,365;   39,585; 3,59437
 310,27;   37,660;   20,169;   49,830;58,97189
 310,87;   39,679;   23,468;   54,813;51,71639
 311,47;   45,048;   54,967;   92,918;-26,13713
 312,06;   53,801;   47,865;   68,426;28,87026
 312,66;   65,763;   51,168;  100,016;29,87945
 313,26;   55,792;   48,571;   96,224;15,15305
 313,85;   35,364;   38,267;   65,959;-10,48082
 314,45;   56,294;   42,969;   86,611;30,53346
 315,04;   65,801;   52,165;   81,826;45,97293
 315,64;   35,097;   21,267;   47,897;51,93362
 316,24;   47,576;   40,770;   85,627;15,17291
 316,83;   47,583;   40,366;   76,742;19,83930
 317,43;   34,880;   35,167;   68,156;-0,87138
 318,03;   44,004;   39,063;   70,012;15,96278
 318,62;   68,057;   73,061;   94,820;-22,99997
 319,22;   32,462;    7,668;   66,973;41,80715
 319,82;   50,163;   40,768;   93,516;17,81208
 320,41;   71,745;   59,069;   98,732;31,95974
 321,01;   77,467;   80,465;  115,945;-8,45008
 321,60;   69,553;   81,164;  102,790;-53,68744
 322,20;   78,671;   67,673;  132,855;16,87220
 322,80;   72,497;   54,567;   91,797;48,15981
 323,39;   60,285;   65,764;   94,828;-18,85109
 323,99;   57,349;   61,766;  102,661;-10,80133
 324,59;   77,404;   73,063;   97,512;17,75257
 325,18;   65,231;   40,967;   92,178;47,38005
 325,78;   79,484;   76,365;  108,885; 9,59084
 326,37;   76,146;   74,868;  108,075; 3,85003
 326,97;   68,797;   63,267;  111,497;11,46516
 327,57;   37,437;   42,263;   76,493;-14,09790
 328,16;   63,370;   60,864;   93,631; 7,64851
 328,76;   72,698;   50,467;  110,140;37,25579
 329,35;   82,975;   56,871;  137,484;32,38177
 329,95;   52,210;   27,470;   91,308;38,75439
 330,54;   68,248;   52,167;   94,018;38,42332
 331,14;   50,081;   26,967;   82,599;41,54886
 331,74;   73,367;   54,165;   96,145;45,74110
 332,33;   54,576;   35,370;  108,127;26,39760
 332,93;   55,736;   43,764;   79,250;33,73769
 333,52;   64,566;   42,466;   93,102;43,64466
 334,12;   93,428;   72,069;  140,392;31,26235
 334,71;   41,483;   50,666;   87,942;-24,63538
 335,31;   82,564;   63,267;  119,859;34,09970
 335,90;   35,139;   32,362;   53,836;12,92947
 336,50;   48,935;   30,665;   77,207;39,25477
 337,10;   70,360;   38,769;  121,530;38,17197
 337,69;   71,535;   51,765;   93,707;47,13639
 338,29;   45,314;   30,467;  101,037;21,03812
 338,88;   39,296;   22,468;   99,854;21,74495
 339,48;   61,156;   57,862;  111,677; 6,12005
 340,07;   63,332;   48,566;  107,321;25,13129
 340,67;   71,075;   31,171;  124,784;42,62644
 341,26;   69,883;   48,466;   98,942;42,42939
 341,86;   87,327;   61,469;  138,348;33,63362
 342,45;   70,644;   45,669;  142,689;25,74140
 343,05;   59,944;   27,269;  115,689;36,95357
 343,64;   62,515;   47,366;  122,480;20,16770
 344,24;   40,135;   28,765;   92,107;17,95017
 344,83;   67,552;   71,365;  121,747;-7,56796
 345,43;   57,398;   29,667;  114,240;32,79019
 346,02;   52,311;   41,469;  124,351;13,08159
 346,62;   78,292;   40,971;  140,424;37,52595
 347,21;   70,184;   42,165;  131,985;31,19448
 347,81;   66,440;   26,172;  140,560;35,20280
 348,40;   41,770;   29,064;  100,731;17,72944
 349,00;   61,604;   49,163;  137,712;14,04907
 349,59;   97,542;   65,870;  177,846;28,28475
 350,19;   60,092;   32,571;  139,424;25,75575
 350,78;   66,164;   55,467;  140,759;12,54242
 351,38;   46,711;   15,869;  140,951;24,65763
 351,97;   53,898;   26,767;  136,040;24,82925
 352,57;   62,176;   42,570;  155,827;17,31117
 353,16;   52,885;   30,564;  134,328;21,51139
 353,76;   63,942;   38,770;  169,846;19,20422
 354,35;   53,127;   27,669;  160,148;19,21602
 354,95;   78,093;   43,970;  182,067;24,70942
 355,54;   67,462;   38,368;  163,973;23,16275
 356,14;   57,227;   40,069;  164,749;13,76109
 356,73;   64,456;   29,162;  145,176;30,42163
 357,32;   43,145;   13,769;  164,432;19,49799
 357,92;   63,423;   17,772;  181,419;27,89581
 358,51;   87,906;   43,372;  214,179;26,07259
 359,11;   60,540;   36,772;  212,360;13,53612
 359,70;   57,308;   28,470;  189,965;17,85697
 360,30;   79,123;   54,562;  188,039;18,40135
 360,89;   51,196;   31,168;  188,054;12,76564
 361,48;   81,493;   55,570;  216,467;16,11157
 362,08;   50,180;   19,867;  187,156;18,11990
 362,67;   63,837;   39,763;  192,693;15,74205
 363,27;   96,031;   60,767;  247,678;18,86657
 363,86;   80,867;   35,765;  215,745;25,05947
 364,46;   93,070;   44,664;  257,231;22,77218
 365,05;  109,578;   64,659;  254,989;23,60055
 365,64;  102,560;   50,960;  269,706;23,58895
 366,24;  101,379;   38,558;  309,432;23,19200
 366,83;  126,034;   43,255;  335,383;28,33645
 367,43;  127,351;   51,545;  352,843;25,15996
 368,02;  148,148;   34,646;  399,757;31,08709
 368,61;  180,494;   62,239;  475,425;28,62038
 369,21;  147,743;   32,419;  445,299;27,93159
 369,80;  194,648;   43,007;  526,947;31,33462
 370,39;  237,283;   62,006;  604,971;32,28144
 370,99;  230,428;   42,089;  615,416;32,85018
 371,58;  231,519;   22,974;  630,953;34,30143
 372,18;  270,799;   37,166;  701,603;35,16256
 372,77;  247,976;   42,449;  679,385;32,26806
 373,36;  263,331;   42,747;  690,836;34,03610
 373,96;  268,633;   35,135;  639,498;38,63528
 374,55;  242,052;   29,844;  621,406;35,87247
 375,14;  232,693;   42,849;  573,826;35,75372
 375,74;  238,714;   69,157;  543,276;35,76242
 376,33;  199,202;   45,964;  464,589;36,60495
 376,92;  168,696;   33,278;  447,997;32,65290
 377,52;  236,770;   86,103;  548,460;32,58665
 378,11;  193,871;   46,703;  457,203;35,85104
 378,71;  216,673;   73,011;  514,270;32,55736
 379,30;  222,747;   59,517;  553,928;33,01508
 379,89;  216,037;   59,813;  556,103;31,47836
 380,49;  223,346;   31,018;  568,185;35,80413
 381,08;  272,849;   70,306;  570,990;40,45324
 381,67;  250,496;   55,008;  555,483;39,06046
 382,26;  249,149;   41,706;  539,390;41,68166
 382,86;  232,204;   54,003;  516,041;38,56839
 383,45;  252,121;   50,412;  562,105;39,41993
 384,04;  248,355;   38,712;  553,886;40,69362
 384,64;  255,836;   49,014;  566,760;39,94658
 385,23;  261,415;   64,406;  560,509;39,71131
 385,82;  277,933;   59,615;  592,774;40,94798
 386,42;  317,669;   61,024;  659,022;42,91739
 387,01;  302,769;   55,414;  580,541;47,10398
 387,60;  308,994;   69,009;  590,140;46,05093
 388,20;  287,621;   37,712;  590,805;45,18391
 388,79;  347,195;   72,418;  665,563;46,32541
 389,38;  306,849;   32,106;  564,890;51,56740
 389,97;  345,367;   45,415;  640,955;50,36636
 390,57;  366,185;   71,114;  654,038;50,61907
 391,16;  372,385;   62,514;  655,838;52,22622
 391,75;  365,220;   52,713;  638,562;53,34255
 392,34;  386,974;   60,821;  696,694;51,29224
 392,94;  392,261;   44,718;  689,683;53,88563
 393,53;  368,765;   41,016;  666,612;52,38997
 394,12;  413,287;   53,023;  719,105;54,08705
 394,72;  424,003;   54,213;  706,122;56,72419
 395,31;  429,833;   42,115;  694,874;59,39680
 395,90;  446,852;   42,924;  732,881;58,54394
 396,49;  482,796;   58,028;  779,187;58,90074
 397,09;  481,530;   47,417;  749,188;61,85971
 397,68;  524,185;   44,025;  800,719;63,45493
 398,27;  527,048;   54,626;  809,652;62,57029
 398,86;  528,517;   43,125;  807,657;63,48876
 399,45;  573,741;   56,630;  844,037;65,67270
 400,05;  526,709;   23,820;  799,518;64,83059
 400,64;  574,928;   56,419;  831,001;66,94042
 401,23;  602,642;   53,920;  859,956;68,07660
 401,82;  610,142;   67,220;  868,256;67,77746
 402,42;  635,157;   62,921;  873,953;70,55655
 403,01;  667,685;   81,525;  912,919;70,50322
 403,60;  684,806;   68,532;  940,513;70,67524
 404,19;  671,418;   76,024;  931,900;69,56547
 404,78;  678,922;   57,522;  909,929;72,89946
 405,38;  740,422;   68,332;  984,210;73,38201
 405,97;  717,982;   63,226;  953,933;73,50967
 406,56;  747,845;   71,528; 1004,366;72,50107
 407,15;  754,010;   68,829;  989,442;74,42665
 407,74;  781,792;   80,730; 1026,758;74,10583
 408,34;  770,188;   50,933; 1018,629;74,32656
 408,93;  797,657;   59,531; 1016,234;77,15308
 409,52;  800,467;   51,435; 1041,359;75,66559
 410,11;  849,623;   84,931; 1090,453;76,04926
 410,70;  825,097;   54,727; 1027,230;79,21519
 411,29;  860,879;   58,628; 1030,847;82,51755
 411,89;  877,616;   60,535; 1093,938;79,06708
 412,48;  862,662;   48,228; 1051,606;81,16921
 413,07;  911,470;   65,033; 1101,446;81,66987
 413,66;  930,250;   78,135; 1102,119;83,21569
 414,25;  924,597;   63,337; 1142,311;79,82210
 414,84;  933,857;   69,431; 1102,434;83,68086
 415,44;  954,426;   91,530; 1155,939;81,06806
 416,03;  972,064;   76,637; 1161,173;82,56317
 416,62;  970,762;   76,138; 1168,687;81,88407
 417,21;  999,285;   75,334; 1158,843;85,27399
 417,80;  987,880;   65,037; 1162,871;84,06036
 418,39;  999,959;   78,440; 1179,201;83,71655
 418,98;  989,853;   55,634; 1143,405;85,88379
 419,58;  996,821;   64,033; 1142,067;86,52673
 420,17;  995,301;   52,735; 1164,540;84,77797
 420,76; 1029,164;   72,537; 1192,873;85,38754
 421,35; 1008,100;   60,236; 1155,197;86,56595
 421,94; 1060,759;   88,340; 1223,501;85,66354
 422,53; 1014,925;   61,540; 1195,320;84,08910
 423,12; 1024,711;   64,039; 1190,766;85,26223
 423,71; 1025,716;   60,835; 1162,138;87,61272
 424,30; 1043,615;   85,236; 1210,695;85,15452
 424,90; 1010,412;   39,438; 1163,809;86,35716
 425,49; 1067,976;   70,140; 1216,242;87,06350
 426,08; 1079,776;   80,240; 1209,641;88,50139
 426,67; 1039,183;   57,436; 1168,257;88,38030
 427,26; 1064,821;   60,343; 1230,391;85,84935
 427,85; 1068,396;   63,238; 1209,968;87,65424
 428,44; 1070,906;   68,442; 1218,093;87,19720
 429,03; 1097,273;   85,341; 1233,155;88,16166
 429,62; 1084,090;   78,941; 1240,296;86,54970
 430,21; 1098,003;   81,443; 1277,807;84,97079
 430,80; 1081,084;   70,445; 1235,381;86,75489
 431,39; 1081,369;   53,344; 1246,926;86,12941
 431,99; 1093,317;   78,535; 1206,838;89,93876
 432,58; 1098,811;   82,639; 1251,166;86,96183
 433,17; 1095,750;   69,735; 1238,319;87,79988
 433,76; 1128,247;   71,347; 1288,314;86,84710
 434,35; 1134,217;   88,245; 1292,462;86,85915
 434,94; 1116,628;   70,849; 1318,887;83,79381
 435,53; 1109,471;   78,643; 1278,669;85,90043
 436,12; 1102,186;   70,044; 1294,267;84,31001
 436,71; 1122,792;   87,740; 1303,239;85,15446
 437,30; 1129,924;   76,941; 1299,177;86,15219
 437,89; 1129,834;   76,245; 1320,802;84,65576
 438,48; 1137,538;   65,942; 1305,731;86,43373
 439,07; 1138,445;   95,238; 1347,147;83,32932
 439,66; 1170,763;   83,648; 1375,711;84,13791
 440,25; 1161,986;   85,844; 1390,567;82,48053
 440,84; 1153,243;   79,850; 1387,984;82,05527
 441,43; 1203,718;   78,054; 1440,985;82,59140
 442,02; 1166,076;   79,650; 1411,022;81,60193
 442,61; 1195,869;   93,344; 1397,226;84,55713
 443,20; 1208,560;   94,249; 1446,625;82,39654
 443,79; 1183,548;   74,546; 1412,957;82,85966
 444,38; 1233,012;   84,248; 1461,789;83,39234
 444,97; 1234,833;   84,146; 1466,359;83,24960
 445,56; 1289,582;  101,846; 1477,038;86,36878
 446,15; 1280,957;   81,651; 1522,539;83,23385
 446,74; 1297,353;   58,644; 1462,286;88,24962
 447,33; 1338,048;   82,646; 1538,357;86,23984
 447,92; 1376,291;   78,151; 1570,720;86,97356
 448,51; 1412,016;   89,746; 1586,019;88,37093
 449,10; 1432,567;   92,045; 1608,840;88,37855
 449,69; 1462,842;   73,950; 1627,741;89,38728
 450,28; 1481,880;   66,948; 1608,251;91,80098
 450,87; 1526,313;   78,647; 1656,333;91,75886
 451,46; 1560,578;   96,048; 1702,208;91,18206
 452,05; 1603,643;   70,950; 1715,384;93,20489
 452,64; 1652,459;   70,850; 1725,182;95,60408
 453,23; 1694,773;  113,752; 1794,936;94,04210
 453,82; 1729,108;   83,451; 1800,660;95,83323
 454,40; 1749,759;   65,450; 1786,682;97,85484
 454,99; 1832,887;  101,253; 1871,891;97,79720
 455,58; 1821,281;   69,747; 1832,095;99,38640
 456,17; 1866,888;   63,852; 1873,634;99,62729
 456,76; 1916,491;   67,751; 1918,820;99,87420
 457,35; 1957,112;   78,348; 1930,490;101,43739
 457,94; 2015,520;   66,954; 1978,929;101,91378
 458,53; 2013,925;   67,350; 2010,101;100,19684
 459,12; 2115,597;   82,657; 2111,116;100,22093
 459,71; 2100,746;   58,148; 2060,071;102,03181
 460,30; 2151,363;   84,448; 2087,511;103,18771
 460,89; 2186,191;   57,551; 2129,920;102,71532
 461,48; 2228,420;   75,954; 2173,829;102,60221
 462,06; 2232,409;   68,050; 2187,303;102,12839
 462,65; 2254,445;   48,249; 2176,527;103,66104
 463,24; 2342,749;   87,456; 2288,680;102,45631
 463,83; 2333,609;   54,450; 2229,803;104,77191
 464,42; 2379,828;   88,349; 2333,687;102,05495
 465,01; 2407,759;   73,050; 2336,482;103,14906
 465,60; 2413,076;   64,050; 2384,322;101,23923
 466,19; 2467,520;   73,354; 2462,829;100,19632
 466,77; 2510,057;   81,551; 2462,939;101,97862
 467,36; 2501,014;   69,457; 2459,256;101,74734
 467,95; 2493,940;   79,551; 2466,098;101,16662
 468,54; 2579,752;   71,954; 2513,866;102,69811
 469,13; 2556,190;   69,452; 2535,977;100,81949
 469,72; 2582,251;   67,555; 2582,723;99,98121
 470,31; 2604,317;   87,855; 2629,242;99,01922
 470,90; 2603,426;   76,750; 2652,044;98,11215
 471,48; 2633,281;   32,057; 2671,875;98,53798
 472,07; 2665,764;  125,747; 2686,454;99,19202
 472,66; 2672,138;   67,853; 2748,412;97,15453
 473,25; 2669,357;   68,351; 2723,339;97,96679
 473,84; 2677,401;   55,955; 2766,545;96,71129
 474,43; 2714,861;   55,459; 2843,049;95,40148
 475,01; 2746,335;   69,254; 2885,926;95,04412
 475,60; 2727,167;   49,755; 2882,364;94,52107
 476,19; 2749,179;   74,158; 2956,932;92,79329
 476,78; 2761,114;   71,057; 2964,456;92,97221
 477,37; 2743,968;   59,355; 2945,364;93,02163
 477,95; 2790,983;   75,656; 3018,661;92,26375
 478,54; 2811,087;   63,253; 3023,691;92,81851
 479,13; 2818,287;   56,253; 3070,291;91,63901
 479,72; 2844,086;   81,154; 3090,147;91,82246
 480,31; 2889,427;   63,459; 3167,468;91,04253
 480,89; 2864,135;   60,254; 3171,026;90,13457
 481,48; 2901,609;   46,260; 3214,084;90,13596
 482,07; 2906,152;   61,654; 3233,866;89,66922
 482,66; 2928,770;   52,853; 3253,650;89,85003
 483,25; 2997,209;   78,960; 3319,884;90,04373
 483,83; 2987,418;   59,954; 3325,385;89,65015
 484,42; 3006,420;   54,354; 3355,129;89,43554
 485,01; 3069,613;   65,958; 3400,413;90,07932
 485,60; 3112,553;   73,764; 3490,590;88,93601
 486,18; 3078,783;   66,956; 3490,761;87,96724
 486,77; 3124,173;   67,252; 3519,736;88,54264
 487,36; 3147,536;   58,464; 3561,750;88,17642
 487,95; 3186,625;   59,161; 3640,781;87,31979
 488,53; 3180,641;   54,461; 3642,522;87,12729
 489,12; 3194,521;   50,563; 3722,252;85,62700
 489,71; 3172,589;   38,062; 3680,357;86,05912
 490,30; 3208,675;   61,460; 3742,503;85,49791
 490,88; 3264,907;   87,561; 3859,141;84,24444
 491,47; 3262,004;   60,663; 3867,512;84,09424
 492,06; 3280,088;   62,563; 3920,615;83,39767
 492,65; 3279,474;   59,161; 3947,060;82,82913
 493,23; 3272,226;   54,860; 3982,825;81,90923
 493,82; 3255,604;   65,853; 4018,031;80,70869
 494,41; 3292,040;   51,361; 4066,179;80,71796
 494,99; 3310,101;   73,655; 4126,945;79,84740
 495,58; 3334,575;   86,060; 4224,403;78,49796
 496,17; 3295,649;   56,356; 4198,681;78,19989
 496,76; 3324,983;   65,356; 4276,761;77,39999
 497,34; 3266,164;   54,557; 4305,235;75,55516
 497,93; 3306,781;   66,057; 4350,675;75,63622
 498,52; 3304,893;   60,059; 4454,387;73,84142
 499,10; 3289,073;   75,862; 4533,217;72,08783
 499,69; 3284,360;   55,360; 4537,006;72,04942
 500,28; 3198,427;   37,959; 4592,068;69,39817
 500,86; 3257,623;   62,862; 4698,539;68,91683
 501,45; 3241,923;   53,462; 4730,438;68,17356
 502,04; 3206,189;   53,362; 4813,958;66,22759
 502,62; 3190,549;   70,956; 4856,181;65,19220
 503,21; 3123,615;   57,856; 4939,699;62,79922
 503,80; 3157,156;   69,662; 5015,577;62,42513
 504,38; 3132,126;   58,460; 5081,425;61,19226
 504,97; 3105,156;   49,962; 5122,776;60,22679
 505,56; 3115,078;   70,859; 5194,989;59,40948
 506,14; 3090,819;   64,064; 5263,709;58,21080
 506,73; 3031,635;   23,565; 5292,507;57,09059
 507,32; 3080,067;   62,865; 5376,045;56,78712
 507,90; 3049,509;   70,860; 5443,284;55,44330
 508,49; 3023,818;   58,865; 5500,366;54,48778
 509,08; 3007,370;   67,264; 5571,931;53,41115
 509,66; 3043,092;   69,960; 5677,644;53,01890
 510,25; 3008,991;   63,561; 5737,400;51,91246
 510,83; 3016,635;   45,165; 5855,607;51,14017
 511,42; 3036,279;   61,968; 5895,913;50,98283
 512,01; 3008,885;   59,164; 5980,328;49,81657
 512,59; 3038,156;   46,562; 6041,676;49,90052
 513,18; 3013,640;   59,961; 6114,379;48,78551
 513,77; 3041,831;   42,257; 6171,797;48,93637
 514,35; 3057,605;   37,763; 6190,255;49,08324
 514,94; 3122,172;   58,662; 6323,517;48,89994
 515,52; 3107,183;   48,166; 6358,342;48,47752
 516,11; 3179,751;   80,665; 6474,047;48,47335
 516,69; 3135,810;   41,959; 6446,727;48,30544
 517,28; 3145,496;   83,358; 6541,973;47,41169
 517,87; 3180,730;   45,558; 6604,054;47,80322
 518,45; 3240,662;   74,858; 6626,192;48,32305
 519,04; 3254,712;   54,258; 6707,970;48,10027
 519,62; 3246,588;   55,863; 6774,114;47,49339
 520,21; 3277,166;   24,466; 6828,002;47,80896
 520,79; 3334,946;   52,068; 7000,875;47,24377
 521,38; 3352,858;   52,960; 6995,363;47,53250
 521,97; 3360,396;   43,068; 7141,554;46,73289
 522,55; 3389,095;   67,759; 7195,230;46,59908
 523,14; 3422,578;   26,759; 7180,289;47,47054
 523,72; 3498,441;   77,561; 7383,422;46,82379
 524,31; 3485,935;   71,665; 7406,107;46,55119
 524,89; 3494,063;   48,468; 7526,815;46,07429
 525,48; 3489,115;   21,666; 7603,580;45,73316
 526,06; 3526,685;   56,264; 7633,128;45,80287
 526,65; 3578,825;   72,370; 7803,105;45,35733
 527,23; 3556,722;   46,262; 7840,596;45,03861
 527,82; 3607,031;   37,967; 7905,978;45,36170
 528,41; 3619,032;   67,366; 8041,021;44,54251
 528,99; 3593,518;   66,365; 8108,167;43,86023
 529,58; 3607,339;   42,562; 8168,736;43,86783
 530,16; 3624,440;   49,461; 8315,379;43,24963
 530,75; 3683,302;   73,964; 8417,069;43,26133
 531,33; 3623,415;   45,566; 8440,980;42,61670
 531,92; 3651,392;   48,560; 8567,344;42,29280
 532,50; 3691,993;   87,770; 8706,468;41,81865
 533,09; 3714,550;   65,665; 8807,204;41,74191
 533,67; 3705,928;   63,458; 8952,011;40,97934
 534,26; 3696,543;   65,760; 9007,665;40,60413
 534,84; 3750,274;   68,461; 9127,061;40,64439
 535,42; 3788,002;   61,564; 9205,969;40,75102
 536,01; 3819,088;   79,263; 9330,215;40,42638
 536,59; 3924,666;   43,366; 9482,202;41,12053
 537,18; 3978,160;   77,360; 9568,605;41,09892
 537,76; 4120,856;   56,972; 9764,700;41,86237
 538,35; 4192,712;   59,368; 9892,694;42,03404
 538,93; 4354,885;   72,664; 9941,828;43,38991
 539,52; 4469,725;   57,370;10111,405;43,88641
 540,10; 4710,661;   63,269;10309,029;45,35917
 540,69; 4831,587;   68,763;10444,071;45,90537
 541,27; 4990,772;   58,262;10514,917;47,17102
 541,85; 5203,100;   47,366;10658,783;48,58667
 542,44; 5346,809;   56,460;10765,484;49,40085
 543,02; 5578,960;   80,369;10952,729;50,57403
 543,61; 5730,348;   77,067;11102,218;51,27622
 544,19; 5888,617;   55,066;11264,023;52,04365
 544,78; 5989,149;   62,766;11296,562;52,75495
 545,36; 6186,594;   77,469;11521,011;53,38492
 545,94; 6212,202;   54,564;11563,069;53,50511
 546,53; 6337,390;   52,771;11724,882;53,84304
 547,11; 6524,762;   90,668;11879,873;54,57614
 547,70; 6595,359;   75,860;11954,706;54,88327
 548,28; 6617,718;   47,965;12093,066;54,54294
 548,86; 6823,618;   81,365;12327,767;55,05497
 549,45; 6876,496;   33,768;12364,953;55,49124
 550,03; 6956,814;   76,467;12507,537;55,34799
 550,62; 7000,483;   63,566;12662,842;55,05806
 551,20; 7159,547;   61,467;12808,418;55,68454
 551,78; 7197,536;   61,164;12952,850;55,35639
 552,37; 7239,502;   55,864;13112,469;55,01919
 552,95; 7382,852;   56,765;13214,547;55,67874
 553,54; 7461,935;   49,965;13393,207;55,54849
 554,12; 7498,597;   67,167;13498,797;55,32783
 554,70; 7618,662;   67,568;13736,973;55,24084
 555,29; 7627,684;   61,965;13856,285;54,84663
 555,87; 7738,959;   60,170;13987,786;55,13355
 556,45; 7832,689;   57,162;14154,058;55,15773
 557,04; 7848,981;   43,667;14376,600;54,45721
 557,62; 7933,881;   68,867;14525,499;54,40420
 558,20; 7983,573;   42,671;14799,940;53,81010
 558,79; 8116,346;  100,368;14905,875;54,14187
 559,37; 8090,348;   49,867;15000,418;53,78050
 559,95; 8179,528;   46,669;15169,691;53,77800
 560,54; 8242,278;   71,768;15324,613;53,56712
 561,12; 8316,449;   50,866;15485,562;53,55197
 561,70; 8421,211;   50,369;15679,551;53,55905
 562,29; 8538,313;   61,768;15810,994;53,82197
 562,87; 8581,495;   73,168;16023,953;53,34112
 563,45; 8663,495;   71,068;16194,754;53,29071
 564,04; 8689,322;   54,362;16227,195;53,39176
 564,62; 8729,745;   37,769;16438,332;52,99804
 565,20; 8864,723;   59,962;16715,838;52,86279
 565,78; 8918,301;   70,765;16797,326;52,89513
 566,37; 8980,300;   71,066;17011,283;52,59221
 566,95; 9096,261;   52,969;17124,330;52,97347
 567,53; 9206,789;   67,262;17308,857;53,00859
 568,12; 9230,518;   62,265;17367,766;52,97884
 568,70; 9384,469;   85,264;17565,889;53,19721
 569,28; 9465,812;   61,069;17745,252;53,18166
 569,86; 9508,965;   67,767;17910,758;52,91264
 570,45; 9675,443;   78,569;18124,689;53,17971
 571,03; 9681,206;   53,962;18259,898;52,87970
 571,61; 9841,691;   46,571;18424,824;53,29734
 572,19; 9784,071;   54,263;18395,773;53,04802
 572,78; 9979,546;   70,668;18668,975;53,27839
 573,36;10026,202;   84,264;18797,668;53,12736
 573,94;10061,436;   44,064;18892,750;53,14626
 574,52;10156,927;   54,559;19030,768;53,23702
 575,11;10237,670;   37,264;19159,830;53,34225
 575,69;10231,815;   53,566;19268,680;52,97002
 576,27;10257,225;   47,161;19391,381;52,78095
 576,85;10372,902;   43,264;19549,668;52,95511
 577,44;10388,390;   30,262;19814,158;52,35636
 578,02;10444,594;   32,159;19753,887;52,79677
 578,60;10599,353;   50,464;20073,791;52,68300
 579,18;10670,721;   51,963;20160,752;52,80655
 579,76;10659,085;   40,264;20300,129;52,41309
 580,35;10710,609;   60,170;20436,707;52,26815
 580,93;10791,480;   59,667;20641,557;52,14202
 581,51;10806,893;   24,770;20697,168;52,15710
 582,09;10889,705;   58,663;20755,756;52,33123
 582,67;10983,748;   49,567;20971,318;52,26226
 583,26;10999,079;   28,568;21227,014;51,75149
 583,84;11030,520;   14,164;21413,709;51,47939
 584,42;11165,969;   48,064;21513,287;51,79496
 585,00;11263,515;   81,366;21772,180;51,55246
 585,58;11261,981;   25,167;21912,299;51,33982
 586,17;11331,142;   46,761;21948,521;51,52271
 586,75;11307,266;    6,666;22026,902;51,31916
 587,33;11442,331;   47,767;22191,678;51,45687
 587,91;11454,766;   74,866;22390,201;50,99587
 588,49;11485,189;   63,962;22349,758;51,24891
 589,07;11494,863;   45,468;22403,215;51,20997
 589,65;11512,398;   28,267;22444,439;51,23146
 590,24;11531,906;   42,562;22447,799;51,27973
 590,82;11528,174;   28,261;22484,160;51,21110
 591,40;11625,419;   41,464;22520,209;51,53293
 591,98;11575,510;   45,759;22558,227;51,21496
 592,56;11685,874;   61,161;22699,961;51,34863
 593,14;11643,210;   43,359;22728,928;51,13317
 593,72;11729,035;   29,765;22889,107;51,17938
 594,30;11703,493;   36,759;22797,486;51,25818
 594,89;11724,186;   41,364;22862,428;51,19315
 595,47;11772,241;   38,961;22922,623;51,27361
 596,05;11801,881;   30,267;23003,799;51,23990
 596,63;11838,881;   31,167;23056,199;51,28207
 597,21;11909,282;   36,766;23145,441;51,37688
 597,79;11855,099;   35,467;23166,039;51,09961
 598,37;11840,927;   36,669;23222,748;50,91097
 598,95;11948,266;   50,766;23305,301;51,16206
 599,53;11797,631;   46,757;23207,996;50,73508
 600,11;11899,951;   48,665;23341,947;50,87856
 600,70;11793,203;   57,363;23315,111;50,45991
 601,28;11853,819;   38,564;23424,809;50,52224
 601,86;11803,766;   61,766;23355,102;50,40927
 602,44;11777,474;   23,661;23449,660;50,17422
 603,02;11862,166;   38,656;23576,521;50,23187
 603,60;11825,279;   54,858;23663,232;49,85697
 604,18;11828,055;   69,263;23594,734;49,98324
 604,76;11724,305;   59,263;23642,154;49,46400
 605,34;11640,733;   27,565;23530,764;49,41101
 605,92;11558,157;   59,561;23453,719;49,15157
 606,50;11514,906;   17,662;23498,998;48,96333
 607,08;11467,715;   31,666;23394,881;48,94895
 607,66;11489,583;   39,266;23561,643;48,67840
 608,24;11390,965;   46,067;23522,059;48,32553
 608,82;11324,170;   26,164;23532,031;48,06462
 609,40;11220,132;   46,466;23471,021;47,70065
 609,98;11110,085;   18,864;23505,928;47,22268
 610,56;10986,059;   43,861;23497,662;46,65426
 611,14;10882,484;   30,765;23481,086;46,27536
 611,72;10811,918;   42,665;23572,467;45,76857
 612,30;10629,722;   24,962;23468,496;45,23533
 612,88;10508,694;   60,659;23517,730;44,54109
 613,46;10266,906;   21,862;23505,697;43,62594
 614,04;10081,562;   30,068;23461,873;42,89679
 614,62; 9867,824;   41,561;23489,982;41,90586
 615,20; 9643,563;   52,768;23402,416;41,07469
 615,78; 9380,660;   25,569;23463,430;39,91444
 616,36; 9174,336;   41,364;23400,150;39,09866
 616,94; 8874,982;    7,666;23272,242;38,11510
 617,52; 8653,180;   24,067;23373,656;36,95616
 618,10; 8509,444;   63,559;23336,107;36,29119
 618,68; 8289,300;   17,966;23253,184;35,59826
 619,26; 8214,229;   39,268;23398,834;34,99620
 619,84; 8108,854;   18,963;23277,133;34,78301
 620,42; 8045,334;   31,165;23313,506;34,42167
 621,00; 8049,235;   28,865;23209,607;34,59928
 621,58; 8118,660;   38,760;23216,406;34,86074
 622,16; 8192,608;   49,270;23335,164;34,97112
 622,74; 8286,982;   47,066;23327,742;35,39380
 623,32; 8426,517;   42,166;23291,223;36,06319
 623,90; 8536,574;   66,971;23311,484;36,43700
 624,48; 8586,206;   32,662;23196,598;36,92613
 625,05; 8692,606;   34,562;23105,098;37,52858
 625,63; 8839,706;   52,962;23188,799;37,97893
 626,21; 8830,222;   38,262;23117,596;38,09451
 626,79; 8986,848;   53,967;23219,719;38,56072
 627,37; 9005,473;   28,162;23090,717;38,92592
 627,95; 9083,563;   72,768;23200,215;38,96148
 628,53; 9027,335;   49,365;23176,607;38,81989
 629,11; 9034,761;   48,259;23043,449;39,07992
 629,69; 9079,045;   53,369;23256,932;38,89780
 630,27; 9069,454;   80,763;23105,434;39,03939
 630,84; 8950,006;   43,862;23021,197;38,76056
 631,42; 9037,680;   54,367;23319,656;38,61251
 632,00; 8921,327;   45,459;23125,768;38,45645
 632,58; 8871,387;   50,263;23105,172;38,26137
 633,16; 8902,926;   49,870;23096,906;38,41299
 633,74; 8792,368;   56,264;23018,488;38,04555
 634,32; 8768,208;   45,661;23007,842;37,98658
 634,90; 8731,242;   51,970;23195,746;37,50154
 635,47; 8608,992;   38,860;23035,645;37,26665
 636,05; 8541,208;   37,461;22989,342;37,05033
 636,63; 8490,135;   45,965;23104,807;36,62010
 637,21; 8474,485;   67,464;23150,529;36,42073
 637,79; 8428,650;   71,465;23192,904;36,14474
 638,37; 8240,334;   54,055;23070,883;35,56649
 638,94; 8169,984;   33,265;23100,686;35,27364
 639,52; 8126,384;   41,665;23195,285;34,91773
 640,10; 8053,058;   64,264;23215,900;34,50639
 640,68; 7986,215;   54,164;23175,334;34,30644
 641,26; 7888,272;   35,864;23250,268;33,82559
 641,84; 7793,830;   39,164;23235,002;33,43128
 642,41; 7705,387;   28,264;23192,936;33,14152
 642,99; 7693,744;   48,464;23145,568;33,10060
 643,57; 7624,501;   22,064;23158,402;32,85929
 644,15; 7577,159;   27,064;23178,035;32,61243
 644,73; 7594,316;   37,564;23277,568;32,51614
 645,30; 7583,074;   55,264;23230,303;32,48240
 645,88; 7519,531;   44,964;23362,635;32,05537
 646,46; 7525,288;   59,264;23447,568;31,92204
 647,04; 7590,545;   51,864;23367,902;32,33260
 647,61; 7607,003;   46,564;23396,336;32,37907
 648,19; 7654,460;   61,664;23433,369;32,48713
 648,77; 7773,917;   26,264;23442,002;33,08738
 649,35; 7799,675;   51,064;23590,137;32,91808
 649,92; 7887,632;   42,464;23596,070;33,30771
 650,50; 7884,589;   30,064;23551,104;33,39361
 651,08; 7945,446;   39,964;23450,537;33,76885
 651,66; 8036,404;   21,864;23534,770;34,08570
 652,23; 8107,361;   39,064;23561,004;34,30115
 652,81; 8142,218;   36,464;23644,137;34,33525
 653,39; 8243,476;   56,164;23647,170;34,70522
 653,97; 8217,133;   37,065;23882,504;34,30454
 654,54; 8150,290;   23,565;23823,137;34,14652
 655,12; 8243,147;   30,965;23831,971;34,50351
 655,70; 8255,505;   42,065;23962,805;34,33606
 656,28; 8245,563;   32,765;23947,037;34,34266
 656,85; 8223,520;   44,065;24051,070;34,07112
 657,43; 8185,177;   -1,035;23831,305;34,34917
 658,01; 8123,034;   21,465;24078,539;33,67645
 658,58; 8189,292;   55,165;24234,371;33,64100
 659,16; 8117,548;   51,965;24154,105;33,46418
 659,74; 8126,906;   59,465;24338,039;33,22864
 660,32; 8122,563;   71,665;24327,672;33,19136
 660,89; 8075,720;   34,265;24347,305;33,07466
 661,47; 8091,578;   51,665;24464,939;32,93255
 662,05; 8136,735;   25,365;24587,373;33,02405
 662,62; 8178,092;   59,665;24584,006;33,10355
 663,20; 8287,449;   80,665;24740,139;33,28045
 663,78; 8254,407;   47,965;24902,773;33,01752
 664,35; 8265,664;   52,465;24921,006;33,02646
 664,93; 8337,922;   64,465;25123,539;33,01581
 665,51; 8414,979;   49,565;25170,973;33,29994
 666,08; 8411,336;   30,165;25185,707;33,31739
 666,66; 8627,293;   47,465;25667,539;33,48869
 667,23; 8669,450;   51,765;25732,773;33,55665
 667,81; 8812,108;   65,865;25889,307;33,86939
 668,39; 8858,065;   43,265;26047,141;33,89803
 668,96; 8892,022;   54,665;26309,074;33,66047
 669,54; 8966,380;   38,765;26408,408;33,85565
 670,12; 8994,337;   51,165;26808,740;33,42295
 670,69; 9122,194;   64,165;26950,674;33,68987
 671,27; 9065,952;   25,565;27096,008;33,39579
 671,84; 9050,009;   40,665;27105,240;33,28832
 672,42; 9063,166;   66,265;27253,875;33,09191
 673,00; 9013,023;   57,165;27531,408;32,59729
 673,57; 8936,980;   59,965;27276,441;32,61633
 674,15; 8937,738;   64,065;27613,475;32,21003
 674,72; 8820,296;   58,565;27536,209;31,88676
 675,30; 8778,753;   69,466;27513,541;31,73467
 675,88; 8728,910;   36,266;27573,176;31,56725
 676,45; 8788,367;   59,466;27677,309;31,60602
 677,03; 8723,725;   67,866;27525,043;31,52494
 677,60; 8711,882;   41,466;27770,576;31,26828
 678,18; 8764,839;   59,466;27877,510;31,29398
 678,76; 8756,797;   40,766;27809,143;31,38834
 679,33; 8839,954;   57,666;27813,176;31,64160
 679,91; 8900,711;   44,266;27813,311;31,89323
 680,48; 8940,868;   28,766;27740,242;32,16033
 681,06; 9092,726;   50,866;27735,176;32,66059
 681,63; 9115,983;   37,566;27736,209;32,77568
 682,21; 9292,740;   67,966;27797,543;33,26691
 682,78; 9217,598;   20,566;27459,576;33,51809
 683,36; 9378,354;   46,966;27565,510;33,90946
 683,93; 9446,813;   30,466;27450,645;34,34094
 684,51; 9466,369;   26,166;27477,277;34,38915
 685,08; 9634,727;   38,966;27733,711;34,64831
 685,66; 9668,684;   53,066;27694,045;34,78754
 686,24; 9688,241;   33,766;27796,578;34,77485
 686,81; 9802,299;   57,666;27899,910;34,99945
 687,39; 9790,855;   38,866;27807,844;35,11829
 687,96; 9838,013;   54,166;27850,479;35,19836
 688,54; 9810,271;   30,866;27984,811;34,98399
 689,11; 9768,828;   26,966;28043,545;34,77178
 689,69; 9735,785;   29,666;28019,279;34,67757
 690,26; 9789,042;   59,466;28289,313;34,46556
 690,84; 9669,199;   50,066;28239,846;34,12277
 691,41; 9643,856;   35,966;28403,879;33,86887
 691,98; 9584,914;   31,466;28427,912;33,64311
 692,56; 9510,972;   32,866;28437,445;33,36823
 693,13; 9556,629;   64,866;28655,080;33,19934
 693,71; 9527,586;   24,466;28657,912;33,18888
 694,28; 9530,543;   41,966;28715,945;33,09124
 694,86; 9577,400;   47,266;28928,879;32,99724
 695,43; 9555,058;   61,366;29100,912;32,69229
 696,01; 9614,815;   36,266;29145,547;32,90548
 696,58; 9671,572;   42,167;29083,879;33,15716
 697,16; 9766,729;   38,067;29126,414;33,44522
 697,73; 9921,188;   63,467;29338,246;33,67308
 698,30; 9974,944;   51,867;29223,980;34,01563
 698,88;10093,802;   40,467;29558,613;34,05815
 699,45;10258,159;   35,367;29765,848;34,38489
 700,03;10420,816;   56,067;29750,980;34,90412
 700,60;10537,874;   56,267;29850,613;35,17985
 701,18;10786,531;   61,867;29963,947;35,86595
 701,75;10861,388;   74,367;30094,682;35,93240
 702,32;10953,846;   50,367;29901,914;36,52567
 702,90;11141,902;   52,467;30254,148;36,71794
 703,47;11182,160;   51,367;30428,881;36,64155
 704,05;11285,317;   67,767;30546,715;36,80426
 704,62;11394,975;   39,867;30587,848;37,17139
 705,19;11421,731;   43,667;30586,982;37,25222
 705,77;11449,989;   29,967;30618,314;37,33455
 706,34;11515,547;   61,667;30627,049;37,47337
 706,91;11584,104;   46,367;30673,883;37,67115
 707,49;11605,761;   57,267;30976,316;37,35074
 708,06;11579,519;   66,367;31089,049;37,11204
 708,64;11495,576;   25,767;31093,582;36,91862
 709,21;11519,333;   58,167;31179,316;36,82758
 709,78;11481,690;   41,367;31281,150;36,62101
 710,36;11505,048;   61,667;31419,684;36,49268
 710,93;11469,905;   50,567;31562,416;36,23824
 711,50;11446,862;   44,467;31506,049;36,24228
 712,08;11581,420;   76,567;31925,383;36,12333
 712,65;11510,977;   73,667;31775,916;36,07728
 713,22;11550,634;   69,067;31900,250;36,07019
 713,80;11565,991;   84,167;31966,883;36,01269
 714,37;11521,249;   55,767;31827,018;36,08760
 714,94;11596,706;   53,967;31727,551;36,44279
 715,52;11705,363;   47,867;31732,984;36,79171
 716,09;11839,620;   65,467;31891,918;36,99487
 716,66;11991,978;   73,467;31935,051;37,40715
 717,23;12072,635;   66,867;31908,484;37,70464
 717,81;12141,992;   50,168;31812,018;38,07028
 718,38;12228,550;   47,468;31671,252;38,51874
 718,95;12328,707;   59,068;31618,984;38,87729
 719,53;12381,164;   56,568;31661,418;38,99590
 720,10;12470,021;   59,968;31481,252;39,49569
 720,67;12401,679;   35,768;31355,984;39,48220
 721,24;12537,836;   59,468;31256,020;39,99919
 721,82;12559,594;   49,968;31236,053;40,11285
 722,39;12695,051;   64,068;31235,885;40,52052
 722,96;12757,008;   64,968;31261,420;40,68424
 723,53;12840,365;   88,268;31151,953;41,05146
 724,11;12875,623;   61,568;31207,486;41,14200
 724,68;12886,880;   71,568;31242,020;41,11366
 725,25;12963,237;   72,768;31399,953;41,14787
 725,82;13037,994;   96,068;31564,387;41,12684
 726,40;12928,852;   62,668;31714,820;40,64868
 726,97;12965,209;   62,168;31875,354;40,55878
 727,54;12957,467;   46,968;31801,486;40,65720
 728,11;13019,023;   49,568;32045,820;40,53430
 728,69;12983,281;   39,568;31938,953;40,57669
 729,26;12993,639;   53,568;32105,088;40,37272
 729,83;13025,695;   53,268;32264,621;40,27284
 730,40;13071,453;   66,768;32291,754;40,35591
 730,97;13170,710;   44,268;32590,588;40,33157
 731,55;13121,067;   41,468;32755,820;39,98123
 732,12;13298,024;   86,268;32841,656;40,33460
 732,69;13337,382;   66,968;32889,988;40,43020
 733,26;13357,539;   55,168;32930,520;40,46305
 733,83;13497,297;   41,168;32979,055;40,85304
 734,41;13602,054;   65,468;32991,590;41,11199
 734,98;13732,911;   51,368;33155,621;41,32866
 735,55;13941,168;   43,168;33183,656;41,93662
 736,12;14117,025;   65,968;33377,289;42,18103
 736,69;14352,883;   76,968;33377,922;42,86939
 737,26;14294,240;   57,468;33552,254;42,50444
 737,84;14455,298;   70,768;33487,188;43,04629
 738,41;14586,854;   63,168;33492,422;43,44604
 738,98;14709,712;   63,569;33375,055;43,96725
 739,55;14688,369;   49,669;33377,789;43,92297
 740,12;14849,927;   62,969;33678,023;43,98909
 740,69;14934,284;   70,569;33575,656;44,36256
 741,26;14969,241;   56,269;33557,391;44,51485
 741,83;15051,398;   53,869;33719,523;44,54846
 742,41;15022,956;   56,169;33833,055;44,31074
 742,98;15124,514;   91,469;33874,590;44,49869
 743,55;15085,271;   53,569;33836,824;44,49453
 744,12;15017,428;   50,469;33859,855;44,26865
 744,69;15049,285;   59,569;33848,492;44,36281
 745,26;15044,643;   42,169;33677,723;44,60302
 745,83;15004,699;   58,769;33854,355;44,22450
 746,40;15008,757;   57,969;33844,789;44,25036
 746,97;14996,015;   44,769;33828,125;44,25625
 747,55;15002,371;   62,269;33966,957;44,06500
 748,12;15080,929;   57,869;33910,191;44,37822
 748,69;14949,286;   68,769;33877,625;44,01367
 749,26;15020,743;   65,069;33958,559;44,12551
 749,83;15018,501;   42,569;33911,992;44,21667
 750,40;15065,958;   89,669;34158,824;43,95850
 750,97;15118,115;   96,269;34144,160;44,11976
 751,54;15151,873;   40,569;33980,793;44,52329
 752,11;15133,330;   52,969;33874,727;44,58775
 752,68;15169,587;   87,869;33912,859;44,58750
 753,25;15270,145;   60,269;33774,594;45,11399
 753,82;15453,102;   65,069;33810,527;45,60031
 754,39;15585,559;   75,169;33727,160;46,09055
 754,96;15639,816;   60,069;33616,395;46,42864
 755,53;15692,874;   29,469;33796,527;46,38664
 756,10;15747,131;   64,169;33720,961;46,59672
 756,67;15916,988;   73,369;33813,395;46,95793
 757,24;15945,346;   72,769;33740,426;47,14488
 757,81;15962,603;   16,469;33677,762;47,37231
 758,38;16143,360;   54,569;33822,695;47,64490
 758,95;16186,617;   79,469;33743,426;47,84686
 759,52;16169,375;   57,469;33615,859;48,01156
 760,09;16139,132;   68,570;33306,992;48,34935
 760,66;16124,089;   59,570;33309,727;48,31412
 761,23;16155,246;   91,070;33353,961;48,29459
 761,80;16132,604;   56,270;33295,793;48,36512
 762,37;16126,261;   68,970;33167,727;48,51328
 762,94;16117,418;   70,970;33187,461;48,45455
 763,51;16019,775;   36,070;32949,793;48,56244
 764,08;16006,033;   66,270;32998,527;48,40167
 764,65;15819,090;   69,570;32798,961;48,12042
 765,22;15779,848;   54,670;32804,496;48,01606
 765,79;15779,305;   77,370;32691,928;48,14395
 766,36;15732,063;   73,170;32743,063;47,93065
 766,93;15752,920;   68,970;32551,295;48,28457
 767,50;15716,877;   89,470;32828,328;47,73351
 768,07;15647,034;   63,870;32699,262;47,74928
 768,64;15577,892;   86,470;32572,596;47,68627
 769,21;15347,349;   57,970;32359,729;47,33296
 769,78;15317,506;   78,770;32244,963;47,37501
 770,34;15316,363;   45,570;32031,195;47,74268
 770,91;15382,721;   58,470;31921,430;48,09425
 771,48;15326,678;   62,370;31836,863;48,03950
 772,05;15296,835;   66,470;31610,697;48,28257
 772,62;15160,492;   42,670;31443,029;48,14538
 773,19;15248,050;   59,370;31579,764;48,18683
 773,76;15328,107;   71,070;31506,297;48,53484
 774,33;15323,765;   74,170;31447,330;48,60714
 774,90;15232,722;   52,870;31206,064;48,72647
 775,47;15301,579;   59,970;30957,498;49,32954
 776,03;15245,636;   73,470;30984,330;49,08361
 776,60;15301,693;   55,970;30757,863;49,65727
 777,17;15377,451;   65,470;30698,098;49,98586
 777,74;15319,308;   30,870;30522,031;50,14055
 778,31;15255,766;   68,970;30582,064;49,77140
 778,88;15234,723;   30,470;30366,898;50,11880
 779,45;15214,680;   75,770;30358,131;49,99250
 780,01;15200,837;   58,370;30299,664;50,07215
 780,58;15097,895;   60,570;30177,998;49,92898
 781,15;15063,552;   38,771;29979,432;50,18186
 781,72;15098,709;   66,771;29962,266;50,28162
 782,29;15036,767;   51,771;29667,100;50,59878
 782,86;15040,023;   55,571;29617,732;50,68795
 783,42;14905,581;   56,171;29598,166;50,26543
 783,99;14824,639;   66,671;29482,100;50,17084
 784,56;14766,995;   55,171;29320,232;50,27095
 785,13;14627,353;   40,271;29247,266;49,94380
 785,70;14598,610;   49,071;29060,299;50,15141
 786,26;14488,768;   51,671;28910,732;50,02622
 786,83;14357,024;   84,371;28889,166;49,54958
 787,40;14268,882;   57,171;28783,500;49,47277
 787,97;14256,140;   43,971;28581,133;49,80232
 788,54;14166,797;   70,371;28515,268;49,55696
 789,10;14025,954;   57,971;28344,400;49,38051
 789,67;13958,312;   70,371;28245,334;49,29178
 790,24;13925,368;   51,071;28193,768;49,29981
 790,81;13822,826;   88,271;27914,400;49,35848
 791,37;13863,283;   73,671;27872,135;49,60566
 791,94;13920,240;   70,771;27886,367;49,79030
 792,51;13865,798;   46,271;27539,201;50,26575
 793,08;13823,155;   69,771;27555,234;50,03876
 793,64;13835,112;   71,271;27455,168;50,26254
 794,21;13785,970;   69,671;27250,602;50,46295
 794,78;13756,427;   53,071;27147,035;50,57715
 795,35;13765,884;   73,471;27007,969;50,83597
 795,91;13660,541;   48,071;26789,301;50,90443
 796,48;13670,398;   55,771;26710,734;51,07727
 797,05;13600,556;   57,671;26624,369;50,97692
 797,62;13495,413;   41,971;26600,701;50,65544
 798,18;13390,471;   57,471;26410,736;50,59335
 798,75;13421,928;   56,571;26279,770;50,96768
 799,32;13401,686;   60,771;26209,102;51,02014
 799,88;13373,343;   55,971;26051,535;51,22940
 800,45;13263,100;   33,971;25945,270;51,05544
 801,02;13262,157;   65,271;25880,104;51,12133
 801,58;13182,114;   90,872;25660,436;51,19854
 802,15;13048,672;   72,872;25615,270;50,80103
 802,72;12993,329;   66,172;25404,703;51,01778
 803,28;12911,486;   49,172;25288,938;50,96052
 803,85;12763,044;   41,972;25144,871;50,67571
 804,42;12646,801;   77,772;24948,004;50,53845
 804,98;12683,958;  100,672;24935,537;50,66783
 805,55;12551,516;   56,972;24702,371;50,69727
 806,12;12480,173;   83,572;24611,004;50,54178
 806,68;12293,330;   66,472;24493,738;50,05414
 807,25;12289,287;   74,972;24436,271;50,13819
 807,82;12333,045;   86,872;24407,805;50,35240
 808,38;12072,302;   73,672;24367,037;49,39056
 808,95;12143,759;   62,972;24166,971;50,11943
 809,52;12044,116;   50,272;24162,004;49,74277
 810,08;12012,573;   55,172;23994,938;49,94786
 810,65;12060,431;   77,172;24169,672;49,73854
 811,21;12069,588;   69,972;24123,404;49,88733
 811,78;12157,146;   92,472;24337,539;49,76135
 812,35;12111,003;   64,972;24173,871;49,96508
 812,91;12216,561;   90,072;24239,705;50,21397
 813,48;12165,518;   68,172;24202,738;50,12456
 814,04;12128,075;   64,172;24088,373;50,21563
 814,61;12164,532;   77,572;24176,006;50,15662
 815,18;12116,390;   67,772;23892,539;50,57182
 815,74;12025,247;   69,772;23709,172;50,57436
 816,31;12078,904;   83,372;23614,406;50,97750
 816,87;11918,861;   43,272;23489,641;50,65001
 817,44;11892,318;   76,972;23452,273;50,54628
 818,00;11712,976;   43,272;23159,506;50,48272
 818,57;11735,733;   71,872;23076,340;50,70259
 819,14;11800,190;   82,872;22924,273;51,29860
 819,70;11767,048;   72,672;22792,707;51,47164
 820,27;11603,604;   62,972;22691,941;50,99937
 820,83;11526,962;   70,072;22541,373;50,98454
 821,40;11426,720;   98,072;22431,908;50,72415
 821,96;11253,977;   75,272;22315,541;50,26335
 822,53;11260,834;   70,973;22257,574;50,43522
 823,09;11232,092;   81,073;22073,309;50,70435
 823,66;11106,148;   68,173;21862,541;50,64600
 824,22;11011,306;   77,173;21851,674;50,21531
 824,79;10934,764;   75,473;21561,408;50,54139
 825,35;10854,620;   65,173;21648,041;49,99079
 825,92;10750,678;   75,173;21398,875;50,06403
 826,48;10717,635;   87,673;21501,309;49,64109
 827,05;10566,192;   89,573;21448,242;49,05090
 827,61;10497,550;   75,273;21249,076;49,22251
 828,18;10411,907;   60,873;21191,209;48,98661
 828,74;10352,964;   91,673;21053,543;48,95217
 829,31;10324,922;   83,373;21002,176;48,95858
 829,87;10301,179;   73,073;20733,709;49,50528
 830,44;10287,836;   85,173;20631,443;49,65701
 831,00;10248,294;   91,273;20673,977;49,34736
 831,57;10217,551;  101,573;20631,609;49,27404
 832,13;10008,608;   72,073;20323,344;49,06623
 832,69;10041,865;   58,173;20309,477;49,29901
 833,26;10104,022;   85,473;20322,711;49,50552
 833,82; 9941,380;   93,073;20197,744;48,98517
 834,39; 9985,537;   78,773;20137,477;49,38886
 834,95; 9971,295;   57,173;19959,410;49,81411
 835,52; 9944,452;   87,873;19851,744;49,87170
 836,08;10009,109;   95,573;19951,877;49,92639
 836,64; 9945,467;   76,273;19800,711;50,03536
 837,21; 9898,924;   88,673;19552,443;50,40262
 837,77; 9883,981;   91,873;19491,777;50,47503
 838,34; 9800,338;   67,473;19470,012;50,16284
 838,90; 9718,296;   64,473;19306,045;50,17169
 839,46; 9732,253;   83,873;19312,479;50,17722
 840,03; 9730,410;   76,173;19300,811;50,21804
 840,59; 9626,867;   85,873;19175,645;49,97961
 841,16; 9620,625;  105,173;19156,578;49,94619
 841,72; 9434,482;   59,373;18965,512;49,58765
 842,28; 9419,239;   77,873;18857,246;49,74269
 842,85; 9466,896;   95,573;18812,578;50,06850
 843,41; 9420,254;  105,374;18740,813;49,98477
 843,97; 9304,911;   89,174;18686,846;49,55318
 844,54; 9200,368;  104,774;18624,979;49,11174
 845,10; 9098,426;   89,174;18523,713;48,87159
 845,67; 9072,983;   68,774;18413,445;49,08352
 846,23; 8992,740;   78,674;18361,080;48,75762
 846,79; 8915,697;   90,474;18265,613;48,55657
 847,36; 8886,354;   55,774;18179,047;48,72509
 847,92; 8785,612;   84,874;18034,680;48,47261
 848,48; 8742,970;   41,874;18039,213;48,34657
 849,04; 8686,427;   62,374;17949,447;48,21388
 849,61; 8696,984;   56,274;17918,580;48,37399
 850,17; 8730,241;   68,174;17819,514;48,79670
 850,73; 8634,499;   71,474;17764,848;48,39679
 851,30; 8634,456;   46,074;17669,881;48,73171
 851,86; 8563,014;   75,874;17597,914;48,43694
 852,42; 8654,671;   51,174;17568,348;49,11464
 852,99; 8668,828;   79,274;17583,082;49,07249
 853,55; 8597,285;   83,174;17542,514;48,76537
 854,11; 8494,643;   70,074;17432,049;48,52310
 854,67; 8563,600;   85,474;17420,881;48,90641
 855,24; 8494,357;   51,874;17213,414;49,19421
 855,80; 8542,715;   76,874;17244,848;49,31182
 856,36; 8494,672;   80,574;17175,881;49,21876
 856,92; 8428,729;   54,474;17027,215;49,33943
 857,49; 8419,086;   81,274;17048,248;49,14142
 858,05; 8419,844;   67,274;16968,482;49,41996
 858,61; 8334,601;   65,774;17003,316;48,81952
 859,17; 8227,958;   77,374;16904,250;48,43789
 859,74; 8225,516;   82,074;16836,883;48,60361
 860,30; 8170,272;   93,074;16663,016;48,74609
 860,86; 8090,930;   72,074;16692,350;48,24743
 861,42; 8021,188;   74,674;16545,883;48,24487
 861,99; 7953,944;   54,674;16506,717;48,01392
 862,55; 7899,902;   66,374;16393,051;47,97993
 863,11; 7892,759;   75,174;16437,283;47,77859
 863,67; 7788,216;   61,274;16290,117;47,61240
 864,23; 7794,774;   80,175;16199,351;47,85976
 864,80; 7681,231;   69,175;16081,384;47,53908
 865,36; 7694,488;   71,875;16120,817;47,49605
 865,92; 7638,646;   96,175;16088,751;47,16233
 866,48; 7539,403;   67,375;15987,384;46,93482
 867,04; 7494,260;   60,675;15891,418;46,95664
 867,60; 7432,618;   99,375;15884,451;46,45681
 868,17; 7440,075;   93,675;15884,685;46,52267
 868,73; 7408,132;   82,775;15672,618;46,98801
 869,29; 7337,489;   59,475;15470,151;47,22709
 869,85; 7323,947;  100,475;15369,685;47,30744
 870,41; 7234,604;   80,575;15293,418;47,02625
 870,97; 7269,561;   92,975;15232,252;47,40376
 871,54; 7223,418;   84,175;15178,686;47,29695
 872,10; 7251,476;   84,275;15055,419;47,87344
 872,66; 7182,933;   66,775;14910,652;47,94002
 873,22; 7133,291;   81,975;14890,586;47,61632
 873,78; 6953,648;   65,275;14742,419;46,93265
 874,34; 7038,505;   95,075;14662,652;47,66359
 874,90; 7013,405;  109,775;14536,053;47,85455
 875,46; 6918,405;   96,375;14412,952;47,65126
 876,03; 6838,505;   86,475;14363,353;47,29346
 876,59; 6731,705;   64,475;14153,253;47,32298
 877,15; 6709,505;  101,475;14166,853;46,98082
 877,71; 6697,105;   78,275;14064,652;47,32340
 878,27; 6617,505;   95,675;13910,553;47,20874
 878,83; 6708,605;  114,275;13971,753;47,58680
 879,39; 6623,805;   91,075;14082,753;46,69011
 879,95; 6501,805;   86,275;13964,253;46,22813
 880,51; 6415,105;   75,175;13927,253;45,76880
 881,07; 6405,505;   82,375;13978,753;45,50200
 881,63; 6456,905;   92,575;13971,253;45,85689
 882,19; 6440,305;   82,675;13921,553;45,94036
 882,75; 6404,905;   86,275;14019,553;45,34920
 883,31; 6448,705;   95,575;14187,853;45,08235
 883,88; 6421,105;   96,375;14174,353;44,92641
 884,44; 6426,705;   76,175;14175,753;45,04057
 885,00; 6531,205;  106,075;14266,952;45,37240
 885,56; 6469,905;  101,675;14299,452;44,85371
 886,12; 6584,805;  109,875;14421,152;45,24355
 886,68; 6577,605;   90,775;14436,753;45,21706
 887,24; 6678,805;  102,475;14574,952;45,44025
 887,80; 6621,305;   86,975;14671,753;44,80240
 888,36; 6633,205;  106,275;14715,652;44,67631
 888,92; 6685,505;   98,975;14773,353;44,88456
 889,48; 6831,105;   99,575;14973,853;45,25618
 890,04; 6822,005;   95,275;14803,053;45,73587
 890,60; 6852,405;  117,475;15014,652;45,20944
 891,16; 6917,905;   99,875;15075,853;45,52644
 891,72; 6943,905;  113,275;15058,452;45,70458
 892,28; 6950,305;  112,475;15126,053;45,54431
 892,84; 6877,505;   93,775;15039,853;45,38803
 893,39; 6911,105;  117,575;15112,952;45,30416
 893,95; 6858,305;  112,975;15044,753;45,17433
 894,51; 6732,005;   66,375;14891,253;44,96246
 895,07; 6714,005;  127,375;14906,353;44,56756
 895,63; 6598,605;   74,275;14689,952;44,63926
 896,19; 6534,405;   90,375;14601,952;44,40613
 896,75; 6486,205;  105,175;14460,152;44,45169
 897,31; 6376,105;   82,775;14295,853;44,27845
 897,87; 6304,405;   98,175;14146,853;44,17661
 898,43; 6199,105;   87,775;14075,753;43,68987
 898,99; 6134,005;  109,175;14002,753;43,36413
 899,55; 6123,905;  109,475;13940,652;43,48458
 900,11; 6003,705;  104,975;13747,553;43,23765
 900,67; 5892,005;   91,375;13658,652;42,75456
 901,22; 5853,905;  108,375;13601,952;42,57974
 901,78; 5752,605;   91,275;13560,053;42,03299
 902,34; 5750,005;  103,075;13451,152;42,30519
 902,90; 5644,505;   73,575;13350,652;41,95901
 903,46; 5545,405;   95,775;13236,353;41,47177
 904,02; 5558,505;   88,075;13091,553;42,06898
 904,58; 5445,905;   67,075;12918,152;41,85509
 905,14; 5444,605;   63,975;12874,553;42,00146
 905,70; 5443,605;   66,775;12696,053;42,57433
 906,25; 5421,605;   84,375;12708,452;42,27818
 906,81; 5401,905;   87,675;12732,152;42,02807
 907,37; 5364,305;   79,275;12616,152;42,15587
 907,93; 5350,505;   74,775;12588,152;42,16072
 908,49; 5341,805;  101,875;12497,652;42,27190
 909,05; 5328,605;   89,675;12425,553;42,46905
 909,60; 5297,905;   86,575;12340,452;42,52801
 910,16; 5217,805;   67,675;12291,853;42,13069
 910,72; 5197,905;  100,475;12207,753;42,10220
 911,28; 5108,905;   90,875;12156,053;41,59101
 911,84; 5079,905;   79,575;12106,753;41,57525
 912,39; 5041,205;   73,475;12049,353;41,48114
 912,95; 5023,005;  104,475;12001,452;41,34269
 913,51; 4918,205;   85,375;11945,253;40,74941
 914,07; 4869,505;   83,775;11813,452;40,80018
 914,63; 4833,805;   64,775;11748,053;40,81928
 915,18; 4787,805;   77,475;11617,853;40,81608
 915,74; 4711,405;   63,975;11632,652;40,17252
 916,30; 4656,105;   61,475;11588,553;39,85945
 916,86; 4617,805;   83,575;11514,652;39,66582
 917,42; 4586,005;   82,275;11425,152;39,70536
 917,97; 4504,105;   75,375;11265,452;39,57730
 918,53; 4420,705;   67,775;11196,253;39,11523
 919,09; 4397,505;   88,975;11223,753;38,69435
 919,65; 4326,305;   83,375;11083,452;38,57182
 920,20; 4300,505;   61,875;10983,053;38,81111
 920,76; 4231,505;   65,475;10849,452;38,63166
 921,32; 4224,105;   82,675;10770,952;38,74740
 921,87; 4121,605;   97,475;10670,253;38,06124
 922,43; 4073,605;   64,675;10561,353;38,19237
 922,99; 4050,505;   61,875;10406,753;38,55657
 923,55; 3975,605;   63,775;10357,353;38,00263
 924,10; 3995,305;   73,575;10282,853;38,41339
 924,66; 3940,905;   78,675;10170,152;38,27220
 925,22; 3854,305;   43,275;10093,952;37,91814
 925,77; 3829,705;   66,075; 9927,053;38,16691
 926,33; 3804,705;   90,375; 9903,253;37,85159
 926,89; 3742,005;   71,975; 9692,753;38,14691
 927,44; 3641,205;   52,175; 9580,553;37,66675
 928,00; 3673,905;   66,875; 9533,753;38,10158
 928,56; 3609,505;   80,375; 9372,253;37,98080
 929,12; 3600,005;   72,775; 9275,152;38,32955
 929,67; 3468,805;   67,575; 9091,053;37,69312
 930,23; 3427,405;   50,975; 8915,253;38,09030
 930,78; 3380,505;  100,675; 8842,553;37,51860
 931,34; 3295,905;   61,975; 8632,152;37,73469
 931,90; 3222,605;   61,675; 8494,353;37,48430
 932,45; 3140,005;   78,775; 8290,753;37,27762
 933,01; 2978,205;   52,975; 8024,453;36,69621
 933,57; 2874,605;   72,175; 7753,252;36,48486
 934,12; 2784,305;   70,475; 7399,553;37,02826
 934,68; 2586,505;   59,075; 7020,252;36,30751
 935,24; 2436,605;   67,875; 6614,752;36,18106
 935,79; 2285,805;   72,975; 6254,853;35,79543
 936,35; 2164,105;   91,375; 5812,252;36,23098
 936,90; 1975,605;   80,275; 5348,752;35,97491
 937,46; 1809,705;   72,775; 4956,953;35,56238
 938,02; 1677,005;   63,375; 4549,152;35,97214
 938,57; 1586,405;   73,175; 4265,053;36,09910
 939,13; 1452,905;   70,575; 3986,752;35,29794
 939,68; 1348,905;   57,375; 3713,452;35,32557
 940,24; 1298,405;   68,775; 3504,052;35,79420
 940,79; 1256,905;   91,875; 3391,052;35,31274
 941,35; 1222,605;   79,675; 3217,552;36,42366
 941,91; 1151,905;   71,375; 3122,252;35,41703
 942,46; 1144,905;   75,075; 3063,552;35,79850
 943,02; 1121,905;   65,375; 3050,752;35,39017
 943,57; 1080,305;   61,275; 2982,452;34,88422
 944,13; 1091,605;   67,375; 2974,452;35,23229
 944,68; 1097,705;   65,975; 3041,752;34,67094
 945,24; 1120,105;   82,275; 3060,052;34,85250
 945,79; 1123,805;   68,775; 3104,052;34,75893
 946,35; 1140,905;   51,775; 3194,752;34,65281
 946,90; 1206,305;   98,575; 3283,552;34,77984
 947,46; 1201,205;   52,175; 3311,052;35,25846
 948,01; 1214,905;   51,575; 3390,052;34,84612
 948,57; 1279,605;   86,775; 3552,952;34,41341
 949,12; 1256,005;   65,875; 3613,353;33,54863
 949,68; 1294,105;   76,275; 3732,653;33,30701
 950,23; 1308,505;   70,075; 3833,252;32,90916
 950,79; 1326,205;   75,775; 3933,452;32,41406
 951,34; 1365,605;   83,275; 4070,952;32,15731
 951,90; 1390,705;   57,475; 4140,853;32,65018
 952,45; 1393,605;   81,075; 4292,152;31,16851
 953,01; 1416,805;   65,975; 4364,252;31,42724
 953,56; 1455,105;   87,975; 4500,853;30,98047
 954,12; 1414,705;   42,075; 4567,553;30,33116
 954,67; 1466,205;   70,875; 4720,453;30,00982
 955,23; 1454,905;   61,975; 4804,553;29,37074
 955,78; 1490,205;   67,175; 4882,953;29,54933
 956,33; 1477,905;   58,575; 4947,252;29,03301
 956,89; 1528,005;   53,475; 5038,553;29,57888
 957,44; 1525,205;   53,675; 5170,752;28,75723
 958,00; 1546,005;   49,475; 5238,353;28,84111
 958,55; 1567,205;   70,475; 5313,953;28,54460
 959,10; 1575,205;   52,375; 5370,252;28,63605
 959,66; 1595,605;   74,275; 5488,752;28,09745
 960,21; 1613,205;   78,475; 5567,453;27,96022
 960,77; 1591,705;   54,275; 5606,152;27,69207
 961,32; 1601,805;   48,375; 5663,453;27,66534
 961,87; 1624,805;   79,775; 5738,752;27,30228
 962,43; 1611,105;   68,975; 5780,652;26,99960
 962,98; 1655,405;   76,175; 5828,652;27,45304
 963,54; 1623,305;   27,075; 5820,652;27,55172
 964,09; 1648,605;   56,275; 5873,953;27,37054
 964,64; 1639,805;   64,975; 5901,053;26,98439
 965,20; 1651,605;   44,375; 5966,652;27,13872
 965,75; 1663,605;   66,575; 5976,353;27,02352
 966,30; 1657,705;   75,275; 6068,553;26,40341
 966,86; 1660,205;   62,975; 6121,953;26,36138
 967,41; 1644,405;   81,075; 6084,453;26,04084
 967,96; 1627,305;   75,175; 6108,953;25,72402
 968,52; 1638,505;   81,775; 6126,353;25,75416
 969,07; 1602,305;   72,975; 6120,152;25,28998
 969,62; 1596,405;   77,175; 6134,953;25,07900
 970,18; 1553,905;   57,575; 6147,652;24,56997
 970,73; 1571,405;   66,475; 6203,553;24,52193
 971,28; 1554,805;   95,775; 6197,053;23,91352
 971,84; 1504,005;   55,075; 6118,752;23,89524
 972,39; 1531,405;   95,875; 6148,652;23,71688
 972,94; 1490,105;   54,975; 6140,652;23,58209
 973,49; 1476,405;   64,575; 6141,252;23,23359
 974,05; 1449,605;   64,375; 6178,053;22,65788
 974,60; 1452,405;   88,575; 6213,252;22,26779
 975,15; 1426,605;   77,675; 6231,553;21,92000
 975,71; 1402,305;   62,375; 6121,453;22,11442
 976,26; 1403,705;   77,575; 6110,252;21,98244
 976,81; 1384,605;   90,675; 6134,152;21,41036
 977,36; 1383,905;   84,775; 6156,953;21,39480
 977,92; 1375,005;   90,175; 6209,353;20,99678
 978,47; 1344,305;   77,175; 6060,252;21,17857
 979,02; 1356,005;   95,475; 6085,652;21,04328
 979,57; 1358,605;   86,775; 6058,453;21,29770
 980,13; 1311,405;   76,175; 6038,752;20,71638
 980,68; 1312,905;   77,075; 6010,553;20,82809
 981,23; 1302,105;   89,175; 6054,652;20,33249
 981,78; 1297,905;   82,075; 5974,152;20,63500
 982,33; 1297,405;   79,275; 5893,252;20,95175
 982,89; 1273,705;   94,375; 5938,152;20,18095
 983,44; 1255,405;   65,675; 5935,853;20,26736
 983,99; 1274,505;  104,775; 5949,453;20,01359
 984,54; 1264,205;   81,475; 5900,053;20,32679
 985,09; 1256,905;   87,275; 5873,752;20,21316
 985,65; 1235,805;   69,375; 5811,853;20,31231
 986,20; 1230,205;  106,575; 5791,152;19,76629
 986,75; 1231,305;   95,875; 5823,953;19,82218
 987,30; 1211,805;   97,175; 5726,053;19,80199
 987,85; 1178,505;   92,475; 5721,353;19,29390
 988,40; 1162,905;   96,675; 5693,953;19,04908
 988,96; 1186,005;  114,875; 5666,553;19,29381
 989,51; 1146,405;  108,875; 5644,053;18,74429
 990,06; 1143,305;  128,275; 5680,853;18,28034
 990,61; 1093,705;   93,575; 5569,053;18,26562
 991,16; 1093,505;  104,375; 5558,053;18,13694
 991,71; 1033,005;   79,875; 5505,853;17,56605
 992,26; 1022,705;   93,475; 5457,252;17,32417
 992,81;  994,905;   75,075; 5427,053;17,18673
 993,37; 1018,705;  113,475; 5390,553;17,15400
 993,92;  992,705;  108,375; 5368,953;16,81051
 994,47;  976,305;  117,475; 5329,652;16,47737
 995,02;  961,805;  118,475; 5313,252;16,23419
 995,57;  936,505;   90,875; 5274,652;16,31301
 996,12;  937,305;  133,575; 5247,553;15,71634
 996,67;  914,705;  132,375; 5191,652;15,46328
 997,22;  890,105;   99,875; 5128,652;15,71416
 997,77;  904,305;  115,275; 5110,553;15,79552
 998,32;  885,605;  103,775; 5015,652;15,91713
 998,87;  885,805;  114,275; 5018,752;15,73114
 999,42;  858,205;  101,675; 4972,553;15,53170
 999,97;  860,505;  109,975; 4956,353;15,48641
1000,53;  868,805;  123,475; 4993,752;15,30365
1001,08;  834,205;   98,375; 4879,053;15,39175
1001,63;  866,905;  144,475; 4878,053;15,26182
1002,18;  778,405;   85,075; 4777,453;14,77567
1002,73;  838,705;  131,375; 4813,853;15,10589
1003,28;  803,305;  103,575; 4811,953;14,86138
1003,83;  819,705;  119,075; 4691,752;15,32210
1004,38;  821,605;  137,775; 4703,152;14,97861
1004,93;  790,605;  114,375; 4680,953;14,80824
1005,48;  777,505;  104,075; 4573,053;15,06899
1006,03;  764,805;  112,775; 4525,652;14,77562
1006,58;  757,005;  111,475; 4486,553;14,75471
1007,13;  747,905;   94,475; 4466,252;14,94655
1007,68;  732,205;  104,975; 4462,453;14,39434
1008,23;  737,205;  114,575; 4425,853;14,44189
1008,78;  710,305;  107,375; 4384,152;14,09776
1009,33;  725,205;  121,875; 4307,752;14,41347
1009,88;  666,205;   84,775; 4329,553;13,69754
1010,43;  696,905;  118,875; 4320,752;13,75647
1010,98;  674,705;  100,675; 4310,053;13,63693
1011,52;  654,305;   97,075; 4264,953;13,36963
1012,07;  683,905;  144,475; 4319,252;12,92117
1012,62;  625,405;  103,875; 4259,152;12,55103
1013,17;  639,805;   97,175; 4172,053;13,31647
1013,72;  616,605;   94,575; 4143,453;12,89320
1014,27;  616,205;  100,275; 4105,853;12,88029
1014,82;  584,905;   86,875; 4042,952;12,58899
1015,37;  557,805;   84,375; 3964,853;12,20030
1015,92;  577,505;  109,475; 3894,252;12,36612
1016,47;  541,505;   90,275; 3819,452;12,09999
1017,02;  521,505;   81,075; 3732,153;12,06301
1017,57;  529,005;   96,475; 3718,853;11,94050
1018,11;  498,805;   77,275; 3656,252;11,77794
1018,66;  529,605;  120,175; 3636,552;11,64352
1019,21;  509,805;  109,675; 3579,552;11,53153
1019,76;  474,805;   77,675; 3497,353;11,61308
1020,31;  476,405;   71,975; 3446,452;11,98497
1020,86;  477,005;   96,175; 3448,052;11,36169
1021,41;  467,805;   80,175; 3387,052;11,72193
1021,96;  458,405;   83,675; 3385,853;11,34797
1022,50;  488,405;  105,975; 3332,952;11,85103
1023,05;  458,705;   94,675; 3288,052;11,39953
1023,60;  452,905;   97,975; 3251,353;11,25555
1024,15;  427,805;   81,075; 3184,853;11,17123
1024,70;  459,705;   95,075; 3176,252;11,83411
1025,25;  427,305;   81,175; 3127,452;11,36239
1025,79;  453,505;  101,175; 3110,752;11,70696
1026,34;  430,605;   83,475; 3044,653;11,72270
1026,89;  423,505;  102,175; 3039,052;10,94121
1027,44;  436,205;   95,875; 2952,952;11,91182
1027,99;  424,105;   93,475; 2944,552;11,59667
1028,53;  392,605;   89,675; 2900,052;10,77898
1029,08;  421,905;  114,775; 2876,653;11,12033
1029,63;  413,305;  114,875; 2854,952;10,89130
1030,18;  391,305;   92,075; 2788,552;11,09707
1030,73;  378,705;   91,175; 2739,552;10,85684
1031,27;  366,405;   85,875; 2715,252;10,66907
1031,82;  358,805;   81,875; 2686,452;10,63243
1032,37;  364,805;   98,875; 2688,853;10,26766
1032,92;  367,605;  100,575; 2675,452;10,37059
1033,46;  364,205;   99,775; 2599,252;10,57941
1034,01;  332,405;   78,375; 2582,952;10,14263
1034,56;  350,605;   98,875; 2559,252;10,23136
1035,11;  342,105;   92,375; 2523,552;10,27198
1035,65;  330,705;   87,575; 2478,052;10,17077
1036,20;  320,805;   99,375; 2454,452; 9,40224
1036,75;  352,805;  118,675; 2446,353;10,05852
1037,29;  314,405;   90,275; 2398,252; 9,71110
1037,84;  294,505;   78,375; 2347,252; 9,52586
1038,39;  305,505;   91,075; 2329,952; 9,57757
1038,94;  271,005;   73,075; 2277,153; 8,98017
1039,48;  291,305;   83,575; 2278,552; 9,46388
1040,03;  311,305;  102,875; 2245,252; 9,72891
1040,58;  288,505;  101,175; 2194,552; 8,94870
1041,12;  276,705;   91,375; 2191,653; 8,82407
1041,67;  286,405;  101,075; 2166,752; 8,97188
1042,22;  303,505;  118,475; 2145,252; 9,12927
1042,76;  273,205;   99,275; 2118,452; 8,61390
1043,31;  276,105;   90,675; 2060,653; 9,41280
1043,86;  271,705;   98,875; 2044,252; 8,88414
1044,40;  283,105;   92,975; 2018,052; 9,87649
1044,95;  265,805;   94,175; 1988,552; 9,05997
1045,50;  244,405;   75,375; 1934,353; 9,09263
1046,04;  280,005;  114,375; 1930,453; 9,12021
1046,59;  264,205;   96,175; 1878,353; 9,42835
1047,13;  282,505;  121,075; 1879,453; 9,18062
1047,68;  264,305;  115,675; 1860,052; 8,52052
1048,23;  273,205;  118,775; 1866,752; 8,83478
1048,77;  254,305;   90,175; 1784,953; 9,68446
1049,32;  254,305;  104,175; 1785,953; 8,92686
1049,86;  252,505;   92,675; 1760,552; 9,58284
1050,41;  231,105;   82,475; 1735,552; 8,99111
1050,96;  248,405;  100,875; 1698,652; 9,23345
1051,50;  245,205;  101,675; 1663,252; 9,19135
1052,05;  245,005;   94,675; 1664,052; 9,57896
1052,59;  230,705;   82,975; 1624,152; 9,58553
1053,14;  224,805;   84,475; 1582,652; 9,36671
1053,69;  218,105;   98,475; 1571,453; 8,12164
1054,23;  236,405;  104,575; 1569,052; 9,00185
1054,78;  237,105;  100,775; 1550,152; 9,40611
1055,32;  239,905;  123,075; 1550,453; 8,18494
1055,87;  199,005;   68,875; 1491,752; 9,14555
1056,41;  194,705;   78,775; 1469,552; 8,33563
1056,96;  211,905;   96,775; 1451,052; 8,50121
1057,50;  231,505;  113,375; 1470,853; 8,70217
1058,05;  191,505;   82,075; 1401,953; 8,29092
1058,59;  208,005;   95,875; 1396,552; 8,62089
1059,14;  214,705;  103,575; 1370,453; 8,77196
1059,68;  178,705;   75,975; 1329,353; 8,19625
1060,23;  223,005;  126,875; 1383,752; 7,64832
1060,77;  205,805;   97,375; 1317,052; 8,89005
1061,32;  208,005;  108,575; 1320,652; 8,20327
1061,86;  199,305;  111,175; 1289,752; 7,47766
1062,41;  196,805;   93,975; 1242,953; 8,94970
1062,95;  192,305;  109,575; 1230,853; 7,37819
1063,50;  198,305;  111,075; 1230,052; 7,79551
1064,04;  193,905;   90,475; 1197,453; 9,34346
1064,59;  208,705;  114,775; 1210,052; 8,57591
1065,13;  192,205;  103,475; 1170,552; 8,31524
1065,68;  184,905;  107,275; 1161,353; 7,36473
1066,22;  191,505;  115,875; 1166,453; 7,19890
1066,76;  209,105;  130,175; 1145,252; 7,77576
1067,31;  177,805;   99,875; 1110,552; 7,71067
1067,85;  186,205;  100,975; 1090,252; 8,61538
1068,40;  191,205;  110,275; 1095,353; 8,21560
1068,94;  178,805;   99,175; 1079,353; 8,12404
1069,49;  175,305;   98,175; 1041,652; 8,17507
1070,03;  174,605;  111,175; 1034,353; 6,87083
1070,57;  157,305;   88,775; 1012,852; 7,41604
1071,12;  154,605;   75,875;  987,153; 8,63952
1071,66;  204,005;  131,775; 1039,953; 7,95329
1072,21;  181,405;  112,475; 1011,352; 7,66845
1072,75;  177,505;  104,475;  978,552; 8,35510
1073,29;  157,905;   77,075;  942,453; 9,34043
1073,84;  176,905;   95,975;  941,153; 9,57550
1074,38;  160,605;   93,875;  928,253; 7,99758
1074,92;  179,505;  107,275;  940,153; 8,67234
1075,47;  177,805;  112,775;  938,852; 7,87214
1076,01;  196,905;  121,775;  926,253; 9,33898
1076,56;  155,605;   97,275;  891,953; 7,34008
1077,10;  145,105;   86,075;  865,253; 7,57594
1077,64;  161,805;   97,875;  884,453; 8,12762
1078,19;  188,205;  123,175;  887,753; 8,50535
1078,73;  167,505;   98,775;  853,852; 9,10238
1079,27;  175,505;  121,075;  875,552; 7,21427
1079,81;  185,105;  121,375;  860,953; 8,61708
1080,36;  162,905;  105,975;  836,052; 7,79780
1080,90;  153,605;   96,375;  819,753; 7,91150
1081,44;  144,305;   82,475;  789,552; 8,74444
1081,99;  126,405;   70,375;  771,753; 7,98857
1082,53;  171,705;  113,075;  798,653; 8,55191
1083,07;  156,505;  104,175;  791,453; 7,61410
1083,62;  161,805;  101,275;  772,552; 9,01713
1084,16;  145,705;   98,975;  782,453; 6,83709
1084,70;  169,505;  107,475;  767,153; 9,40308
1085,24;  160,505;  108,775;  750,653; 8,05917
1085,79;  145,505;  109,175;  747,552; 5,69099
1086,33;  141,105;   99,075;  711,453; 6,86341
1086,87;  150,205;  102,075;  714,852; 7,85440
1087,41;  137,905;   84,475;  686,852; 8,86985
1087,96;  179,705;  124,575;  732,552; 9,06777
1088,50;  144,905;  112,075;  696,953; 5,61314
1089,04;  166,505;  121,775;  715,153; 7,53820
1089,58;  128,505;   82,375;  655,953; 8,04251
1090,13;  139,605;  102,975;  653,153; 6,65785
1090,67;  151,805;  101,775;  678,753; 8,67105
1091,21;  135,305;   92,075;  651,852; 7,72271
1091,75;  151,905;  106,875;  647,153; 8,33461
1092,29;  154,805;  105,875;  642,552; 9,11721
1092,84;  143,705;  105,975;  628,352; 7,22275
1093,38;  165,805;  128,175;  662,753; 7,03920
1093,92;  158,905;  113,475;  640,052; 8,62741
1094,46;  159,905;  128,175;  638,852; 6,21331
1095,00;  136,005;   93,975;  602,052; 8,27236
1095,54;  133,605;   89,975;  591,352; 8,70203
1096,09;  150,805;  114,975;  597,352; 7,42779
1096,63;  154,205;  117,175;  598,453; 7,69411
1097,17;  146,305;  102,575;  573,052; 9,29481
1097,71;  155,405;  122,875;  582,453; 7,07824
1098,25;  138,005;  103,275;  553,653; 7,71131
1098,79;  149,505;  104,775;  568,753; 9,64055
1099,33;  151,405;  111,975;  572,052; 8,57030
1099,88;  146,005;  110,775;  562,253; 7,80327
1100,42;  121,305;   83,275;  521,253; 8,68309

