0110 ELITRO
Integration time [ms]:   8,000
Averaging Nr. [scans]: 10
Smoothing Nr. [pixels]: 0
Data measured with spectrometer [name]: 7314920SP
Wave   ;Sample   ;Dark     ;Reference;Reflectance
[nm]   ;[counts] ;[counts] ;[counts] ;[%]

 199,42;  105,696;   63,873;  150,055;48,52837
 200,02;  112,534;   92,669;  145,732;37,43786
 200,62;   80,352;   67,563;   88,793;60,23886
 201,22;  113,272;   86,969;  138,011;51,53288
 201,82;   92,409;   66,174;  141,790;34,69460
 202,42;  118,488;  101,668;  154,973;31,55488
 203,03;   66,559;   60,168;   91,775;20,22040
 203,63;   81,775;   69,967;  109,037;30,22270
 204,23;  102,861;   70,671;  129,903;54,34564
 204,83;   90,783;   74,567;  123,718;32,99291
 205,43;   83,896;   56,673;  123,555;40,70257
 206,03;   66,537;   50,167;   90,459;40,63011
 206,63;   79,703;   68,865;  100,007;34,80191
 207,24;  106,976;   74,675;  162,566;36,75121
 207,84;   59,492;   39,967;   83,699;44,64606
 208,44;   71,772;   50,669;   95,011;47,59235
 209,04;   53,149;   47,365;   85,066;15,34117
 209,64;   89,020;   69,972;  127,998;32,82667
 210,24;   65,283;   45,367;   97,218;38,41070
 210,84;   61,518;   51,469;  101,970;19,89862
 211,44;   91,602;   86,470;  122,908;14,08442
 212,05;   67,449;   60,865;   99,266;17,14478
 212,65;   80,959;   66,368;  112,975;31,30650
 213,25;  107,088;   93,768;  142,073;27,57540
 213,85;   99,132;   84,465;  114,904;48,18496
 214,45;   62,783;   53,367;  100,418;20,01313
 215,05;   46,618;   39,369;  100,070;11,94214
 215,65;   66,064;   55,169;  105,630;21,59079
 216,25;   61,083;   40,267;   82,518;49,26820
 216,85;   42,826;   34,069;   89,651;15,75579
 217,45;   69,159;   49,068;   97,375;41,59020
 218,05;   82,540;   58,270;  112,886;44,43623
 218,66;   38,280;   28,769;   75,692;20,27079
 219,26;   46,375;   26,567;   79,337;37,53650
 219,86;   54,569;   36,771;   81,584;39,71687
 220,46;   78,494;   54,270;  104,127;48,58628
 221,06;   69,961;   51,871;  115,903;28,25150
 221,66;   69,099;   43,471;  103,481;42,70510
 222,26;   64,620;   39,772;  102,398;39,67686
 222,86;   81,197;   67,268;  118,954;26,94857
 223,46;   66,583;   51,767;   88,918;39,88137
 224,06;   84,615;   64,971;  120,343;35,47640
 224,66;   71,631;   57,570;  105,805;29,15106
 225,26;   70,156;   48,169;  113,748;33,52649
 225,86;   70,058;   42,173;  112,376;39,72048
 226,46;   81,943;   49,968;  102,913;60,39172
 227,06;   50,431;   27,670;   87,705;37,91288
 227,66;   61,286;   37,665;   74,845;63,53272
 228,27;   50,094;   29,270;   96,227;31,10008
 228,87;  102,285;   89,170;  143,046;24,34354
 229,47;   58,566;   29,172;   92,357;46,52004
 230,07;   30,356;   11,169;   59,648;39,57660
 230,67;   50,226;   38,169;   84,651;25,93985
 231,27;   49,594;   27,670;   76,327;45,05757
 231,87;   63,926;   43,169;  100,751;36,04830
 232,47;   80,784;   43,775;  132,047;41,92647
 233,07;   48,357;   42,965;   75,547;16,54947
 233,67;   64,859;   53,768;   94,275;27,38052
 234,27;   29,237;    0,567;   53,259;54,41187
 234,87;   54,169;   34,771;  106,084;27,20171
 235,47;   46,956;   16,169;   74,148;53,09911
 236,07;   37,416;   30,266;   72,042;17,11527
 236,67;   62,400;   49,966;   85,180;35,30798
 237,27;   51,487;   28,873;  109,074;28,19703
 237,87;   52,631;   25,370;   99,805;36,62390
 238,47;   38,434;   14,269;   68,032;44,94841
 239,07;   46,974;   33,272;   95,738;21,93517
 239,67;   81,381;   43,477;  131,421;43,10095
 240,27;   60,558;   46,773;  119,176;19,03939
 240,87;   77,433;   50,773;  119,533;38,77256
 241,47;   49,635;   39,164;   76,131;28,32715
 242,07;   49,651;   39,968;   92,894;18,29477
 242,67;    8,142;  -11,027;   77,914;21,55175
 243,27;   28,983;    7,767;   46,418;54,89196
 243,87;   58,915;   48,671;  108,343;17,16735
 244,47;   56,861;   22,371;   99,703;44,59992
 245,07;   14,318;    2,669;   55,770;21,93744
 245,67;   39,859;   31,068;   85,575;16,12835
 246,27;   44,603;   34,965;   69,007;28,31215
 246,87;   33,697;   26,668;   63,154;19,26383
 247,46;   23,352;   19,663;   23,793;89,31572
 248,06;   36,139;   20,470;   69,786;31,77335
 248,66;   65,920;   31,072;  105,898;46,57214
 249,26;   42,316;   32,366;   70,742;25,92776
 249,86;   59,658;   42,873;  102,176;28,30385
 250,46;   32,830;   16,775;   93,507;20,92381
 251,06;   34,759;   22,168;   65,375;29,14117
 251,66;   32,123;   20,771;   64,724;25,82851
 252,26;   41,808;   38,866;   70,261; 9,36998
 252,86;   43,418;   35,969;   89,070;14,02798
 253,46;   -5,917;   -8,033;   22,118; 7,01936
 254,06;   49,170;   31,766;   79,483;36,47410
 254,66;   38,296;   34,973;  100,155; 5,09738
 255,26;   71,704;   39,073;  118,836;40,90996
 255,86;   45,435;   37,464;   55,631;43,87983
 256,46;   38,302;   19,870;   70,208;36,61646
 257,05;   33,277;   23,570;   59,565;26,96757
 257,65;   65,969;   38,071;   97,684;46,79903
 258,25;   64,466;   37,372;  101,457;42,27772
 258,85;   27,918;   15,669;   51,770;33,92983
 259,45;   12,726;    6,869;   42,951;16,23353
 260,05;   40,883;   46,667;   85,818;-14,77240
 260,65;   46,608;   45,066;   83,561; 4,00497
 261,25;   51,615;   29,371;   85,943;39,31975
 261,85;   20,253;   -0,129;   47,622;42,68330
 262,45;   57,918;   46,169;  109,270;18,61936
 263,04;   70,650;   53,073;  116,295;27,80153
 263,64;   53,421;   33,767;   77,097;45,35909
 264,24;   58,407;   37,671;   89,062;40,34880
 264,84;   86,017;   58,974;  138,671;33,93227
 265,44;   35,513;   26,368;   67,716;22,11799
 266,04;   56,678;   48,865;   71,464;34,57241
 266,64;   43,000;   39,866;   86,780; 6,67881
 267,24;   51,300;   40,166;   68,980;38,63870
 267,84;   45,988;   24,668;   76,573;41,07582
 268,43;   61,305;   48,368;   95,935;27,19741
 269,03;   50,580;   46,969;   87,892; 8,82547
 269,63;   71,462;   58,566;   92,402;38,11332
 270,23;   18,986;   10,765;   39,045;29,07118
 270,83;   55,008;   55,266;   83,161;-0,92590
 271,43;   34,567;   23,967;   58,856;30,38111
 272,03;   71,313;   64,168;   99,116;20,44564
 272,62;   38,164;   23,269;   68,730;32,76435
 273,22;   26,585;   11,970;   61,046;29,78102
 273,82;   25,033;   17,460;   26,403;84,68235
 274,42;   27,281;   25,164;   46,890; 9,74643
 275,02;   35,211;   34,864;   60,388; 1,35759
 275,62;   62,966;   31,972;  100,457;45,25617
 276,21;   41,448;   22,770;   69,267;40,16953
 276,81;   56,192;   46,767;   71,099;38,73356
 277,41;   43,145;   22,971;   96,341;27,49530
 278,01;   19,311;   21,364;   42,788;-9,58527
 278,61;   64,872;   38,869;   83,811;57,85999
 279,20;   78,158;   65,473;  119,076;23,66484
 279,80;    0,347;    6,762;   11,539;-134,28954
 280,40;   44,216;   36,866;   79,742;17,14263
 281,00;    8,972;   -4,331;   33,311;35,34177
 281,60;   50,571;   20,774;   74,812;55,14153
 282,20;   45,202;   36,670;   70,108;25,51599
 282,79;   38,805;   29,568;   70,135;22,76970
 283,39;   20,462;   17,466;   44,702;10,99999
 283,99;   25,057;   23,165;   34,347;16,92137
 284,59;   27,810;   16,869;   45,289;38,49645
 285,19;   29,437;   27,067;   57,759; 7,72401
 285,78;   37,802;   23,270;   63,808;35,84783
 286,38;   49,903;   39,665;   59,207;52,38961
 286,98;   44,305;   35,168;   73,535;23,81470
 287,58;   24,761;    4,771;   61,403;35,29807
 288,17;   28,604;    8,973;   80,336;27,50865
 288,77;   48,660;   19,976;   92,504;39,54884
 289,37;   25,018;   11,269;   57,670;29,63084
 289,97;   45,557;   48,965;   66,647;-19,27133
 290,57;   55,336;   46,672;   93,260;18,59853
 291,16;   69,513;   63,868;  102,616;14,56940
 291,76;   25,185;    5,570;   47,346;46,95367
 292,36;   37,075;   34,367;   58,137;11,39251
 292,96;   28,312;   -3,127;   60,117;49,71112
 293,55;   34,292;   24,267;   65,399;24,37208
 294,15;   31,248;   26,870;   62,567;12,26386
 294,75;   43,003;   42,065;   66,207; 3,88561
 295,35;   24,513;   21,068;   52,016;11,13270
 295,94;   45,846;   42,967;   66,740;12,11058
 296,54;   29,043;   30,768;   70,613;-4,33110
 297,14;   36,099;   29,971;   76,881;13,06191
 297,73;   18,240;   12,165;   40,085;21,75994
 298,33;   43,870;   28,066;   57,583;53,54317
 298,93;   54,797;   41,968;   82,554;31,60860
 299,53;   29,628;   24,872;   69,079;10,75915
 300,12;   12,199;  -12,229;   59,481;34,06406
 300,72;   69,221;   41,567;   91,197;55,72065
 301,32;   52,569;   25,771;   99,584;36,30571
 301,92;   20,527;    3,664;   33,050;57,38562
 302,51;   26,929;   11,567;   49,978;39,99471
 303,11;   27,137;   14,667;   48,759;36,57949
 303,71;   39,434;   21,369;   82,132;29,73141
 304,30;   24,124;    5,466;   38,423;56,61373
 304,90;   14,070;   19,666;   44,283;-22,73075
 305,50;   41,286;   18,565;   64,345;49,63174
 306,09;   44,716;   15,466;   49,042;87,11520
 306,69;   55,507;   34,171;   90,262;38,03757
 307,29;   27,787;   18,760;   33,144;62,76087
 307,88;   51,810;   43,269;   72,489;29,22881
 308,48;   23,694;    0,070;   49,727;47,57367
 309,08;   -3,940;   -4,437;   11,774; 3,06628
 309,68;   26,140;   22,365;   39,585;21,92435
 310,27;   19,464;   20,169;   49,830;-2,37766
 310,87;   37,343;   23,468;   54,813;44,26340
 311,47;   55,883;   54,967;   92,918; 2,41474
 312,06;   45,695;   47,865;   68,426;-10,55577
 312,66;   74,013;   51,168;  100,016;46,76822
 313,26;   62,823;   48,571;   96,224;29,90865
 313,85;   54,437;   38,267;   65,959;58,39487
 314,45;   52,872;   42,969;   86,611;22,69213
 315,04;   57,795;   52,165;   81,826;18,98002
 315,64;   33,721;   21,267;   47,897;46,76719
 316,24;   43,894;   40,770;   85,627; 6,96368
 316,83;   52,316;   40,366;   76,742;32,85136
 317,43;   42,267;   35,167;   68,156;21,52122
 318,03;   50,444;   39,063;   70,012;36,77134
 318,62;   72,055;   73,061;   94,820;-4,62611
 319,22;   44,388;    7,668;   66,973;61,91818
 319,82;   56,413;   40,768;   93,516;29,66054
 320,41;   72,934;   59,069;   98,732;34,95870
 321,01;   94,686;   80,465;  115,945;40,08280
 321,60;   77,081;   81,164;  102,790;-18,87678
 322,20;   90,096;   67,673;  132,855;34,40011
 322,80;   65,121;   54,567;   91,797;28,34803
 323,39;   71,465;   65,764;   94,828;19,61427
 323,99;   73,708;   61,766;  102,661;29,20084
 324,59;   83,044;   73,063;   97,512;40,82121
 325,18;   66,929;   40,967;   92,178;50,69695
 325,78;   92,440;   76,365;  108,885;49,43206
 326,37;   84,759;   74,868;  108,075;29,78595
 326,97;   73,621;   63,267;  111,497;21,46781
 327,57;   47,052;   42,263;   76,493;13,98966
 328,16;   72,135;   60,864;   93,631;34,39949
 328,76;   69,946;   50,467;  110,140;32,64293
 329,35;   86,769;   56,871;  137,484;37,08872
 329,95;   60,702;   27,470;   91,308;52,05667
 330,54;   69,283;   52,167;   94,018;40,89825
 331,14;   41,492;   26,967;   82,599;26,10856
 331,74;   71,886;   54,165;   96,145;42,21386
 332,33;   67,394;   35,370;  108,127;44,01454
 332,93;   47,827;   43,764;   79,250;11,45059
 333,52;   59,462;   42,466;   93,102;33,56508
 334,12;  105,180;   72,069;  140,392;48,46346
 334,71;   57,816;   50,666;   87,942;19,18141
 335,31;   73,537;   63,267;  119,859;18,14861
 335,90;   46,076;   32,362;   53,836;63,86370
 336,50;   41,803;   30,665;   77,207;23,93114
 337,10;   58,964;   38,769;  121,530;24,40152
 337,69;   64,903;   51,765;   93,707;31,32425
 338,29;   56,775;   30,467;  101,037;37,27931
 338,88;   42,697;   22,468;   99,854;26,13992
 339,48;   64,330;   57,862;  111,677;12,01938
 340,07;   67,354;   48,566;  107,321;31,97630
 340,67;   60,169;   31,171;  124,784;30,97684
 341,26;   62,816;   48,466;   98,942;28,42941
 341,86;   90,256;   61,469;  138,348;37,44370
 342,45;   75,310;   45,669;  142,689;30,55108
 343,05;   61,910;   27,269;  115,689;39,17744
 343,64;   69,000;   47,366;  122,480;28,80067
 344,24;   44,103;   28,765;   92,107;24,21463
 344,83;   69,457;   71,365;  121,747;-3,78644
 345,43;   50,546;   29,667;  114,240;24,68758
 346,02;   58,726;   41,469;  124,351;20,82162
 346,62;   65,723;   40,971;  140,424;24,88855
 347,21;   58,140;   42,165;  131,985;17,78600
 347,81;   65,136;   26,172;  140,560;34,06360
 348,40;   44,235;   29,064;  100,731;21,16975
 349,00;   68,844;   49,163;  137,712;22,22532
 349,59;   91,485;   65,870;  177,846;22,87572
 350,19;   48,623;   32,571;  139,424;15,02298
 350,78;   63,337;   55,467;  140,759; 9,22789
 351,38;   45,326;   15,869;  140,951;23,55044
 351,97;   63,346;   26,767;  136,040;33,47488
 352,57;   69,294;   42,570;  155,827;23,59561
 353,16;   49,565;   30,564;  134,328;18,31146
 353,76;   72,285;   38,770;  169,846;25,56938
 354,35;   55,456;   27,669;  160,148;20,97415
 354,95;   71,548;   43,970;  182,067;19,96986
 355,54;   62,288;   38,368;  163,973;19,04401
 356,14;   65,156;   40,069;  164,749;20,12074
 356,73;   46,730;   29,162;  145,176;15,14308
 357,32;   49,134;   13,769;  164,432;23,47340
 357,92;   62,882;   17,772;  181,419;27,56565
 358,51;   82,428;   43,372;  214,179;22,86576
 359,11;   63,636;   36,772;  212,360;15,29984
 359,70;   45,977;   28,470;  189,965;10,84052
 360,30;   79,647;   54,562;  188,039;18,79351
 360,89;   51,197;   31,168;  188,054;12,76632
 361,48;   84,448;   55,570;  216,467;17,94800
 362,08;   57,867;   19,867;  187,156;22,71497
 362,67;   68,952;   39,763;  192,693;19,08629
 363,27;   92,629;   60,767;  247,678;17,04676
 363,86;   74,886;   35,765;  215,745;21,73647
 364,46;   87,735;   44,664;  257,231;20,26266
 365,05;  104,482;   64,659;  254,989;20,92335
 365,64;   93,604;   50,960;  269,706;19,49476
 366,24;   94,707;   38,558;  309,432;20,72873
 366,83;  115,842;   43,255;  335,383;24,84779
 367,43;  115,461;   51,545;  352,843;21,21356
 368,02;  136,812;   34,646;  399,757;27,98208
 368,61;  155,140;   62,239;  475,425;22,48416
 369,21;  133,582;   32,419;  445,299;24,50172
 369,80;  166,920;   43,007;  526,947;25,60499
 370,39;  201,552;   62,006;  604,971;25,70082
 370,99;  200,621;   42,089;  615,416;27,65120
 371,58;  181,878;   22,974;  630,953;26,13640
 372,18;  218,914;   37,166;  701,603;27,35375
 372,77;  207,266;   42,449;  679,385;25,87651
 373,36;  215,502;   42,747;  690,836;26,65609
 373,96;  213,091;   35,135;  639,498;29,44508
 374,55;  211,729;   29,844;  621,406;30,74665
 375,14;  181,020;   42,849;  573,826;26,02206
 375,74;  201,584;   69,157;  543,276;27,93107
 376,33;  172,063;   45,964;  464,589;30,12222
 376,92;  133,201;   33,278;  447,997;24,09419
 377,52;  229,772;   86,103;  548,460;31,07305
 378,11;  173,396;   46,703;  457,203;30,86320
 378,71;  190,881;   73,011;  514,270;26,71214
 379,30;  202,755;   59,517;  553,928;28,97152
 379,89;  205,124;   59,813;  556,103;29,27940
 380,49;  191,931;   31,018;  568,185;29,95588
 381,08;  214,144;   70,306;  570,990;28,72832
 381,67;  215,433;   55,008;  555,483;32,05456
 382,26;  200,244;   41,706;  539,390;31,85517
 382,86;  212,580;   54,003;  516,041;34,32115
 383,45;  215,494;   50,412;  562,105;32,26187
 384,04;  218,602;   38,712;  553,886;34,91832
 384,64;  232,899;   49,014;  566,760;35,51653
 385,23;  244,136;   64,406;  560,509;36,22831
 385,82;  247,450;   59,615;  592,774;35,23060
 386,42;  282,143;   61,024;  659,022;36,97661
 387,01;  259,907;   55,414;  580,541;38,94177
 387,60;  283,708;   69,009;  590,140;41,19881
 388,20;  256,094;   37,712;  590,805;39,48373
 388,79;  305,569;   72,418;  665,563;39,30748
 389,38;  274,644;   32,106;  564,890;45,52277
 389,97;  301,058;   45,415;  640,955;42,92633
 390,57;  301,437;   71,114;  654,038;39,51163
 391,16;  324,737;   62,514;  655,838;44,19554
 391,75;  325,770;   52,713;  638,562;46,60866
 392,34;  347,441;   60,821;  696,694;45,07510
 392,94;  356,061;   44,718;  689,683;48,27278
 393,53;  346,334;   41,016;  666,612;48,80436
 394,12;  381,522;   53,023;  719,105;49,31805
 394,72;  389,516;   54,213;  706,122;51,43394
 395,31;  396,950;   42,115;  694,874;54,35931
 395,90;  417,089;   42,924;  732,881;54,23020
 396,49;  457,029;   58,028;  779,187;55,32773
 397,09;  436,901;   47,417;  749,188;55,50023
 397,68;  480,073;   44,025;  800,719;57,62540
 398,27;  506,116;   54,626;  809,652;59,79788
 398,86;  481,156;   43,125;  807,657;57,29406
 399,45;  511,493;   56,630;  844,037;57,76724
 400,05;  514,974;   23,820;  799,518;63,31768
 400,64;  547,852;   56,419;  831,001;63,44496
 401,23;  557,657;   53,920;  859,956;62,49566
 401,82;  602,057;   67,220;  868,256;66,76822
 402,42;  607,887;   62,921;  873,953;67,19413
 403,01;  630,473;   81,525;  912,919;66,02741
 403,60;  649,861;   68,532;  940,513;66,66763
 404,19;  658,181;   76,024;  931,900;68,01883
 404,78;  652,354;   57,522;  909,929;69,78266
 405,38;  702,090;   68,332;  984,210;69,19678
 405,97;  701,724;   63,226;  953,933;71,68438
 406,56;  729,267;   71,528; 1004,366;70,50944
 407,15;  726,334;   68,829;  989,442;71,42037
 407,74;  778,356;   80,730; 1026,758;73,74256
 408,34;  756,382;   50,933; 1018,629;72,89987
 408,93;  781,323;   59,531; 1016,234;75,44575
 409,52;  780,455;   51,435; 1041,359;73,64396
 410,11;  837,015;   84,931; 1090,453;74,79534
 410,70;  799,453;   54,727; 1027,230;76,57829
 411,29;  832,475;   58,628; 1030,847;79,59596
 411,89;  866,892;   60,535; 1093,938;78,02932
 412,48;  837,621;   48,228; 1051,606;78,67350
 413,07;  864,304;   65,033; 1101,446;77,11894
 413,66;  886,400;   78,135; 1102,119;78,93341
 414,25;  913,089;   63,337; 1142,311;78,75556
 414,84;  912,223;   69,431; 1102,434;81,58657
 415,44;  948,764;   91,530; 1155,939;80,53610
 416,03;  931,906;   76,637; 1161,173;78,86031
 416,62;  959,857;   76,138; 1168,687;80,88593
 417,21;  962,833;   75,334; 1158,843;81,90971
 417,80; 1000,835;   65,037; 1162,871;85,24042
 418,39; 1007,508;   78,440; 1179,201;84,40230
 418,98;  971,849;   55,634; 1143,405;84,22871
 419,58;  981,966;   64,033; 1142,067;85,14877
 420,17;  976,063;   52,735; 1164,540;83,04761
 420,76; 1008,906;   72,537; 1192,873;83,57926
 421,35;  988,438;   60,236; 1155,197;84,77033
 421,94; 1059,208;   88,340; 1223,501;85,52686
 422,53;  988,599;   61,540; 1195,320;81,76714
 423,12; 1028,894;   64,039; 1190,766;85,63350
 423,71; 1014,592;   60,835; 1162,138;86,60263
 424,30; 1051,368;   85,236; 1210,695;85,84337
 424,90;  997,919;   39,438; 1163,809;85,24599
 425,49; 1048,862;   70,140; 1216,242;85,39572
 426,08; 1050,562;   80,240; 1209,641;85,91469
 426,67; 1016,084;   57,436; 1168,257;86,30088
 427,26; 1062,726;   60,343; 1230,391;85,67027
 427,85; 1060,565;   63,238; 1209,968;86,97136
 428,44; 1083,796;   68,442; 1218,093;88,31846
 429,03; 1095,813;   85,341; 1233,155;88,03442
 429,62; 1076,967;   78,941; 1240,296;85,93633
 430,21; 1101,747;   81,443; 1277,807;85,28376
 430,80; 1084,044;   70,445; 1235,381;87,00905
 431,39; 1097,339;   53,344; 1246,926;87,46740
 431,99; 1095,792;   78,535; 1206,838;90,15818
 432,58; 1105,294;   82,639; 1251,166;87,51666
 433,17; 1098,000;   69,735; 1238,319;87,99244
 433,76; 1114,187;   71,347; 1288,314;85,69177
 434,35; 1144,253;   88,245; 1292,462;87,69249
 434,94; 1138,984;   70,849; 1318,887;85,58516
 435,53; 1142,464;   78,643; 1278,669;88,64979
 436,12; 1131,593;   70,044; 1294,267;86,71212
 436,71; 1171,791;   87,740; 1303,239;89,18570
 437,30; 1156,775;   76,941; 1299,177;88,34906
 437,89; 1191,107;   76,245; 1320,802;89,57899
 438,48; 1165,580;   65,942; 1305,731;88,69556
 439,07; 1166,402;   95,238; 1347,147;85,56251
 439,66; 1204,117;   83,648; 1375,711;86,71937
 440,25; 1194,093;   85,844; 1390,567;84,94137
 440,84; 1192,014;   79,850; 1387,984;85,01908
 441,43; 1226,913;   78,054; 1440,985;84,29322
 442,02; 1215,297;   79,650; 1411,022;85,29901
 442,61; 1221,539;   93,344; 1397,226;86,52586
 443,20; 1245,168;   94,249; 1446,625;85,10348
 443,79; 1222,812;   74,546; 1412,957;85,79324
 444,38; 1278,855;   84,248; 1461,789;86,72019
 444,97; 1268,682;   84,146; 1466,359;85,69852
 445,56; 1303,320;  101,846; 1477,038;87,36775
 446,15; 1296,519;   81,651; 1522,539;84,31385
 446,74; 1278,485;   58,644; 1462,286;86,90545
 447,33; 1339,112;   82,646; 1538,357;86,31288
 447,92; 1340,927;   78,151; 1570,720;84,60422
 448,51; 1392,828;   89,746; 1586,019;87,08855
 449,10; 1386,590;   92,045; 1608,840;85,34740
 449,69; 1423,989;   73,950; 1627,741;86,88679
 450,28; 1444,971;   66,948; 1608,251;89,40634
 450,87; 1459,779;   78,647; 1656,333;87,54166
 451,46; 1529,947;   96,048; 1702,208;89,27492
 452,05; 1537,914;   70,950; 1715,384;89,20781
 452,64; 1577,643;   70,850; 1725,182;91,08169
 453,23; 1635,448;  113,752; 1794,936;90,51337
 453,82; 1649,181;   83,451; 1800,660;91,17876
 454,40; 1668,743;   65,450; 1786,682;93,14802
 454,99; 1751,454;  101,253; 1871,891;93,19810
 455,58; 1750,795;   69,747; 1832,095;95,38688
 456,17; 1814,178;   63,852; 1873,634;96,71477
 456,76; 1833,427;   67,751; 1918,820;95,38684
 457,35; 1834,555;   78,348; 1930,490;94,82033
 457,94; 1900,437;   66,954; 1978,929;95,89476
 458,53; 1928,535;   67,350; 2010,101;95,80154
 459,12; 2010,885;   82,657; 2111,116;95,05878
 459,71; 2007,263;   58,148; 2060,071;97,36215
 460,30; 2066,917;   84,448; 2087,511;98,97187
 460,89; 2063,127;   57,551; 2129,920;96,77700
 461,48; 2130,537;   75,954; 2173,829;97,93642
 462,06; 2135,706;   68,050; 2187,303;97,56528
 462,65; 2154,738;   48,249; 2176,527;98,97621
 463,24; 2262,872;   87,456; 2288,680;98,82755
 463,83; 2246,006;   54,450; 2229,803;100,74481
 464,42; 2304,384;   88,349; 2333,687;98,69495
 465,01; 2333,143;   73,050; 2336,482;99,85250
 465,60; 2335,097;   64,050; 2384,322;97,87849
 466,19; 2378,637;   73,354; 2462,829;96,47658
 466,77; 2403,219;   81,551; 2462,939;97,49223
 467,36; 2410,039;   69,457; 2459,256;97,94054
 467,95; 2429,465;   79,551; 2466,098;98,46500
 468,54; 2455,521;   71,954; 2513,866;97,61067
 469,13; 2479,603;   69,452; 2535,977;97,71443
 469,72; 2484,497;   67,555; 2582,723;96,09462
 470,31; 2487,088;   87,855; 2629,242;94,40644
 470,90; 2491,060;   76,750; 2652,044;93,74890
 471,48; 2488,831;   32,057; 2671,875;93,06604
 472,07; 2557,841;  125,747; 2686,454;94,97745
 472,66; 2544,316;   67,853; 2748,412;92,38606
 473,25; 2494,819;   68,351; 2723,339;91,39280
 473,84; 2519,759;   55,955; 2766,545;90,89548
 474,43; 2545,928;   55,459; 2843,049;89,34131
 475,01; 2560,967;   69,254; 2885,926;88,46302
 475,60; 2518,751;   49,755; 2882,364;87,16331
 476,19; 2546,307;   74,158; 2956,932;85,75588
 476,78; 2576,439;   71,057; 2964,456;86,58959
 477,37; 2520,051;   59,355; 2945,364;85,26292
 477,95; 2561,280;   75,656; 3018,661;84,45871
 478,54; 2586,054;   63,253; 3023,691;85,21715
 479,13; 2584,854;   56,253; 3070,291;83,89414
 479,72; 2632,929;   81,154; 3090,147;84,80494
 480,31; 2624,720;   63,459; 3167,468;82,51462
 480,89; 2623,967;   60,254; 3171,026;82,41404
 481,48; 2647,842;   46,260; 3214,084;82,12519
 482,07; 2674,021;   61,654; 3233,866;82,35158
 482,66; 2697,800;   52,853; 3253,650;82,63399
 483,25; 2758,842;   78,960; 3319,884;82,68881
 483,83; 2766,013;   59,954; 3325,385;82,86987
 484,42; 2825,437;   54,354; 3355,129;83,95251
 485,01; 2812,615;   65,958; 3400,413;82,37199
 485,60; 2872,881;   73,764; 3490,590;81,92156
 486,18; 2879,380;   66,956; 3490,761;82,14322
 486,77; 2920,049;   67,252; 3519,736;82,63026
 487,36; 2993,427;   58,464; 3561,750;83,77744
 487,95; 2990,671;   59,161; 3640,781;81,84871
 488,53; 3007,325;   54,461; 3642,522;82,29693
 489,12; 3027,198;   50,563; 3722,252;81,06989
 489,71; 3021,038;   38,062; 3680,357;81,89825
 490,30; 3054,233;   61,460; 3742,503;81,30232
 490,88; 3116,917;   87,561; 3859,141;80,32061
 491,47; 3094,844;   60,663; 3867,512;79,70320
 492,06; 3124,914;   62,563; 3920,615;79,37558
 492,65; 3112,809;   59,161; 3947,060;78,54236
 493,23; 3096,595;   54,860; 3982,825;77,43795
 493,82; 3117,508;   65,853; 4018,031;77,21451
 494,41; 3093,501;   51,361; 4066,179;75,77279
 494,99; 3087,159;   73,655; 4126,945;74,34711
 495,58; 3124,133;   86,060; 4224,403;73,41279
 496,17; 3097,772;   56,356; 4198,681;73,42293
 496,76; 3095,380;   65,356; 4276,761;71,94806
 497,34; 3050,377;   54,557; 4305,235;70,47864
 497,93; 3033,631;   66,057; 4350,675;69,26111
 498,52; 3036,312;   60,059; 4454,387;67,72942
 499,10; 2994,184;   75,862; 4533,217;65,47207
 499,69; 2979,604;   55,360; 4537,006;65,24933
 500,28; 2915,020;   37,959; 4592,068;63,17506
 500,86; 2937,847;   62,862; 4698,539;62,01867
 501,45; 2904,547;   53,462; 4730,438;60,96000
 502,04; 2868,038;   53,362; 4813,958;59,12446
 502,62; 2892,572;   70,956; 4856,181;58,96518
 503,21; 2816,264;   57,856; 4939,699;56,50341
 503,80; 2831,030;   69,662; 5015,577;55,83130
 504,38; 2811,896;   58,460; 5081,425;54,81694
 504,97; 2836,630;   49,962; 5122,776;54,93338
 505,56; 2842,382;   70,859; 5194,989;54,08769
 506,14; 2813,873;   64,064; 5263,709;52,88455
 506,73; 2748,103;   23,565; 5292,507;51,70940
 507,32; 2787,586;   62,865; 5376,045;51,28231
 507,90; 2786,042;   70,860; 5443,284;50,53922
 508,49; 2817,349;   58,865; 5500,366;50,69343
 509,08; 2815,035;   67,264; 5571,931;49,91713
 509,66; 2821,787;   69,960; 5677,644;49,07244
 510,25; 2849,263;   63,561; 5737,400;49,09730
 510,83; 2859,003;   45,165; 5855,607;48,42726
 511,42; 2916,843;   61,968; 5895,913;48,93557
 512,01; 2912,265;   59,164; 5980,328;48,18479
 512,59; 2969,030;   46,562; 6041,676;48,74750
 513,18; 2997,501;   59,961; 6114,379;48,51894
 513,77; 2993,693;   42,257; 6171,797;48,15103
 514,35; 3017,568;   37,763; 6190,255;48,43250
 514,94; 3057,384;   58,662; 6323,517;47,86579
 515,52; 3068,916;   48,166; 6358,342;47,87109
 516,11; 3119,757;   80,665; 6474,047;47,53497
 516,69; 3068,466;   41,959; 6446,727;47,25397
 517,28; 3113,761;   83,358; 6541,973;46,92032
 517,87; 3104,669;   45,558; 6604,054;46,64349
 518,45; 3088,453;   74,858; 6626,192;45,99971
 519,04; 3125,291;   54,258; 6707,970;46,15517
 519,62; 3124,714;   55,863; 6774,114;45,67931
 520,21; 3126,462;   24,466; 6828,002;45,59388
 520,79; 3173,359;   52,068; 7000,875;44,91837
 521,38; 3144,379;   52,960; 6995,363;44,52952
 521,97; 3166,997;   43,068; 7141,554;44,00838
 522,55; 3149,036;   67,759; 7195,230;43,23101
 523,14; 3159,782;   26,759; 7180,289;43,79689
 523,72; 3198,225;   77,561; 7383,422;42,71453
 524,31; 3169,303;   71,665; 7406,107;42,23413
 524,89; 3170,113;   48,468; 7526,815;41,74245
 525,48; 3158,100;   21,666; 7603,580;41,36730
 526,06; 3180,265;   56,264; 7633,128;41,23079
 526,65; 3236,331;   72,370; 7803,105;40,92704
 527,23; 3165,822;   46,262; 7840,596;40,02343
 527,82; 3193,329;   37,967; 7905,978;40,10369
 528,41; 3269,254;   67,366; 8041,021;40,15583
 528,99; 3279,149;   66,365; 8108,167;39,95105
 529,58; 3287,576;   42,562; 8168,736;39,93286
 530,16; 3338,101;   49,461; 8315,379;39,78553
 530,75; 3431,519;   73,964; 8417,069;40,24347
 531,33; 3446,600;   45,566; 8440,980;40,51061
 531,92; 3506,587;   48,560; 8567,344;40,59297
 532,50; 3664,048;   87,770; 8706,468;41,49441
 533,09; 3727,732;   65,665; 8807,204;41,89271
 533,67; 3836,745;   63,458; 8952,011;42,45108
 534,26; 3896,950;   65,760; 9007,665;42,84534
 534,84; 4041,609;   68,461; 9127,061;43,86051
 535,42; 4138,219;   61,564; 9205,969;44,58087
 536,01; 4247,514;   79,263; 9330,215;45,05754
 536,59; 4354,062;   43,366; 9482,202;45,66978
 537,18; 4534,504;   77,360; 9568,605;46,96058
 537,76; 4629,690;   56,972; 9764,700;47,10390
 538,35; 4747,451;   59,368; 9892,694;47,67545
 538,93; 4868,765;   72,664; 9941,828;48,59683
 539,52; 4945,832;   57,370;10111,405;48,62188
 540,10; 5096,464;   63,269;10309,029;49,12466
 540,69; 5157,890;   68,763;10444,071;49,05036
 541,27; 5270,784;   58,262;10514,917;49,84885
 541,85; 5341,270;   47,366;10658,783;49,88876
 542,44; 5421,941;   56,460;10765,484;50,10243
 543,02; 5548,264;   80,369;10952,729;50,29170
 543,61; 5608,783;   77,067;11102,218;50,17361
 544,19; 5661,524;   55,066;11264,023;50,01766
 544,78; 5711,208;   62,766;11296,562;50,28080
 545,36; 5814,872;   77,469;11521,011;50,13660
 545,94; 5842,519;   54,564;11563,069;50,29285
 546,53; 5940,299;   52,771;11724,882;50,44098
 547,11; 6076,988;   90,668;11879,873;50,77798
 547,70; 6021,204;   75,860;11954,706;50,04984
 548,28; 6129,549;   47,965;12093,066;50,49010
 548,86; 6225,249;   81,365;12327,767;50,16889
 549,45; 6267,797;   33,768;12364,953;50,55499
 550,03; 6337,075;   76,467;12507,537;50,36258
 550,62; 6407,916;   63,566;12662,842;50,35488
 551,20; 6497,684;   61,467;12808,418;50,49221
 551,78; 6499,427;   61,164;12952,850;49,94121
 552,37; 6560,019;   55,864;13112,469;49,81506
 552,95; 6646,757;   56,765;13214,547;50,08437
 553,54; 6692,803;   49,965;13393,207;49,78429
 554,12; 6774,721;   67,167;13498,797;49,93850
 554,70; 6838,688;   67,568;13736,973;49,53486
 555,29; 6894,141;   61,965;13856,285;49,52890
 555,87; 6956,640;   60,170;13987,786;49,51651
 556,45; 6991,738;   57,162;14154,058;49,19222
 557,04; 7064,992;   43,667;14376,600;48,98736
 557,62; 7128,091;   68,867;14525,499;48,83035
 558,20; 7186,945;   42,671;14799,940;48,41189
 558,79; 7318,959;  100,368;14905,875;48,75612
 559,37; 7296,483;   49,867;15000,418;48,47056
 559,95; 7398,480;   46,669;15169,691;48,61338
 560,54; 7473,042;   71,768;15324,613;48,52389
 561,12; 7459,408;   50,866;15485,562;47,99927
 561,70; 7567,126;   50,369;15679,551;48,09438
 562,29; 7657,250;   61,768;15810,994;48,22766
 562,87; 7775,297;   73,168;16023,953;48,28683
 563,45; 7820,297;   71,068;16194,754;48,06115
 564,04; 7793,722;   54,362;16227,195;47,85408
 564,62; 7944,034;   37,769;16438,332;48,20728
 565,20; 7965,447;   59,962;16715,838;47,46364
 565,78; 8069,995;   70,765;16797,326;47,82352
 566,37; 8123,270;   71,066;17011,283;47,53306
 566,95; 8211,564;   52,969;17124,330;47,79112
 567,53; 8257,839;   67,262;17308,857;47,50475
 568,12; 8225,849;   62,265;17367,766;47,17335
 568,70; 8469,711;   85,264;17565,889;47,96423
 569,28; 8497,526;   61,069;17745,252;47,70623
 569,86; 8524,838;   67,767;17910,758;47,39716
 570,45; 8695,010;   78,569;18124,689;47,74678
 571,03; 8692,293;   53,962;18259,898;47,44788
 571,61; 8803,224;   46,571;18424,824;47,64682
 572,19; 8789,859;   54,263;18395,773;47,62747
 572,78; 8861,559;   70,668;18668,975;47,26716
 573,36; 8959,719;   84,264;18797,668;47,42833
 573,94; 9041,327;   44,064;18892,750;47,73417
 574,52; 9064,120;   54,559;19030,768;47,47819
 575,11; 9101,735;   37,264;19159,830;47,40196
 575,69; 9213,199;   53,566;19268,680;47,66890
 576,27; 9202,071;   47,161;19391,381;47,32634
 576,85; 9348,219;   43,264;19549,668;47,70205
 577,44; 9315,839;   30,262;19814,158;46,93503
 578,02; 9417,612;   32,159;19753,887;47,58941
 578,60; 9454,881;   50,464;20073,791;46,96730
 579,18; 9586,897;   51,963;20160,752;47,41675
 579,76; 9608,365;   40,264;20300,129;47,22688
 580,35; 9653,202;   60,170;20436,707;47,07882
 580,93; 9815,867;   59,667;20641,557;47,40187
 581,51; 9713,947;   24,770;20697,168;46,87012
 582,09; 9744,168;   58,663;20755,756;46,79645
 582,67; 9843,884;   49,567;20971,318;46,81404
 583,26; 9873,643;   28,568;21227,014;46,44244
 583,84; 9935,773;   14,164;21413,709;46,36365
 584,42;10032,611;   48,064;21513,287;46,51499
 585,00;10168,699;   81,366;21772,180;46,50509
 585,58;10139,491;   25,167;21912,299;46,21128
 586,17;10225,125;   46,761;21948,521;46,47281
 586,75;10119,562;    6,666;22026,902;45,92546
 587,33;10277,329;   47,767;22191,678;46,19582
 587,91;10314,062;   74,866;22390,201;45,88412
 588,49;10313,238;   63,962;22349,758;45,99017
 589,07;10309,613;   45,468;22403,215;45,90868
 589,65;10274,146;   28,267;22444,439;45,70753
 590,24;10305,393;   42,562;22447,799;45,80550
 590,82;10337,009;   28,261;22484,160;45,90664
 591,40;10367,773;   41,464;22520,209;45,93810
 591,98;10354,166;   45,759;22558,227;45,78977
 592,56;10438,709;   61,161;22699,961;45,83966
 593,14;10347,666;   43,359;22728,928;45,42230
 593,72;10417,103;   29,765;22889,107;45,44023
 594,30;10498,712;   36,759;22797,486;45,96493
 594,89;10476,665;   41,364;22862,428;45,72662
 595,47;10493,825;   38,961;22922,623;45,68702
 596,05;10546,292;   30,267;23003,799;45,77453
 596,63;10514,392;   31,167;23056,199;45,52969
 597,21;10585,216;   36,766;23145,441;45,64714
 597,79;10557,546;   35,467;23166,039;45,48992
 598,37;10636,056;   36,669;23222,748;45,71444
 598,95;10630,862;   50,766;23305,301;45,49692
 599,53;10596,894;   46,757;23207,996;45,55083
 600,11;10667,457;   48,665;23341,947;45,58736
 600,70;10603,443;   57,363;23315,111;45,34437
 601,28;10583,273;   38,564;23424,809;45,08937
 601,86;10577,762;   61,766;23355,102;45,14594
 602,44;10558,108;   23,661;23449,660;44,96904
 603,02;10562,526;   38,656;23576,521;44,71039
 603,60;10535,106;   54,858;23663,232;44,39208
 604,18;10565,105;   69,263;23594,734;44,61480
 604,76;10481,068;   59,263;23642,154;44,19223
 605,34;10329,979;   27,565;23530,764;43,83409
 605,92;10263,354;   59,561;23453,719;43,61684
 606,50;10172,492;   17,662;23498,998;43,24639
 607,08;10048,199;   31,666;23394,881;42,87309
 607,66;10049,916;   39,266;23561,643;42,55799
 608,24; 9853,037;   46,067;23522,059;41,77447
 608,82; 9775,136;   26,164;23532,031;41,47463
 609,40; 9604,653;   46,466;23471,021;40,80413
 609,98; 9474,665;   18,864;23505,928;40,25961
 610,56; 9386,680;   43,861;23497,662;39,83499
 611,14; 9240,841;   30,765;23481,086;39,27484
 611,72; 9117,648;   42,665;23572,467;38,56804
 612,30; 8992,922;   24,962;23468,496;38,25345
 612,88; 8929,836;   60,659;23517,730;37,81025
 613,46; 8716,893;   21,862;23505,697;37,02560
 614,04; 8615,988;   30,068;23461,873;36,64216
 614,62; 8491,271;   41,561;23489,982;36,03531
 615,20; 8355,413;   52,768;23402,416;35,55790
 615,78; 8282,864;   25,569;23463,430;35,23058
 616,36; 8185,227;   41,364;23400,150;34,86424
 616,94; 8048,416;    7,666;23272,242;34,56220
 617,52; 7885,567;   24,067;23373,656;33,66868
 618,10; 7888,374;   63,559;23336,107;33,62251
 618,68; 7777,570;   17,966;23253,184;33,39588
 619,26; 7657,405;   39,268;23398,834;32,61249
 619,84; 7560,906;   18,963;23277,133;32,42707
 620,42; 7506,603;   31,165;23313,506;32,10776
 621,00; 7516,403;   28,865;23209,607;32,30068
 621,58; 7482,804;   38,760;23216,406;32,11734
 622,16; 7525,577;   49,270;23335,164;32,10659
 622,74; 7571,716;   47,066;23327,742;32,32144
 623,32; 7641,524;   42,166;23291,223;32,68674
 623,90; 7707,069;   66,971;23311,484;32,86840
 624,48; 7757,393;   32,662;23196,598;33,34809
 625,05; 7978,592;   34,562;23105,098;34,43366
 625,63; 8086,993;   52,962;23188,799;34,72548
 626,21; 8155,922;   38,262;23117,596;35,17285
 626,79; 8267,583;   53,967;23219,719;35,45586
 627,37; 8330,385;   28,162;23090,717;35,99871
 627,95; 8414,713;   72,768;23200,215;36,06946
 628,53; 8456,203;   49,365;23176,607;36,35037
 629,11; 8480,328;   48,259;23043,449;36,66884
 629,69; 8563,334;   53,369;23256,932;36,67525
 630,27; 8491,706;   80,763;23105,434;36,53013
 630,84; 8514,393;   43,862;23021,197;36,86472
 631,42; 8478,767;   54,367;23319,656;36,21016
 632,00; 8426,021;   45,459;23125,768;36,31044
 632,58; 8326,390;   50,263;23105,172;35,89746
 633,16; 8303,932;   49,870;23096,906;35,81398
 633,74; 8212,211;   56,264;23018,488;35,51897
 634,32; 8093,117;   45,661;23007,842;35,04657
 634,90; 8081,286;   51,970;23195,746;34,69320
 635,47; 7959,788;   38,860;23035,645;34,44363
 636,05; 7826,017;   37,461;22989,342;33,93428
 636,63; 7716,003;   45,965;23104,807;33,26289
 637,21; 7618,365;   67,464;23150,529;32,71186
 637,79; 7639,232;   71,465;23192,904;32,73052
 638,37; 7495,342;   54,055;23070,883;32,32977
 638,94; 7440,641;   33,265;23100,686;32,11185
 639,52; 7399,141;   41,665;23195,285;31,77678
 640,10; 7379,846;   64,264;23215,900;31,59855
 640,68; 7361,596;   54,164;23175,334;31,60494
 641,26; 7369,446;   35,864;23250,268;31,59065
 641,84; 7337,295;   39,164;23235,002;31,46311
 642,41; 7294,045;   28,264;23192,936;31,36579
 642,99; 7359,495;   48,464;23145,568;31,65345
 643,57; 7376,745;   22,064;23158,402;31,78844
 644,15; 7394,095;   27,064;23178,035;31,82169
 644,73; 7467,944;   37,564;23277,568;31,97237
 645,30; 7421,794;   55,264;23230,303;31,78648
 645,88; 7475,644;   44,964;23362,635;31,86716
 646,46; 7467,494;   59,264;23447,568;31,67493
 647,04; 7413,343;   51,864;23367,902;31,57260
 647,61; 7379,793;   46,564;23396,336;31,40600
 648,19; 7343,843;   61,664;23433,369;31,15810
 648,77; 7249,593;   26,264;23442,002;30,84818
 649,35; 7203,942;   51,064;23590,137;30,38726
 649,92; 7178,192;   42,464;23596,070;30,29569
 650,50; 7050,742;   30,064;23551,104;29,84850
 651,08; 7003,492;   39,964;23450,537;29,74522
 651,66; 6963,941;   21,864;23534,770;29,52454
 652,23; 6975,991;   39,064;23561,004;29,49130
 652,81; 6923,741;   36,464;23644,137;29,17389
 653,39; 6962,391;   56,164;23647,170;29,27483
 653,97; 6914,541;   37,065;23882,504;28,84189
 654,54; 6912,090;   23,565;23823,137;28,94391
 655,12; 6990,540;   30,965;23831,971;29,24068
 655,70; 7034,990;   42,065;23962,805;29,23373
 656,28; 7095,439;   32,765;23947,037;29,53330
 656,85; 7095,890;   44,065;24051,070;29,37403
 657,43; 7123,339;   -1,035;23831,305;29,89373
 658,01; 7247,789;   21,465;24078,539;30,03825
 658,58; 7396,339;   55,165;24234,371;30,36152
 659,16; 7426,188;   51,965;24154,105;30,59572
 659,74; 7523,038;   59,465;24338,039;30,74140
 660,32; 7650,288;   71,665;24327,672;31,24432
 660,89; 7649,338;   34,265;24347,305;31,32094
 661,47; 7723,688;   51,665;24464,939;31,42562
 662,05; 7721,837;   25,365;24587,373;31,33487
 662,62; 7837,487;   59,665;24584,006;31,71471
 663,20; 7880,137;   80,665;24740,139;31,62870
 663,78; 7870,586;   47,965;24902,773;31,47327
 664,35; 7838,037;   52,465;24921,006;31,30691
 664,93; 7880,986;   64,465;25123,539;31,19238
 665,51; 7841,236;   49,565;25170,973;31,01606
 666,08; 7798,486;   30,165;25185,707;30,88115
 666,66; 7864,235;   47,465;25667,539;30,51033
 667,23; 7842,485;   51,765;25732,773;30,33650
 667,81; 7870,535;   65,865;25889,307;30,22320
 668,39; 7792,485;   43,265;26047,141;29,80025
 668,96; 7882,234;   54,665;26309,074;29,81430
 669,54; 7772,284;   38,765;26408,408;29,32736
 670,12; 7821,134;   51,165;26808,740;29,03839
 670,69; 7886,584;   64,165;26950,674;29,09422
 671,27; 7830,934;   25,565;27096,008;28,83355
 671,84; 7789,184;   40,665;27105,240;28,62974
 672,42; 7976,633;   66,265;27253,875;29,09549
 673,00; 7953,183;   57,165;27531,408;28,73971
 673,57; 8004,033;   59,965;27276,441;29,18845
 674,15; 8118,782;   64,065;27613,475;29,23735
 674,72; 8085,932;   58,565;27536,209;29,21417
 675,30; 8156,982;   69,466;27513,541;29,46908
 675,88; 8214,531;   36,266;27573,176;29,69929
 676,45; 8304,882;   59,466;27677,309;29,85540
 677,03; 8328,531;   67,866;27525,043;30,08563
 677,60; 8362,881;   41,466;27770,576;30,00967
 678,18; 8490,531;   59,466;27877,510;30,30790
 678,76; 8400,381;   40,766;27809,143;30,10480
 679,33; 8521,230;   57,666;27813,176;30,49328
 679,91; 8510,680;   44,266;27813,311;30,48868
 680,48; 8524,330;   28,766;27740,242;30,65721
 681,06; 8511,779;   50,866;27735,176;30,56213
 681,63; 8425,129;   37,566;27736,209;30,28149
 682,21; 8472,779;   67,966;27797,543;30,30992
 682,78; 8310,929;   20,566;27459,576;30,21378
 683,36; 8332,679;   46,966;27565,510;30,10956
 683,93; 8232,629;   30,466;27450,645;29,91287
 684,51; 8231,878;   26,166;27477,277;29,89209
 685,08; 8221,928;   38,966;27733,711;29,54698
 685,66; 8169,378;   53,066;27694,045;29,36333
 686,24; 8172,027;   33,766;27796,578;29,31353
 686,81; 8159,577;   57,666;27899,910;29,09935
 687,39; 8051,427;   38,866;27807,844;28,85436
 687,96; 8132,677;   54,166;27850,479;29,06325
 688,54; 8081,126;   30,866;27984,811;28,79830
 689,11; 8097,376;   26,966;28043,545;28,80584
 689,69; 8136,426;   29,666;28019,279;28,96346
 690,26; 8277,076;   59,466;28289,313;29,10965
 690,84; 8246,825;   50,066;28239,846;29,07706
 691,41; 8341,676;   35,966;28403,879;29,27854
 691,98; 8358,625;   31,466;28427,912;29,32465
 692,56; 8507,875;   32,866;28437,445;29,83677
 693,13; 8618,925;   64,866;28655,080;29,91953
 693,71; 8619,175;   24,466;28657,912;30,01633
 694,28; 8753,725;   41,966;28715,945;30,38210
 694,86; 8839,174;   47,266;28928,879;30,44119
 695,43; 8908,324;   61,366;29100,912;30,46521
 696,01; 8996,573;   36,266;29145,547;30,78162
 696,58; 9136,323;   42,167;29083,879;31,31412
 697,16; 9107,473;   38,067;29126,414;31,17883
 697,73; 9233,623;   63,467;29338,246;31,32443
 698,30; 9180,173;   51,867;29223,980;31,29121
 698,88; 9248,622;   40,467;29558,613;31,19490
 699,45; 9383,172;   35,367;29765,848;31,44182
 700,03; 9352,021;   56,067;29750,980;31,30487
 700,60; 9393,271;   56,267;29850,613;31,33818
 701,18; 9321,621;   61,867;29963,947;30,96692
 701,75; 9407,871;   74,367;30094,682;31,09063
 702,32; 9362,121;   50,367;29901,914;31,19354
 702,90; 9389,371;   52,467;30254,148;30,91518
 703,47; 9395,721;   51,367;30428,881;30,76076
 704,05; 9353,370;   67,767;30546,715;30,46563
 704,62; 9397,720;   39,867;30587,848;30,63329
 705,19; 9363,670;   43,667;30586,982;30,51405
 705,77; 9331,119;   29,967;30618,314;30,40750
 706,34; 9377,470;   61,667;30627,049;30,47828
 706,91; 9362,419;   46,367;30673,883;30,41726
 707,49; 9429,469;   57,267;30976,316;30,31206
 708,06; 9437,618;   66,367;31089,049;30,20774
 708,64; 9427,568;   25,767;31093,582;30,26219
 709,21; 9468,918;   58,167;31179,316;30,23909
 709,78; 9540,768;   41,367;31281,150;30,40802
 710,36; 9675,317;   61,667;31419,684;30,65771
 710,93; 9781,567;   50,567;31562,416;30,88045
 711,50; 9819,317;   44,467;31506,049;31,06916
 712,08; 9926,767;   76,567;31925,383;30,92799
 712,65;10034,717;   73,667;31775,916;31,42064
 713,22;10115,166;   69,067;31900,250;31,56056
 713,80;10200,216;   84,167;31966,883;31,72894
 714,37;10159,866;   55,767;31827,018;31,80265
 714,94;10232,716;   53,967;31727,551;32,13640
 715,52;10278,266;   47,867;31732,984;32,28771
 716,09;10320,016;   65,467;31891,918;32,22021
 716,66;10348,265;   73,467;31935,051;32,24823
 717,23;10469,415;   66,867;31908,484;32,66966
 717,81;10404,665;   50,168;31812,018;32,60042
 718,38;10412,314;   47,468;31671,252;32,77548
 718,95;10397,764;   59,068;31618,984;32,75895
 719,53;10391,414;   56,568;31661,418;32,70019
 720,10;10446,063;   59,968;31481,252;33,05433
 720,67;10370,113;   35,768;31355,984;32,99577
 721,24;10323,363;   59,468;31256,020;32,90074
 721,82;10311,313;   49,968;31236,053;32,90360
 722,39;10381,463;   64,068;31235,885;33,09847
 722,96;10384,112;   64,968;31261,420;33,07794
 723,53;10256,263;   88,268;31151,953;32,73274
 724,11;10323,412;   61,568;31207,486;32,94764
 724,68;10319,362;   71,568;31242,020;32,87663
 725,25;10346,911;   72,768;31399,953;32,79625
 725,82;10367,461;   96,068;31564,387;32,64043
 726,40;10363,312;   62,668;31714,820;32,54326
 726,97;10358,661;   62,168;31875,354;32,36549
 727,54;10401,110;   46,968;31801,486;32,60683
 728,11;10466,061;   49,568;32045,820;32,55535
 728,69;10394,010;   39,568;31938,953;32,45969
 729,26;10553,860;   53,568;32105,088;32,76067
 729,83;10611,109;   53,268;32264,621;32,77677
 730,40;10632,260;   66,768;32291,754;32,78664
 730,97;10695,109;   44,268;32590,588;32,72518
 731,55;10812,059;   41,468;32755,820;32,92314
 732,12;10765,709;   86,268;32841,656;32,60362
 732,69;10876,959;   66,968;32889,988;32,93417
 733,26;10928,408;   55,168;32930,520;33,07414
 733,83;10996,058;   41,168;32979,055;33,25924
 734,41;11094,408;   65,468;32991,590;33,49602
 734,98;11126,758;   51,368;33155,621;33,45609
 735,55;11221,207;   43,168;33183,656;33,72925
 736,12;11382,857;   65,968;33377,289;33,97310
 736,69;11449,907;   76,968;33377,922;34,15199
 737,26;11480,257;   57,468;33552,254;34,10318
 737,84;11504,706;   70,768;33487,188;34,21653
 738,41;11514,956;   63,168;33492,422;34,25679
 738,98;11552,306;   63,569;33375,055;34,48882
 739,55;11599,756;   49,669;33377,789;34,65568
 740,12;11596,705;   62,969;33678,023;34,31122
 740,69;11712,855;   70,569;33575,656;34,74782
 741,26;11792,705;   56,269;33557,391;35,03297
 741,83;11742,155;   53,869;33719,523;34,71873
 742,41;11851,904;   56,169;33833,055;34,92251
 742,98;11827,555;   91,469;33874,590;34,73950
 743,55;11844,404;   53,569;33836,824;34,90142
 744,12;11810,954;   50,469;33859,855;34,78468
 744,69;11858,704;   59,569;33848,492;34,92013
 745,26;11887,554;   42,169;33677,723;35,21686
 745,83;11876,104;   58,769;33854,355;34,96709
 746,40;11916,153;   57,969;33844,789;35,09707
 746,97;11835,902;   44,769;33828,125;34,90220
 747,55;11879,053;   62,269;33966,957;34,85295
 748,12;11949,702;   57,869;33910,191;35,12856
 748,69;11905,252;   68,769;33877,625;35,01001
 749,26;11906,401;   65,069;33958,559;34,93689
 749,83;11898,151;   42,569;33911,992;35,00379
 750,40;11989,201;   89,669;34158,824;34,92758
 750,97;11963,251;   96,269;34144,160;34,85379
 751,54;11917,501;   40,569;33980,793;34,99368
 752,11;11942,150;   52,969;33874,727;35,15246
 752,68;11906,301;   87,869;33912,859;34,93994
 753,25;11908,550;   60,269;33774,594;35,14316
 753,82;11900,600;   65,069;33810,527;35,07296
 754,39;11860,149;   75,169;33727,160;35,02016
 754,96;11888,800;   60,069;33616,395;35,25038
 755,53;11970,249;   29,469;33796,527;35,36222
 756,10;12028,499;   64,169;33720,961;35,54804
 756,67;12079,749;   73,369;33813,395;35,58498
 757,24;12030,498;   72,769;33740,426;35,51696
 757,81;12050,148;   16,469;33677,762;35,74931
 758,38;12099,798;   54,569;33822,695;35,67041
 758,95;12110,748;   79,469;33743,426;35,73935
 759,52;12025,497;   57,469;33615,859;35,66329
 760,09;12111,147;   68,570;33306,992;36,23089
 760,66;12113,397;   59,570;33309,727;36,25194
 761,23;12074,646;   91,070;33353,961;36,02686
 761,80;12107,696;   56,270;33295,793;36,25632
 762,37;12168,246;   68,970;33167,727;36,55508
 762,94;12222,196;   70,970;33187,461;36,69237
 763,51;12170,346;   36,070;32949,793;36,86692
 764,08;12198,896;   66,270;32998,527;36,84116
 764,65;12195,745;   69,570;32798,961;37,04980
 765,22;12216,695;   54,670;32804,496;37,13615
 765,79;12286,945;   77,370;32691,928;37,43597
 766,36;12244,595;   73,170;32743,063;37,25578
 766,93;12279,244;   68,970;32551,295;37,59052
 767,50;12387,895;   89,470;32828,328;37,56522
 768,07;12375,344;   63,870;32699,262;37,72430
 768,64;12305,094;   86,470;32572,596;37,61182
 769,21;12219,544;   57,970;32359,729;37,64988
 769,78;12185,693;   78,770;32244,963;37,63866
 770,34;12142,943;   45,570;32031,195;37,82128
 770,91;12183,393;   58,470;31921,430;38,05335
 771,48;12158,442;   62,370;31836,863;38,06850
 772,05;12112,593;   66,470;31610,697;38,18804
 772,62;12003,842;   42,670;31443,029;38,09247
 773,19;12075,392;   59,370;31579,764;38,12142
 773,76;11975,542;   71,070;31506,297;37,86985
 774,33;11998,592;   74,170;31447,330;38,00835
 774,90;11938,741;   52,870;31206,064;38,15298
 775,47;11900,491;   59,970;30957,498;38,32190
 776,03;11900,041;   73,470;30984,330;38,26025
 776,60;11859,891;   55,970;30757,863;38,44688
 777,17;11817,040;   65,470;30698,098;38,36292
 777,74;11668,290;   30,870;30522,031;38,16654
 778,31;11782,840;   68,970;30582,064;38,38965
 778,88;11715,090;   30,470;30366,898;38,51679
 779,45;11719,640;   75,770;30358,131;38,45100
 780,01;11802,889;   58,370;30299,664;38,83603
 780,58;11784,339;   60,570;30177,998;38,92686
 781,15;11641,488;   38,771;29979,432;38,75238
 781,72;11678,339;   66,771;29962,266;38,84053
 782,29;11605,488;   51,771;29667,100;39,01263
 782,86;11675,438;   55,571;29617,732;39,30655
 783,42;11605,688;   56,171;29598,166;39,09525
 783,99;11563,838;   66,671;29482,100;39,08550
 784,56;11455,587;   55,171;29320,232;38,95572
 785,13;11414,437;   40,271;29247,266;38,94329
 785,70;11363,787;   49,071;29060,299;39,00116
 786,26;11402,236;   51,671;28910,732;39,33103
 786,83;11300,887;   84,371;28889,166;38,93975
 787,40;11355,937;   57,171;28783,500;39,33244
 787,97;11343,985;   43,971;28581,133;39,59754
 788,54;11364,735;   70,371;28515,268;39,70612
 789,10;11300,085;   57,971;28344,400;39,74384
 789,67;11199,735;   70,371;28245,334;39,50090
 790,24;11278,485;   51,071;28193,768;39,89459
 790,81;11187,234;   88,271;27914,400;39,88684
 791,37;11165,584;   73,671;27872,135;39,90117
 791,94;11099,935;   70,771;27886,367;39,65101
 792,51;11000,884;   46,271;27539,201;39,84520
 793,08;11066,134;   69,771;27555,234;40,00792
 793,64;10987,384;   71,271;27455,168;39,86326
 794,21;10983,434;   69,671;27250,602;40,15228
 794,78;10910,183;   53,071;27147,035;40,07207
 795,35;10874,633;   73,471;27007,969;40,10159
 795,91;10836,083;   48,071;26789,301;40,34224
 796,48;10847,132;   55,771;26710,734;40,48537
 797,05;10802,382;   57,671;26624,369;40,44428
 797,62;10802,632;   41,971;26600,701;40,51647
 798,18;10681,882;   57,471;26410,736;40,31535
 798,75;10651,031;   56,571;26279,770;40,40110
 799,32;10710,681;   60,771;26209,102;40,72883
 799,88;10677,431;   55,971;26051,535;40,85874
 800,45;10576,280;   33,971;25945,270;40,68615
 801,02;10529,431;   65,271;25880,104;40,53545
 801,58;10601,181;   90,872;25660,436;41,10476
 802,15;10561,229;   72,872;25615,270;41,06254
 802,72;10501,680;   66,172;25404,703;41,18434
 803,28;10450,930;   49,172;25288,938;41,21179
 803,85;10399,680;   41,972;25144,871;41,26100
 804,42;10366,129;   77,772;24948,004;41,36816
 804,98;10412,379;  100,672;24935,537;41,52109
 805,55;10293,129;   56,972;24702,371;41,53374
 806,12;10291,479;   83,572;24611,004;41,61833
 806,68;10301,628;   66,472;24493,738;41,90054
 807,25;10264,778;   74,972;24436,271;41,82784
 807,82;10267,428;   86,872;24407,805;41,85923
 808,38;10150,478;   73,672;24367,037;41,47966
 808,95;10132,427;   62,972;24166,971;41,77504
 809,52;10132,677;   50,272;24162,004;41,81535
 810,08;10138,927;   55,172;23994,938;42,12136
 810,65;10147,576;   77,172;24169,672;41,79892
 811,21;10137,526;   69,972;24123,404;41,85496
 811,78;10207,376;   92,472;24337,539;41,71943
 812,35;10151,926;   64,972;24173,871;41,83913
 812,91;10162,876;   90,072;24239,705;41,70997
 813,48;10113,825;   68,172;24202,738;41,62351
 814,04;10109,675;   64,172;24088,373;41,81410
 814,61;10054,725;   77,572;24176,006;41,40166
 815,18; 9921,074;   67,772;23892,539;41,35739
 815,74; 9928,024;   69,772;23709,172;41,70263
 816,31; 9877,774;   83,372;23614,406;41,62334
 816,87; 9793,424;   43,272;23489,641;41,58491
 817,44; 9718,073;   76,972;23452,273;41,24482
 818,00; 9644,724;   43,272;23159,506;41,53554
 818,57; 9545,073;   71,872;23076,340;41,17983
 819,14; 9504,823;   82,872;22924,273;41,24944
 819,70; 9440,473;   72,672;22792,707;41,23145
 820,27; 9464,022;   62,972;22691,941;41,54431
 820,83; 9396,572;   70,072;22541,373;41,50405
 821,40; 9275,222;   98,072;22431,908;41,09079
 821,96; 9313,071;   75,272;22315,541;41,53636
 822,53; 9300,321;   70,973;22257,574;41,59875
 823,09; 9179,271;   81,073;22073,309;41,37005
 823,66; 9118,221;   68,173;21862,541;41,52471
 824,22; 9171,271;   77,173;21851,674;41,76490
 824,79; 9107,620;   75,473;21561,408;42,03749
 825,35; 9090,070;   65,173;21648,041;41,81510
 825,92; 9039,820;   75,173;21398,875;42,04077
 826,48; 9079,170;   87,673;21501,309;41,98959
 827,05; 8982,920;   89,573;21448,242;41,63811
 827,61; 8885,770;   75,273;21249,076;41,61036
 828,18; 8830,319;   60,873;21191,209;41,50169
 828,74; 8796,669;   91,673;21053,543;41,52776
 829,31; 8766,419;   83,373;21002,176;41,50833
 829,87; 8796,368;   73,073;20733,709;42,22181
 830,44; 8748,918;   85,173;20631,443;42,16700
 831,00; 8709,668;   91,273;20673,977;41,87203
 831,57; 8733,817;  101,573;20631,609;42,04690
 832,13; 8644,867;   72,073;20323,344;42,33213
 832,69; 8640,317;   58,173;20309,477;42,37823
 833,26; 8586,567;   85,473;20322,711;42,00719
 833,82; 8570,417;   93,073;20197,744;42,16604
 834,39; 8482,967;   78,773;20137,477;41,89799
 834,95; 8404,517;   57,173;19959,410;41,94173
 835,52; 8362,267;   87,873;19851,744;41,86626
 836,08; 8422,616;   95,573;19951,877;41,93652
 836,64; 8315,865;   76,273;19800,711;41,77352
 837,21; 8183,115;   88,673;19552,443;41,58723
 837,77; 8248,065;   91,873;19491,777;42,04244
 838,34; 8206,615;   67,473;19470,012;41,94885
 838,90; 8182,465;   64,473;19306,045;42,18986
 839,46; 8159,415;   83,873;19312,479;41,99754
 840,03; 8138,564;   76,173;19300,811;41,93781
 840,59; 8094,014;   85,873;19175,645;41,94990
 841,16; 8114,064;  105,173;19156,578;42,03832
 841,72; 8008,614;   59,373;18965,512;42,04582
 842,28; 8033,463;   77,873;18857,246;42,36345
 842,85; 8031,713;   95,573;18812,578;42,40069
 843,41; 8024,363;  105,374;18740,813;42,49425
 843,97; 7997,613;   89,174;18686,846;42,52381
 844,54; 7931,362;  104,774;18624,979;42,25973
 845,10; 7899,912;   89,174;18523,713;42,37013
 845,67; 7880,262;   68,774;18413,445;42,58178
 846,23; 7865,312;   78,674;18361,080;42,59088
 846,79; 7826,662;   90,474;18265,613;42,56467
 847,36; 7772,811;   55,774;18179,047;42,58081
 847,92; 7791,161;   84,874;18034,680;42,93243
 848,48; 7740,611;   41,874;18039,213;42,77709
 849,04; 7764,960;   62,374;17949,447;43,06231
 849,61; 7729,910;   56,274;17918,580;42,95994
 850,17; 7737,560;   68,174;17819,514;43,20455
 850,73; 7673,110;   71,474;17764,848;42,96318
 851,30; 7585,959;   46,074;17669,881;42,78239
 851,86; 7587,609;   75,874;17597,914;42,87021
 852,42; 7535,459;   51,174;17568,348;42,72541
 852,99; 7575,309;   79,274;17583,082;42,82517
 853,55; 7514,059;   83,174;17542,514;42,56109
 854,11; 7479,908;   70,074;17432,049;42,67852
 854,67; 7389,958;   85,474;17420,881;42,13621
 855,24; 7363,408;   51,874;17213,414;42,60418
 855,80; 7351,958;   76,874;17244,848;42,37590
 856,36; 7329,208;   80,574;17175,881;42,40131
 856,92; 7259,557;   54,474;17027,215;42,45091
 857,49; 7276,907;   81,274;17048,248;42,40964
 858,05; 7210,057;   67,274;16968,482;42,26196
 858,61; 7210,606;   65,774;17003,316;42,18341
 859,17; 7159,457;   77,374;16904,250;42,08792
 859,74; 7104,106;   82,074;16836,883;41,91055
 860,30; 7107,656;   93,074;16663,016;42,33317
 860,86; 7036,006;   72,074;16692,350;41,90022
 861,42; 6978,456;   74,674;16545,883;41,91424
 861,99; 6994,905;   54,674;16506,717;42,18462
 862,55; 6937,755;   66,374;16393,051;42,08683
 863,11; 6915,805;   75,174;16437,283;41,80775
 863,67; 6855,154;   61,274;16290,117;41,86300
 864,23; 6909,404;   80,175;16199,351;42,36711
 864,80; 6799,754;   69,175;16081,384;42,03405
 865,36; 6811,404;   71,875;16120,817;41,99360
 865,92; 6788,153;   96,175;16088,751;41,84428
 866,48; 6717,803;   67,375;15987,384;41,77402
 867,04; 6661,453;   60,675;15891,418;41,69595
 867,60; 6685,203;   99,375;15884,451;41,72186
 868,17; 6653,553;   93,675;15884,685;41,54185
 868,73; 6598,603;   82,775;15672,618;41,79534
 869,29; 6521,952;   59,475;15470,151;41,93507
 869,85; 6549,402;  100,475;15369,685;42,23484
 870,41; 6492,152;   80,575;15293,418;42,14582
 870,97; 6447,602;   92,975;15232,252;41,97444
 871,54; 6337,551;   84,175;15178,686;41,42815
 872,10; 6361,701;   84,275;15055,419;41,93017
 872,66; 6268,750;   66,775;14910,652;41,78137
 873,22; 6226,701;   81,975;14890,586;41,49427
 873,78; 6175,550;   65,275;14742,419;41,63123
 874,34; 6125,700;   95,075;14662,652;41,39758
 874,90; 6054,600;  109,775;14536,053;41,20831
 875,46; 6054,600;   96,375;14412,952;41,61766
 876,03; 5920,300;   86,475;14363,353;40,86205
 876,59; 5870,700;   64,475;14153,253;41,21170
 877,15; 5948,200;  101,475;14166,853;41,56821
 877,71; 5860,500;   78,275;14064,652;41,34183
 878,27; 5808,400;   95,675;13910,553;41,35198
 878,83; 5741,100;  114,275;13971,753;40,60497
 879,39; 5713,700;   91,075;14082,753;40,18550
 879,95; 5670,100;   86,275;13964,253;40,23515
 880,51; 5622,600;   75,175;13927,253;40,04760
 881,07; 5682,000;   82,375;13978,753;40,29557
 881,63; 5681,400;   92,575;13971,253;40,26914
 882,19; 5649,700;   82,675;13921,553;40,22743
 882,75; 5640,600;   86,275;14019,553;39,86374
 883,31; 5706,500;   95,575;14187,853;39,81560
 883,88; 5717,200;   96,375;14174,353;39,92637
 884,44; 5652,000;   76,175;14175,753;39,54604
 885,00; 5750,400;  106,075;14266,952;39,85858
 885,56; 5704,800;  101,675;14299,452;39,46480
 886,12; 5797,100;  109,875;14421,152;39,73947
 886,68; 5791,600;   90,775;14436,753;39,73814
 887,24; 5837,200;  102,475;14574,952;39,62504
 887,80; 5867,400;   86,975;14671,753;39,63327
 888,36; 5923,800;  106,275;14715,652;39,82048
 888,92; 5946,500;   98,975;14773,353;39,84854
 889,48; 6035,600;   99,575;14973,853;39,90799
 890,04; 6039,600;   95,275;14803,053;40,41620
 890,60; 6071,500;  117,475;15014,652;39,96747
 891,16; 6082,900;   99,875;15075,853;39,95081
 891,72; 6066,400;  113,275;15058,452;39,83308
 892,28; 6121,300;  112,475;15126,053;40,02260
 892,84; 6108,300;   93,775;15039,853;40,24149
 893,39; 6188,700;  117,575;15112,952;40,48665
 893,95; 6104,900;  112,975;15044,753;40,12868
 894,51; 5972,500;   66,375;14891,253;39,83928
 895,07; 6065,800;  127,375;14906,353;40,18157
 895,63; 5957,700;   74,275;14689,952;40,25421
 896,19; 5933,900;   90,375;14601,952;40,26802
 896,75; 5928,400;  105,175;14460,152;40,56589
 897,31; 5853,300;   82,775;14295,853;40,60011
 897,87; 5808,000;   98,175;14146,853;40,64315
 898,43; 5736,700;   87,775;14075,753;40,38414
 898,99; 5715,400;  109,175;14002,753;40,35120
 899,55; 5666,800;  109,475;13940,652;40,17969
 900,11; 5581,700;  104,975;13747,553;40,14436
 900,67; 5523,400;   91,375;13658,652;40,03769
 901,22; 5501,100;  108,375;13601,952;39,96513
 901,78; 5439,000;   91,275;13560,053;39,70461
 902,34; 5369,800;  103,075;13451,152;39,45680
 902,90; 5347,200;   73,575;13350,652;39,71977
 903,46; 5258,100;   95,775;13236,353;39,28537
 904,02; 5205,600;   88,075;13091,553;39,35505
 904,58; 5141,200;   67,075;12918,152;39,48405
 905,14; 5177,000;   63,975;12874,553;39,91252
 905,70; 5131,300;   66,775;12696,053;40,10146
 906,25; 5087,200;   84,375;12708,452;39,62923
 906,81; 5053,800;   87,675;12732,152;39,27505
 907,37; 5054,100;   79,275;12616,152;39,68153
 907,93; 4999,400;   74,775;12588,152;39,35488
 908,49; 4992,200;  101,875;12497,652;39,45154
 909,05; 4974,000;   89,675;12425,553;39,59447
 909,60; 4976,200;   86,575;12340,452;39,90268
 910,16; 4926,500;   67,675;12291,853;39,74766
 910,72; 4934,300;  100,475;12207,753;39,92495
 911,28; 4889,100;   90,875;12156,053;39,76920
 911,84; 4861,600;   79,575;12106,753;39,76016
 912,39; 4848,800;   73,475;12049,353;39,87453
 912,95; 4873,400;  104,475;12001,452;40,08518
 913,51; 4861,900;   85,375;11945,253;40,27465
 914,07; 4800,300;   83,775;11813,452;40,21018
 914,63; 4802,000;   64,775;11748,053;40,54705
 915,18; 4749,300;   77,475;11617,853;40,48243
 915,74; 4693,300;   63,975;11632,652;40,01602
 916,30; 4660,200;   61,475;11588,553;39,89498
 916,86; 4662,800;   83,575;11514,652;40,05943
 917,42; 4656,900;   82,275;11425,152;40,33037
 917,97; 4569,100;   75,375;11265,452;40,15812
 918,53; 4565,800;   67,775;11196,253;40,41905
 919,09; 4553,600;   88,975;11223,753;40,09622
 919,65; 4485,400;   83,375;11083,452;40,01813
 920,20; 4427,800;   61,875;10983,053;39,97668
 920,76; 4385,400;   65,475;10849,452;40,05874
 921,32; 4414,700;   82,675;10770,952;40,53062
 921,87; 4354,200;   97,475;10670,253;40,26118
 922,43; 4274,300;   64,675;10561,353;40,10435
 922,99; 4208,500;   61,875;10406,753;40,08385
 923,55; 4182,500;   63,775;10357,353;40,01257
 924,10; 4113,900;   73,575;10282,853;39,57503
 924,66; 4077,300;   78,675;10170,152;39,62378
 925,22; 4024,500;   43,275;10093,952;39,61151
 925,77; 3972,300;   66,075; 9927,053;39,61296
 926,33; 3969,900;   90,375; 9903,253;39,53504
 926,89; 3902,000;   71,975; 9692,753;39,80993
 927,44; 3873,400;   52,175; 9580,553;40,10363
 928,00; 3801,600;   66,875; 9533,753;39,45044
 928,56; 3776,800;   80,375; 9372,253;39,78125
 929,12; 3738,500;   72,775; 9275,152;39,83454
 929,67; 3648,800;   67,575; 9091,053;39,68786
 930,23; 3640,900;   50,975; 8915,253;40,49879
 930,78; 3622,400;  100,675; 8842,553;40,28568
 931,34; 3523,900;   61,975; 8632,152;40,39502
 931,90; 3470,700;   61,675; 8494,353;40,42636
 932,45; 3371,200;   78,775; 8290,753;40,09296
 933,01; 3271,600;   52,975; 8024,453;40,37677
 933,57; 3164,500;   72,175; 7753,252;40,25900
 934,12; 3024,000;   70,475; 7399,553;40,29873
 934,68; 2894,500;   59,075; 7020,252;40,73197
 935,24; 2745,200;   67,875; 6614,752;40,89469
 935,79; 2593,300;   72,975; 6254,853;40,76957
 936,35; 2465,200;   91,375; 5812,252;41,49407
 936,90; 2276,600;   80,275; 5348,752;41,68804
 937,46; 2107,000;   72,775; 4956,953;41,64928
 938,02; 1928,800;   63,375; 4549,152;41,58532
 938,57; 1811,600;   73,175; 4265,053;41,47127
 939,13; 1702,900;   70,575; 3986,752;41,68159
 939,68; 1582,100;   57,375; 3713,452;41,70385
 940,24; 1518,500;   68,775; 3504,052;42,20110
 940,79; 1479,200;   91,875; 3391,052;42,05063
 941,35; 1404,700;   79,675; 3217,552;42,22679
 941,91; 1316,400;   71,375; 3122,252;40,80875
 942,46; 1288,900;   75,075; 3063,552;40,61684
 943,02; 1285,900;   65,375; 3050,752;40,88344
 943,57; 1233,500;   61,275; 2982,452;40,12851
 944,13; 1272,800;   67,375; 2974,452;41,46519
 944,68; 1280,800;   65,975; 3041,752;40,82379
 945,24; 1311,900;   82,275; 3060,052;41,29338
 945,79; 1309,600;   68,775; 3104,052;40,88012
 946,35; 1318,600;   51,775; 3194,752;40,30652
 946,90; 1412,700;   98,575; 3283,552;41,26010
 947,46; 1397,900;   52,175; 3311,052;41,29413
 948,01; 1415,300;   51,575; 3390,052;40,84871
 948,57; 1515,900;   86,775; 3552,952;41,23058
 949,12; 1503,000;   65,875; 3613,353;40,51118
 949,68; 1554,100;   76,275; 3732,653;40,41773
 950,23; 1623,200;   70,075; 3833,252;41,27164
 950,79; 1652,000;   75,775; 3933,452;40,85943
 951,34; 1695,700;   83,275; 4070,952;40,43519
 951,90; 1733,700;   57,475; 4140,853;41,04996
 952,45; 1785,500;   81,075; 4292,152;40,47480
 953,01; 1794,500;   65,975; 4364,252;40,21437
 953,56; 1863,000;   87,975; 4500,853;40,22375
 954,12; 1876,300;   42,075; 4567,553;40,53108
 954,67; 1927,900;   70,875; 4720,453;39,93965
 955,23; 1985,600;   61,975; 4804,553;40,56075
 955,78; 2012,300;   67,175; 4882,953;40,39067
 956,33; 2032,700;   58,575; 4947,252;40,38158
 956,89; 2056,300;   53,475; 5038,553;40,17641
 957,44; 2110,800;   53,675; 5170,752;40,20117
 958,00; 2132,200;   49,475; 5238,353;40,13826
 958,55; 2178,000;   70,475; 5313,953;40,19327
 959,10; 2167,600;   52,375; 5370,252;39,77574
 959,66; 2219,700;   74,275; 5488,752;39,62386
 960,21; 2266,700;   78,475; 5567,453;39,86580
 960,77; 2260,600;   54,275; 5606,152;39,74016
 961,32; 2278,300;   48,375; 5663,453;39,71317
 961,87; 2280,800;   79,775; 5738,752;38,89440
 962,43; 2267,300;   68,975; 5780,652;38,48826
 962,98; 2321,800;   76,175; 5828,652;39,03753
 963,54; 2283,200;   27,075; 5820,652;38,94183
 964,09; 2340,900;   56,275; 5873,953;39,27039
 964,64; 2311,100;   64,975; 5901,053;38,48689
 965,20; 2333,400;   44,375; 5966,652;38,65109
 965,75; 2362,700;   66,575; 5976,353;38,85298
 966,30; 2378,400;   75,275; 6068,553;38,42847
 966,86; 2371,400;   62,975; 6121,953;38,09925
 967,41; 2390,800;   81,075; 6084,453;38,47376
 967,96; 2383,800;   75,175; 6108,953;38,26169
 968,52; 2411,200;   81,775; 6126,353;38,53743
 969,07; 2387,500;   72,975; 6120,152;38,27447
 969,62; 2367,900;   77,175; 6134,953;37,81461
 970,18; 2361,300;   57,575; 6147,652;37,82752
 970,73; 2361,300;   66,475; 6203,553;37,39280
 971,28; 2397,800;   95,775; 6197,053;37,73021
 971,84; 2377,700;   55,075; 6118,752;38,30390
 972,39; 2382,700;   95,875; 6148,652;37,78142
 972,94; 2383,200;   54,975; 6140,652;38,25745
 973,49; 2367,600;   64,575; 6141,252;37,89941
 974,05; 2373,900;   64,375; 6178,053;37,77636
 974,60; 2394,100;   88,575; 6213,252;37,64321
 975,15; 2380,300;   77,675; 6231,553;37,41746
 975,71; 2294,600;   62,375; 6121,453;36,84101
 976,26; 2370,800;   77,575; 6110,252;38,01339
 976,81; 2374,300;   90,675; 6134,152;37,78661
 977,36; 2363,200;   84,775; 6156,953;37,52237
 977,92; 2363,600;   90,175; 6209,353;37,15246
 978,47; 2356,300;   77,175; 6060,252;38,09286
 979,02; 2355,400;   95,475; 6085,652;37,72718
 979,57; 2318,300;   86,775; 6058,453;37,36848
 980,13; 2306,200;   76,175; 6038,752;37,40035
 980,68; 2347,400;   77,075; 6010,553;38,26297
 981,23; 2325,700;   89,175; 6054,652;37,49113
 981,78; 2274,900;   82,075; 5974,152;37,21650
 982,33; 2277,100;   79,275; 5893,252;37,80244
 982,89; 2251,800;   94,375; 5938,152;36,91833
 983,44; 2202,900;   65,675; 5935,853;36,40818
 983,99; 2267,800;  104,775; 5949,453;37,00846
 984,54; 2211,600;   81,475; 5900,053;36,60903
 985,09; 2225,400;   87,275; 5873,752;36,95037
 985,65; 2161,300;   69,375; 5811,853;36,42896
 986,20; 2162,200;  106,575; 5791,152;36,16144
 986,75; 2183,700;   95,875; 5823,953;36,44896
 987,30; 2120,900;   97,175; 5726,053;35,95255
 987,85; 2129,900;   92,475; 5721,353;36,19594
 988,40; 2121,900;   96,675; 5693,953;36,18232
 988,96; 2062,800;  114,875; 5666,553;35,08714
 989,51; 2032,000;  108,875; 5644,053;34,74369
 990,06; 2062,000;  128,275; 5680,853;34,82572
 990,61; 2024,000;   93,575; 5569,053;35,25583
 991,16; 2019,600;  104,375; 5558,053;35,11804
 991,71; 1970,500;   79,875; 5505,853;34,84395
 992,26; 1954,300;   93,475; 5457,252;34,69244
 992,81; 1976,400;   75,075; 5427,053;35,52565
 993,37; 1954,800;  113,475; 5390,553;34,89289
 993,92; 1911,300;  108,375; 5368,953;34,27238
 994,47; 1914,500;  117,475; 5329,652;34,47743
 995,02; 1893,100;  118,475; 5313,252;34,16171
 995,57; 1842,600;   90,875; 5274,652;33,79244
 996,12; 1847,700;  133,575; 5247,553;33,51843
 996,67; 1876,200;  132,375; 5191,652;34,46787
 997,22; 1814,300;   99,875; 5128,652;34,09228
 997,77; 1849,700;  115,275; 5110,553;34,72129
 998,32; 1817,400;  103,775; 5015,652;34,88737
 998,87; 1803,700;  114,275; 5018,752;34,44658
 999,42; 1791,000;  101,675; 4972,553;34,68215
 999,97; 1769,100;  109,975; 4956,353;34,23433
1000,53; 1793,800;  123,475; 4993,752;34,29630
1001,08; 1729,300;   98,375; 4879,053;34,11493
1001,63; 1733,300;  144,475; 4878,053;33,56499
1002,18; 1654,700;   85,075; 4777,453;33,45052
1002,73; 1711,400;  131,375; 4813,853;33,74336
1003,28; 1670,200;  103,575; 4811,953;33,27314
1003,83; 1635,300;  119,075; 4691,752;33,15836
1004,38; 1640,700;  137,775; 4703,152;32,92006
1004,93; 1615,200;  114,375; 4680,953;32,86542
1005,48; 1556,500;  104,075; 4573,053;32,50016
1006,03; 1569,000;  112,775; 4525,652;32,99944
1006,58; 1571,300;  111,475; 4486,553;33,36684
1007,13; 1529,500;   94,475; 4466,252;32,82475
1007,68; 1536,300;  104,975; 4462,453;32,84756
1008,23; 1517,200;  114,575; 4425,853;32,53386
1008,78; 1485,500;  107,375; 4384,152;32,22345
1009,33; 1467,300;  121,875; 4307,752;32,14201
1009,88; 1445,400;   84,775; 4329,553;32,05409
1010,43; 1448,200;  118,875; 4320,752;31,63645
1010,98; 1430,000;  100,675; 4310,053;31,58008
1011,52; 1387,500;   97,075; 4264,953;30,96120
1012,07; 1441,900;  144,475; 4319,252;31,07771
1012,62; 1402,900;  103,875; 4259,152;31,26205
1013,17; 1342,700;   97,175; 4172,053;30,56595
1013,72; 1338,600;   94,575; 4143,453;30,72518
1014,27; 1331,700;  100,275; 4105,853;30,74276
1014,82; 1284,900;   86,875; 4042,952;30,28315
1015,37; 1238,900;   84,375; 3964,853;29,75214
1015,92; 1253,600;  109,475; 3894,252;30,22965
1016,47; 1230,100;   90,275; 3819,452;30,56505
1017,02; 1170,200;   81,075; 3732,153;29,83023
1017,57; 1166,600;   96,475; 3718,853;29,54206
1018,11; 1138,500;   77,275; 3656,252;29,65163
1018,66; 1160,900;  120,175; 3636,552;29,59651
1019,21; 1139,800;  109,675; 3579,552;29,68765
1019,76; 1087,300;   77,675; 3497,353;29,52398
1020,31; 1070,700;   71,975; 3446,452;29,59643
1020,86; 1051,200;   96,175; 3448,052;28,49224
1021,41; 1030,200;   80,175; 3387,052;28,72876
1021,96; 1037,800;   83,675; 3385,853;28,89381
1022,50; 1034,100;  105,975; 3332,952;28,76143
1023,05; 1018,700;   94,675; 3288,052;28,93566
1023,60; 1000,100;   97,975; 3251,353;28,60821
1024,15;  982,700;   81,075; 3184,853;29,04928
1024,70;  968,100;   95,075; 3176,252;28,33414
1025,25;  943,000;   81,175; 3127,452;28,29109
1025,79;  945,700;  101,175; 3110,752;28,06125
1026,34;  929,400;   83,475; 3044,653;28,56718
1026,89;  915,400;  102,175; 3039,052;27,69012
1027,44;  890,900;   95,875; 2952,952;27,82651
1027,99;  902,300;   93,475; 2944,552;28,36910
1028,53;  870,200;   89,675; 2900,052;27,77296
1029,08;  865,300;  114,775; 2876,653;27,17445
1029,63;  876,400;  114,875; 2854,952;27,79210
1030,18;  831,000;   92,075; 2788,552;27,40334
1030,73;  796,500;   91,175; 2739,552;26,63234
1031,27;  789,000;   85,875; 2715,252;26,74112
1031,82;  773,400;   81,875; 2686,452;26,55037
1032,37;  777,000;   98,875; 2688,853;26,18266
1032,92;  769,000;  100,575; 2675,452;25,95949
1033,46;  761,300;   99,775; 2599,252;26,46653
1034,01;  721,300;   78,375; 2582,952;25,67000
1034,56;  739,900;   98,875; 2559,252;26,05393
1035,11;  715,900;   92,375; 2523,552;25,64704
1035,65;  681,300;   87,575; 2478,052;24,83709
1036,20;  683,600;   99,375; 2454,452;24,80704
1036,75;  688,000;  118,675; 2446,353;24,45893
1037,29;  670,100;   90,275; 2398,252;25,12264
1037,84;  629,200;   78,375; 2347,252;24,27742
1038,39;  638,100;   91,075; 2329,952;24,43300
1038,94;  605,000;   73,075; 2277,153;24,13368
1039,48;  622,400;   83,575; 2278,552;24,54809
1040,03;  618,500;  102,875; 2245,252;24,06789
1040,58;  600,800;  101,175; 2194,552;23,86693
1041,12;  568,400;   91,375; 2191,653;22,71248
1041,67;  581,900;  101,075; 2166,752;23,27687
1042,22;  590,600;  118,475; 2145,252;23,29437
1042,76;  573,200;   99,275; 2118,452;23,47119
1043,31;  581,400;   90,675; 2060,653;24,91018
1043,86;  546,200;   98,875; 2044,252;22,99425
1044,40;  544,900;   92,975; 2018,052;23,47568
1044,95;  530,000;   94,175; 1988,552;23,00624
1045,50;  506,300;   75,375; 1934,353;23,18075
1046,04;  530,300;  114,375; 1930,453;22,90238
1046,59;  505,300;   96,175; 1878,353;22,95647
1047,13;  519,600;  121,075; 1879,453;22,66436
1047,68;  512,400;  115,675; 1860,052;22,74307
1048,23;  507,100;  118,775; 1866,752;22,21568
1048,77;  481,300;   90,175; 1784,953;23,07825
1049,32;  479,400;  104,175; 1785,953;22,31121
1049,86;  475,000;   92,675; 1760,552;22,92285
1050,41;  450,700;   82,475; 1735,552;22,27512
1050,96;  470,100;  100,875; 1698,652;23,10866
1051,50;  459,200;  101,675; 1663,252;22,89512
1052,05;  448,800;   94,675; 1664,052;22,56468
1052,59;  437,400;   82,975; 1624,152;22,99703
1053,14;  415,600;   84,475; 1582,652;22,10185
1053,69;  419,000;   98,475; 1571,453;21,76035
1054,23;  431,400;  104,575; 1569,052;22,31683
1054,78;  406,800;  100,775; 1550,152;21,11424
1055,32;  430,300;  123,075; 1550,453;21,52374
1055,87;  375,800;   68,875; 1491,752;21,57073
1056,41;  369,500;   78,775; 1469,552;20,90378
1056,96;  368,200;   96,775; 1451,052;20,04205
1057,50;  399,300;  113,375; 1470,853;21,06296
1058,05;  338,400;   82,075; 1401,953;19,42036
1058,59;  363,500;   95,875; 1396,552;20,57582
1059,14;  355,900;  103,575; 1370,453;19,91708
1059,68;  326,700;   75,975; 1329,353;20,00395
1060,23;  365,800;  126,875; 1383,752;19,00941
1060,77;  344,500;   97,375; 1317,052;20,26150
1061,32;  333,600;  108,575; 1320,652;18,56523
1061,86;  323,300;  111,175; 1289,752;17,99839
1062,41;  334,600;   93,975; 1242,953;20,94253
1062,95;  311,300;  109,575; 1230,853;17,99064
1063,50;  328,200;  111,075; 1230,052;19,40388
1064,04;  289,100;   90,475; 1197,453;17,94300
1064,59;  309,100;  114,775; 1210,052;17,74208
1065,13;  299,400;  103,475; 1170,552;18,36090
1065,68;  302,800;  107,275; 1161,353;18,54939
1066,22;  315,800;  115,875; 1166,453;19,03001
1066,76;  306,800;  130,175; 1145,252;17,40015
1067,31;  275,900;   99,875; 1110,552;17,41653
1067,85;  269,800;  100,975; 1090,252;17,06548
1068,40;  268,300;  110,275; 1095,353;16,04188
1068,94;  271,500;   99,175; 1079,353;17,58100
1069,49;  260,900;   98,175; 1041,652;17,24736
1070,03;  272,900;  111,175; 1034,353;17,51830
1070,57;  253,700;   88,775; 1012,852;17,84753
1071,12;  247,000;   75,875;  987,153;18,77858
1071,66;  293,300;  131,775; 1039,953;17,78562
1072,21;  270,100;  112,475; 1011,352;17,53576
1072,75;  256,600;  104,475;  978,552;17,40406
1073,29;  247,100;   77,075;  942,453;19,64750
1073,84;  255,700;   95,975;  941,153;18,89840
1074,38;  239,700;   93,875;  928,253;17,47710
1074,92;  248,700;  107,275;  940,153;16,98029
1075,47;  257,700;  112,775;  938,852;17,54376
1076,01;  264,300;  121,775;  926,253;17,71647
1076,56;  240,400;   97,275;  891,953;18,01045
1077,10;  225,400;   86,075;  865,253;17,88103
1077,64;  240,700;   97,875;  884,453;18,15778
1078,19;  253,100;  123,175;  887,753;16,99305
1078,73;  233,600;   98,775;  853,852;17,85578
1079,27;  238,500;  121,075;  875,552;15,56375
1079,81;  241,800;  121,375;  860,953;16,28295
1080,36;  227,500;  105,975;  836,052;16,64549
1080,90;  211,600;   96,375;  819,753;15,92875
1081,44;  206,900;   82,475;  789,552;17,59708
1081,99;  191,800;   70,375;  771,753;17,31236
1082,53;  221,600;  113,075;  798,653;15,82972
1083,07;  219,700;  104,175;  791,453;16,80908
1083,62;  217,200;  101,275;  772,552;17,26931
1084,16;  214,400;   98,975;  782,453;16,88790
1084,70;  204,400;  107,475;  767,153;14,69278
1085,24;  214,600;  108,775;  750,653;16,48679
1085,79;  202,000;  109,175;  747,552;14,54077
1086,33;  183,900;   99,075;  711,453;13,85175
1086,87;  191,800;  102,075;  714,852;14,64235
1087,41;  176,600;   84,475;  686,852;15,29357
1087,96;  213,800;  124,575;  732,552;14,67571
1088,50;  200,300;  112,075;  696,953;15,08436
1089,04;  205,900;  121,775;  715,153;14,17731
1089,58;  177,800;   82,375;  655,953;16,63681
1090,13;  184,900;  102,975;  653,153;14,89065
1090,67;  188,400;  101,775;  678,753;15,01358
1091,21;  174,000;   92,075;  651,852;14,63528
1091,75;  172,700;  106,875;  647,153;12,18355
1092,29;  196,300;  105,875;  642,552;16,84904
1092,84;  171,100;  105,975;  628,352;12,46704
1093,38;  205,100;  128,175;  662,753;14,38987
1093,92;  198,900;  113,475;  640,052;16,22268
1094,46;  201,800;  128,175;  638,852;14,41712
1095,00;  174,800;   93,975;  602,052;15,90801
1095,54;  161,600;   89,975;  591,352;14,28565
1096,09;  180,800;  114,975;  597,352;13,64595
1096,63;  194,500;  117,175;  598,453;16,06661
1097,17;  172,600;  102,575;  573,052;14,88382
1097,71;  179,200;  122,875;  582,453;12,25582
1098,25;  165,300;  103,275;  553,653;13,77178
1098,79;  186,200;  104,775;  568,753;17,54934
1099,33;  180,800;  111,975;  572,052;14,95944
1099,88;  165,900;  110,775;  562,253;12,20991
1100,42;  134,700;   83,275;  521,253;11,74147

