550ms
0ms
20X
1
Counts
3/1/2024 1:41:15 PM
10.00000000
0.00000000
Resolution=2&-1
Time1=550ms:Average1=10:Objective=20X:Aperture=1: (3/1/2024 1:41:15 PM)
350.16613620	350.60193709	351.03772818	351.47350942	351.90928082	352.34504234	352.78079397	353.21653569	353.65226748	354.08798932	354.52370120	354.95940309	355.39509497	355.83077683	356.26644864	356.70211039	357.13776206	357.57340363	358.00903508	358.44465639	358.88026755	359.31586852	359.75145930	360.18703986	360.62261019	361.05817026	361.49372007	361.92925958	362.36478878	362.80030765	363.23581617	363.67131432	364.10680209	364.54227945	364.97774638	365.41320287	365.84864890	366.28408445	366.71950949	367.15492401	367.59032800	368.02572142	368.46110427	368.89647652	369.33183815	369.76718915	370.20252950	370.63785917	371.07317815	371.50848642	371.94378395	372.37907074	372.81434676	373.24961199	373.68486642	374.12011002	374.55534277	374.99056467	375.42577567	375.86097578	376.29616497	376.73134321	377.16651050	377.60166680	378.03681211	378.47194641	378.90706966	379.34218187	379.77728300	380.21237303	380.64745196	381.08251975	381.51757640	381.95262187	382.38765616	382.82267924	383.25769109	383.69269170	384.12768105	384.56265911	384.99762586	385.43258130	385.86752540	386.30245813	386.73737949	387.17228945	387.60718799	388.04207509	388.47695074	388.91181492	389.34666760	389.78150877	390.21633841	390.65115650	391.08596302	391.52075795	391.95554127	392.39031297	392.82507302	393.25982140	393.69455810	394.12928310	394.56399638	394.99869791	395.43338769	395.86806568	396.30273188	396.73738625	397.17202880	397.60665948	398.04127829	398.47588521	398.91048022	399.34506329	399.77963441	400.21419356	400.64874072	401.08327588	401.51779900	401.95231008	402.38680910	402.82129603	403.25577086	403.69023356	404.12468412	404.55912252	404.99354874	405.42796276	405.86236457	406.29675414	406.73113145	407.16549648	407.59984922	408.03418965	408.46851774	408.90283349	409.33713686	409.77142784	410.20570642	410.63997256	411.07422626	411.50846749	411.94269624	412.37691248	412.81111621	413.24530738	413.67948600	414.11365204	414.54780547	414.98194629	415.41607447	415.85018999	416.28429284	416.71838299	417.15246043	417.58652514	418.02057709	418.45461627	418.88864266	419.32265625	419.75665700	420.19064491	420.62461995	421.05858210	421.49253135	421.92646768	422.36039106	422.79430148	423.22819892	423.66208336	424.09595478	424.52981316	424.96365849	425.39749074	425.83130989	426.26511593	426.69890883	427.13268858	427.56645516	428.00020855	428.43394873	428.86767568	429.30138939	429.73508982	430.16877697	430.60245081	431.03611133	431.46975851	431.90339232	432.33701276	432.77061979	433.20421340	433.63779357	434.07136029	434.50491352	434.93845327	435.37197949	435.80549219	436.23899132	436.67247689	437.10594887	437.53940723	437.97285197	438.40628306	438.83970048	439.27310421	439.70649424	440.13987054	440.57323310	441.00658189	441.43991690	441.87323811	442.30654551	442.73983906	443.17311875	443.60638457	444.03963649	444.47287449	444.90609856	445.33930868	445.77250482	446.20568697	446.63885511	447.07200922	447.50514928	447.93827527	448.37138718	448.80448497	449.23756865	449.67063818	450.10369354	450.53673472	450.96976170	451.40277446	451.83577298	452.26875725	452.70172723	453.13468291	453.56762428	454.00055132	454.43346400	454.86636230	455.29924622	455.73211572	456.16497079	456.59781142	457.03063757	457.46344923	457.89624639	458.32902903	458.76179711	459.19455064	459.62728958	460.06001392	460.49272363	460.92541871	461.35809913	461.79076486	462.22341591	462.65605223	463.08867382	463.52128065	463.95387271	464.38644998	464.81901243	465.25156005	465.68409283	466.11661073	466.54911374	466.98160185	467.41407503	467.84653327	468.27897654	468.71140483	469.14381811	469.57621637	470.00859960	470.44096776	470.87332084	471.30565882	471.73798169	472.17028942	472.60258200	473.03485940	473.46712160	473.89936860	474.33160036	474.76381687	475.19601811	475.62820407	476.06037471	476.49253003	476.92467000	477.35679461	477.78890383	478.22099765	478.65307605	479.08513900	479.51718650	479.94921851	480.38123503	480.81323602	481.24522149	481.67719139	482.10914572	482.54108446	482.97300758	483.40491507	483.83680691	484.26868308	484.70054356	485.13238833	485.56421738	485.99603067	486.42782820	486.85960995	487.29137589	487.72312601	488.15486029	488.58657870	489.01828124	489.44996788	489.88163860	490.31329338	490.74493220	491.17655505	491.60816190	492.03975274	492.47132755	492.90288631	493.33442899	493.76595559	494.19746607	494.62896043	495.06043864	495.49190069	495.92334655	496.35477620	496.78618963	497.21758682	497.64896774	498.08033239	498.51168074	498.94301276	499.37432845	499.80562778	500.23691074	500.66817730	501.09942745	501.53066116	501.96187842	502.39307921	502.82426351	503.25543130	503.68658256	504.11771727	504.54883542	504.97993698	505.41102193	505.84209026	506.27314195	506.70417698	507.13519532	507.56619696	507.99718189	508.42815007	508.85910150	509.29003615	509.72095401	510.15185505	510.58273926	511.01360661	511.44445709	511.87529069	512.30610737	512.73690712	513.16768992	513.59845576	514.02920461	514.45993645	514.89065127	515.32134905	515.75202976	516.18269339	516.61333992	517.04396933	517.47458160	517.90517671	518.33575465	518.76631539	519.19685891	519.62738520	520.05789424	520.48838600	520.91886048	521.34931764	521.77975747	522.21017995	522.64058507	523.07097279	523.50134312	523.93169601	524.36203147	524.79234945	525.22264996	525.65293297	526.08319845	526.51344640	526.94367678	527.37388959	527.80408480	528.23426240	528.66442236	529.09456467	529.52468930	529.95479624	530.38488547	530.81495697	531.24501072	531.67504671	532.10506490	532.53506529	532.96504785	533.39501257	533.82495942	534.25488839	534.68479946	535.11469261	535.54456782	535.97442507	536.40426434	536.83408561	537.26388887	537.69367409	538.12344125	538.55319035	538.98292135	539.41263423	539.84232899	540.27200560	540.70166404	541.13130429	541.56092633	541.99053015	542.42011572	542.84968303	543.27923205	543.70876277	544.13827517	544.56776923	544.99724493	545.42670225	545.85614117	546.28556168	546.71496375	547.14434736	547.57371250	548.00305915	548.43238728	548.86169688	549.29098794	549.72026042	550.14951431	550.57874960	551.00796626	551.43716427	551.86634362	552.29550429	552.72464625	553.15376949	553.58287399	554.01195973	554.44102669	554.87007485	555.29910419	555.72811470	556.15710635	556.58607912	557.01503300	557.44396797	557.87288401	558.30178110	558.73065921	559.15951834	559.58835846	560.01717955	560.44598160	560.87476458	561.30352847	561.73227326	562.16099893	562.58970546	563.01839282	563.44706101	563.87571000	564.30433977	564.73295030	565.16154157	565.59011358	566.01866628	566.44719967	566.87571373	567.30420844	567.73268378	568.16113973	568.58957627	569.01799338	569.44639105	569.87476924	570.30312796	570.73146717	571.15978685	571.58808700	572.01636758	572.44462858	572.87286998	573.30109177	573.72929391	574.15747640	574.58563922	575.01378234	575.44190574	575.87000941	576.29809333	576.72615748	577.15420184	577.58222639	578.01023111	578.43821598	578.86618099	579.29412611	579.72205133	580.14995662	580.57784197	581.00570736	581.43355276	581.86137817	582.28918356	582.71696890	583.14473420	583.57247941	584.00020453	584.42790954	584.85559441	585.28325913	585.71090368	586.13852803	586.56613218	586.99371610	587.42127977	587.84882317	588.27634629	588.70384910	589.13133159	589.55879373	589.98623551	590.41365691	590.84105791	591.26843849	591.69579863	592.12313831	592.55045752	592.97775623	593.40503442	593.83229208	594.25952919	594.68674573	595.11394167	595.54111700	595.96827171	596.39540576	596.82251915	597.24961185	597.67668385	598.10373512	598.53076564	598.95777541	599.38476439	599.81173257	600.23867993	600.66560645	601.09251211	601.51939690	601.94626078	602.37310376	602.79992580	603.22672688	603.65350699	604.08026611	604.50700422	604.93372130	605.36041733	605.78709229	606.21374616	606.64037893	607.06699057	607.49358107	607.92015040	608.34669856	608.77322551	609.19973124	609.62621572	610.05267896	610.47912091	610.90554156	611.33194090	611.75831891	612.18467556	612.61101083	613.03732472	613.46361719	613.88988823	614.31613782	614.74236595	615.16857258	615.59475771	616.02092131	616.44706337	616.87318386	617.29928278	617.72536008	618.15141577	618.57744982	619.00346220	619.42945291	619.85542192	620.28136922	620.70729478	621.13319858	621.55908061	621.98494085	622.41077927	622.83659587	623.26239061	623.68816348	624.11391447	624.53964355	624.96535070	625.39103591	625.81669915	626.24234041	626.66795966	627.09355689	627.51913209	627.94468522	628.37021627	628.79572523	629.22121207	629.64667677	630.07211931	630.49753969	630.92293786	631.34831383	631.77366756	632.19899905	632.62430826	633.04959519	633.47485980	633.90010209	634.32532203	634.75051961	635.17569481	635.60084760	636.02597797	636.45108589	636.87617136	637.30123435	637.72627483	638.15129281	638.57628824	639.00126112	639.42621142	639.85113913	640.27604422	640.70092669	641.12578650	641.55062364	641.97543809	642.40022983	642.82499885	643.24974512	643.67446862	644.09916934	644.52384726	644.94850235	645.37313460	645.79774399	646.22233050	646.64689411	647.07143480	647.49595255	647.92044735	648.34491917	648.76936800	649.19379381	649.61819659	650.04257632	650.46693298	650.89126655	651.31557701	651.73986434	652.16412852	652.58836954	653.01258737	653.43678200	653.86095340	654.28510156	654.70922646	655.13332808	655.55740640	655.98146140	656.40549307	656.82950137	657.25348630	657.67744784	658.10138596	658.52530064	658.94919188	659.37305964	659.79690391	660.22072468	660.64452191	661.06829560	661.49204572	661.91577225	662.33947518	662.76315449	663.18681015	663.61044215	664.03405047	664.45763509	664.88119598	665.30473314	665.72824655	666.15173617	666.57520200	666.99864402	667.42206220	667.84545653	668.26882699	668.69217355	669.11549621	669.53879494	669.96206971	670.38532052	670.80854735	671.23175017	671.65492896	672.07808371	672.50121440	672.92432101	673.34740351	673.77046190	674.19349615	674.61650623	675.03949215	675.46245386	675.88539136	676.30830463	676.73119364	677.15405838	677.57689882	677.99971496	678.42250677	678.84527423	679.26801732	679.69073602	680.11343032	680.53610019	680.95874562	681.38136658	681.80396307	682.22653505	682.64908251	683.07160543	683.49410379	683.91657758	684.33902677	684.76145134	685.18385128	685.60622656	686.02857717	686.45090309	686.87320430	687.29548077	687.71773250	688.13995946	688.56216163	688.98433899	689.40649153	689.82861923	690.25072206	690.67280001	691.09485305	691.51688118	691.93888436	692.36086259	692.78281583	693.20474408	693.62664732	694.04852552	694.47037866	694.89220673	695.31400971	695.73578757	696.15754031	696.57926789	697.00097031	697.42264753	697.84429955	698.26592635	698.68752790	699.10910418	699.53065518	699.95218088	700.37368126	700.79515630	701.21660597	701.63803027	702.05942917	702.48080265	702.90215070	703.32347329	703.74477041	704.16604204	704.58728815	705.00850873	705.42970376	705.85087322	706.27201710	706.69313536	707.11422800	707.53529499	707.95633632	708.37735196	708.79834190	709.21930612	709.64024460	710.06115731	710.48204425	710.90290539	711.32374071	711.74455020	712.16533383	712.58609158	713.00682344	713.42752939	713.84820941	714.26886347	714.68949157	715.11009368	715.53066977	715.95121984	716.37174387	716.79224183	717.21271370	717.63315947	718.05357912	718.47397263	718.89433997	719.31468114	719.73499610	720.15528485	720.57554736	720.99578362	721.41599360	721.83617729	722.25633466	722.67646570	723.09657039	723.51664871	723.93670063	724.35672615	724.77672524	725.19669789	725.61664407	726.03656376	726.45645695	726.87632362	727.29616374	727.71597730	728.13576429	728.55552467	728.97525843	729.39496556	729.81464603	730.23429983	730.65392692	731.07352731	731.49310096	731.91264786	732.33216799	732.75166133	733.17112786	733.59056756	734.00998042	734.42936640	734.84872550	735.26805770	735.68736298	736.10664131	736.52589267	736.94511706	737.36431445	737.78348482	738.20262815	738.62174442	739.04083362	739.45989572	739.87893071	740.29793856	740.71691926	741.13587279	741.55479913	741.97369826	742.39257016	742.81141481	743.23023219	743.64902229	744.06778508	744.48652055	744.90522868	745.32390944	745.74256282	746.16118880	746.57978736	746.99835849	747.41690215	747.83541834	748.25390703	748.67236821	749.09080185	749.50920794	749.92758646	750.34593739	750.76426070	751.18255639	751.60082443	752.01906480	752.43727748	752.85546246	753.27361971	753.69174922	754.10985097	754.52792493	754.94597109	755.36398944	755.78197994	756.19994258	756.61787735	757.03578422	757.45366318	757.87151420	758.28933727	758.70713236	759.12489946	759.54263856	759.96034962	760.37803263	760.79568758	761.21331443	761.63091318	762.04848381	762.46602629	762.88354061	763.30102674	763.71848468	764.13591439	764.55331586	764.97068908	765.38803401	765.80535065	766.22263898	766.63989896	767.05713060	767.47433386	767.89150873	768.30865518	768.72577321	769.14286278	769.55992389	769.97695651	770.39396062	770.81093621	771.22788325	771.64480173	772.06169163	772.47855292	772.89538559	773.31218962	773.72896499	774.14571169	774.56242968	774.97911896	775.39577950	775.81241129	776.22901431	776.64558853	777.06213394	777.47865052	777.89513825	778.31159710	778.72802708	779.14442814	779.56080028	779.97714347	780.39345769	780.80974294	781.22599918	781.64222640	782.05842457	782.47459369	782.89073373	783.30684467	783.72292649	784.13897918	784.55500271	784.97099707	785.38696224	785.80289819	786.21880491	786.63468238	787.05053057	787.46634949	787.88213909	788.29789936	788.71363029	789.12933186	789.54500404	789.96064681	790.37626017	790.79184408	791.20739853	791.62292351	792.03841898	792.45388494	792.86932136	793.28472822	793.70010551	794.11545321	794.53077129	794.94605974	795.36131853	795.77654766	796.19174710	796.60691683	797.02205683	797.43716709	797.85224758	798.26729829	798.68231919	799.09731027	799.51227150	799.92720288	800.34210438	800.75697597	801.17181765	801.58662939	802.00141118	802.41616299	802.83088480	803.24557660	803.66023837	804.07487008	804.48947173	804.90404329	805.31858473	805.73309605	806.14757722	806.56202823	806.97644905	807.39083966	807.80520005	808.21953020	808.63383009	809.04809970	809.46233901	809.87654799	810.29072665	810.70487494	811.11899286	811.53308038	811.94713749	812.36116416	812.77516039	813.18912614	813.60306140	814.01696615	814.43084037	814.84468405	815.25849716	815.67227968	816.08603160	816.49975289	816.91344354	817.32710353	817.74073284	818.15433144	818.56789933	818.98143648	819.39494287	819.80841849	820.22186330	820.63527731	821.04866048	821.46201280	821.87533424	822.28862480	822.70188444	823.11511316	823.52831093	823.94147773	824.35461354	824.76771835	825.18079213	825.59383487	826.00684655	826.41982715	826.83277664	827.24569502	827.65858225	828.07143833	828.48426323	828.89705694	829.30981943	829.72255068	830.13525068	830.54791941	830.96055685	831.37316298	831.78573777	832.19828122	832.61079330	833.02327400	833.43572328	833.84814115	834.26052757	834.67288252	835.08520599	835.49749796	835.90975842	836.32198733	836.73418468	837.14635046	837.55848463	837.97058720	838.38265813	838.79469740	839.20670500	839.61868091	840.03062511	840.44253757	840.85441829	841.26626724	841.67808440	842.08986976	842.50162329	842.91334498	843.32503480	843.73669274	844.14831877	844.55991289	844.97147506	845.38300528	845.79450352	846.20596976	846.61740399	847.02880618	847.44017631	847.85151437	848.26282034	848.67409420	849.08533592	849.49654550	849.90772291	850.31886813	850.72998114	851.14106193	851.55211047	851.96312674	852.37411074	852.78506243	853.19598180	853.60686882	854.01772349	854.42854578	854.83933568	855.25009315	855.66081819	856.07151078	856.48217089	856.89279850	857.30339361	857.71395618	858.12448620	858.53498366	858.94544852	859.35588078	859.76628041	860.17664740	860.58698172	860.99728335	861.40755229	861.81778850	862.22799197	862.63816268	863.04830061	863.45840574	863.86847805	864.27851753	864.68852415	865.09849790	865.50843876	865.91834670	866.32822171	866.73806377	867.14787286	867.55764895	867.96739205	868.37710211	868.78677913	869.19642308	869.60603395	870.01561171	870.42515635	870.83466785	871.24414619	871.65359135	872.06300331	872.47238206	872.88172756	873.29103981	873.70031878	874.10956446	874.51877683	874.92795586	875.33710155	875.74621386	876.15529278	876.56433830	876.97335038	877.38232902	877.79127419	878.20018588	878.60906407	879.01790873	879.42671984	879.83549740	880.24424138	880.65295176	881.06162852	881.47027164	881.87888110	882.28745689	882.69599898	883.10450736	883.51298201	883.92142291	884.32983003	884.73820337	885.14654289	885.55484859	885.96312043	886.37135842	886.77956251	887.18773271	887.59586898	888.00397130	888.41203966	888.82007405	889.22807443	889.63604079	890.04397312	890.45187139	890.85973558	891.26756568	891.67536166	892.08312351	892.49085121	892.89854473	893.30620407	893.71382919	894.12142009	894.52897673	894.93649911	895.34398721	895.75144100	896.15886046	896.56624558	896.97359634	897.38091272	897.78819470	898.19544225	898.60265537	899.00983403	899.41697822	899.82408791	900.23116308	900.63820372	901.04520981	901.45218132	901.85911824	902.26602056	902.67288824	903.07972127	903.48651964	903.89328332	904.30001230	904.70670655	905.11336605	905.51999079	905.92658076	906.33313592	906.73965626	907.14614176	907.55259240	907.95900816	908.36538903	908.77173498	909.17804600	909.58432207	909.99056316	910.39676926	910.80294035	911.20907641	911.61517742	912.02124336	912.42727422	912.83326996	913.23923059	913.64515607	914.05104638	914.45690152	914.86272145	915.26850616	915.67425563	916.07996984	916.48564877	916.89129241	917.29690073	917.70247372	918.10801135	918.51351361	918.91898047	919.32441193	919.72980795	920.13516853	920.54049363	920.94578325	921.35103736	921.75625595	922.16143899	922.56658647	922.97169836	923.37677465	923.78181532	924.18682035	924.59178972	924.99672341	925.40162141	925.80648369	926.21131023	926.61610102	927.02085603	927.42557525	927.83025866	928.23490624	928.63951796	929.04409382	929.44863379	929.85313785	930.25760599	930.66203818	931.06643441	931.47079465	931.87511889	932.27940711	932.68365929	933.08787540	933.49205544	933.89619938	934.30030721	934.70437889	935.10841442	935.51241378	935.91637694	936.32030390	936.72419462	937.12804908	937.53186728	937.93564919	938.33939480	938.74310407	939.14677700	939.55041357	939.95401375	940.35757752	940.76110488	941.16459579	941.56805025	941.97146822	942.37484969	942.77819465	943.18150307	943.58477494	943.98801022	944.39120892	944.79437100	945.19749645	945.60058525	946.00363738	946.40665282	946.80963155	947.21257356	947.61547881	948.01834730	948.42117901	948.82397391	949.22673199	949.62945323	950.03213761	950.43478511	950.83739570	951.23996938	951.64250613	952.04500591	952.44746872	952.84989454	953.25228334	953.65463511	954.05694983	954.45922747	954.86146803	955.26367148	955.66583780	956.06796697	956.47005898	956.87211380	957.27413142	957.67611181	958.07805496	958.47996085	958.88182946	959.28366077	959.68545476	960.08721142	960.48893071	960.89061263	961.29225716	961.69386427	962.09543395	962.49696617	962.89846092	963.29991819	963.70133794	964.10272017	964.50406485	964.90537196	965.30664148	965.70787340	966.10906770	966.51022435	966.91134334	967.31242465	967.71346826	968.11447415	968.51544230	968.91637270	969.31726532	969.71812014	970.11893715	970.51971632	970.92045764	971.32116109	971.72182665	972.12245430	972.52304402	972.92359579	973.32410959	973.72458541	974.12502322	974.52542301	974.92578475	975.32610843	975.72639403	976.12664153	976.52685091	976.92702215	977.32715523	977.72725014	978.12730685	978.52732534	978.92730560	979.32724760	979.72715134	980.12701678	980.52684391	980.92663271	981.32638316	981.72609525	982.12576895	982.52540424	982.92500111	983.32455953	983.72407949	984.12356097	984.52300394	984.92240840	985.32177431	985.72110167	986.12039045	986.51964064	986.91885220	987.31802514	987.71715942	988.11625502	988.51531193	988.91433014	989.31330961	989.71225033	990.11115229	990.51001546	990.90883982	991.30762535	991.70637204	992.10507987	992.50374881	992.90237886	993.30096998	993.69952216	994.09803538	994.49650962	994.89494487	995.29334110	995.69169830	996.09001644	996.48829550	996.88653548	997.28473634	997.68289807	998.08102066	998.47910407	998.87714829	999.27515331	999.67311910	1000.07104565	1000.46893293	1000.86678093	1001.26458963	1001.66235901	1002.06008904	1002.45777972	1002.85543101	1003.25304291	1003.65061539	1004.04814844	1004.44564203	1004.84309615	1005.24051077	1005.63788588	1006.03522146	1006.43251749	1006.82977395	1007.22699082	1007.62416809	1008.02130573	1008.41840372	1008.81546205	1009.21248069	1009.60945963	1010.00639885	1010.40329832	1010.80015804	1011.19697798	1011.59375812	1011.99049844	1012.38719893	1012.78385955	1013.18048031	1013.57706117	1013.97360212	1014.37010314	1014.76656420	1015.16298530	1015.55936641	1015.95570751	1016.35200858	1016.74826960	1017.14449056	1017.54067144	1017.93681221	1018.33291286	1018.72897337	1019.12499372	1019.52097388	1019.91691385	1020.31281360
1675.96000000	1676.48000000	1674.86000000	1674.84000000	1677.10000000	1696.48000000	1718.50000000	1715.72000000	1739.80000000	1730.20000000	1711.10000000	1684.62000000	1705.08000000	1670.50000000	1665.44000000	1676.16000000	1686.46000000	1671.90000000	1678.80000000	1688.50000000	1719.08000000	1744.20000000	1738.64000000	1738.54000000	1732.98000000	1706.76000000	1675.68000000	1687.88000000	1688.10000000	1698.30000000	1699.94000000	1705.66000000	1710.26000000	1740.64000000	1749.18000000	1733.80000000	1745.42000000	1744.40000000	1729.76000000	1711.50000000	1721.00000000	1738.80000000	1732.82000000	1722.94000000	1750.22000000	1726.24000000	1689.18000000	1708.12000000	1709.64000000	1695.12000000	1705.54000000	1728.68000000	1726.32000000	1718.94000000	1720.94000000	1732.04000000	1723.06000000	1697.52000000	1705.58000000	1712.14000000	1721.26000000	1732.62000000	1740.84000000	1735.24000000	1718.90000000	1707.56000000	1697.06000000	1704.74000000	1723.98000000	1721.18000000	1707.84000000	1718.26000000	1712.20000000	1690.68000000	1698.42000000	1704.12000000	1693.90000000	1711.72000000	1710.72000000	1724.66000000	1736.18000000	1739.80000000	1741.60000000	1758.56000000	1743.08000000	1733.24000000	1730.56000000	1737.48000000	1723.92000000	1722.14000000	1712.16000000	1708.48000000	1693.30000000	1704.48000000	1722.66000000	1751.40000000	1747.94000000	1731.16000000	1722.22000000	1699.90000000	1658.80000000	1686.36000000	1724.90000000	1718.16000000	1725.94000000	1742.10000000	1731.48000000	1708.14000000	1721.34000000	1700.86000000	1712.42000000	1682.78000000	1709.98000000	1719.36000000	1726.32000000	1724.38000000	1736.28000000	1709.20000000	1711.10000000	1717.38000000	1732.72000000	1731.20000000	1733.00000000	1720.56000000	1734.58000000	1731.61000000	1744.87000000	1750.13000000	1738.77000000	1750.09000000	1749.08000000	1751.52000000	1734.24000000	1755.10000000	1744.70000000	1756.50000000	1764.72000000	1798.48000000	1800.64000000	1792.04000000	1777.26000000	1766.00000000	1761.12000000	1766.48000000	1795.46000000	1823.58000000	1826.66000000	1827.22000000	1829.22000000	1818.08000000	1813.02000000	1830.56000000	1823.88000000	1845.04000000	1852.12000000	1854.02000000	1857.98000000	1864.74000000	1860.94000000	1885.24000000	1920.82000000	1915.86000000	1944.58000000	1947.96000000	1961.06000000	1931.50000000	1960.34000000	1950.80000000	1972.04000000	1960.72000000	1979.78000000	1983.96000000	2009.60000000	2000.70000000	2037.76000000	2052.64000000	2049.60000000	2052.30000000	2066.04000000	2031.84000000	2040.60000000	2062.16000000	2077.76000000	2107.50000000	2138.92000000	2146.34000000	2170.34000000	2158.66000000	2135.76000000	2132.72000000	2145.16000000	2133.54000000	2170.48000000	2194.40000000	2203.30000000	2211.66000000	2221.12000000	2218.30000000	2227.26000000	2228.70000000	2226.90000000	2251.32000000	2279.84000000	2285.78000000	2300.44000000	2325.12000000	2323.02000000	2304.32000000	2305.06000000	2294.96000000	2289.66000000	2290.86000000	2316.02000000	2330.86000000	2355.28000000	2366.06000000	2409.88000000	2408.94000000	2431.06000000	2439.46000000	2448.24000000	2434.10000000	2431.88000000	2417.54000000	2429.86000000	2468.14000000	2476.80000000	2499.60000000	2523.66000000	2537.80000000	2512.88000000	2528.36000000	2553.40000000	2568.42000000	2593.24000000	2625.80000000	2626.56000000	2615.20000000	2630.46000000	2635.06000000	2643.24000000	2691.38000000	2717.08000000	2733.78000000	2761.32000000	2766.88000000	2744.18000000	2759.34000000	2764.72000000	2771.42000000	2797.04000000	2827.02000000	2860.24000000	2874.76000000	2875.58000000	2905.18000000	2931.44000000	2947.90000000	2972.08000000	3009.08000000	3001.88000000	2989.60000000	2999.16000000	3032.28000000	3056.94000000	3070.76000000	3085.94000000	3068.82000000	3071.78000000	3068.62000000	3091.08000000	3107.22000000	3133.22000000	3142.10000000	3167.28000000	3173.50000000	3206.92000000	3253.10000000	3296.20000000	3330.42000000	3380.94000000	3419.86000000	3450.20000000	3462.90000000	3462.88000000	3472.32000000	3463.42000000	3461.64000000	3470.72000000	3498.72000000	3523.28000000	3550.70000000	3557.90000000	3585.98000000	3598.42000000	3594.42000000	3615.52000000	3663.92000000	3695.38000000	3720.20000000	3771.48000000	3800.04000000	3822.28000000	3844.74000000	3856.40000000	3887.92000000	3919.00000000	3951.30000000	3969.68000000	4029.08000000	4064.06000000	4102.18000000	4121.68000000	4142.32000000	4156.20000000	4174.16000000	4184.60000000	4207.00000000	4226.38000000	4250.02000000	4260.60000000	4290.18000000	4311.18000000	4346.56000000	4367.92000000	4401.06000000	4448.34000000	4488.54000000	4527.56000000	4581.66000000	4628.74000000	4649.08000000	4655.22000000	4681.82000000	4727.42000000	4762.68000000	4802.24000000	4852.06000000	4903.44000000	4929.88000000	4947.70000000	4955.64000000	4998.52000000	5007.98000000	5027.10000000	5060.08000000	5097.98000000	5143.58000000	5198.74000000	5223.32000000	5262.18000000	5308.86000000	5306.72000000	5338.58000000	5389.72000000	5435.06000000	5473.28000000	5552.68000000	5582.26000000	5643.38000000	5691.00000000	5729.32000000	5767.46000000	5825.54000000	5879.62000000	5928.68000000	5994.00000000	6041.08000000	6083.10000000	6101.76000000	6153.02000000	6177.28000000	6193.04000000	6222.48000000	6265.94000000	6272.56000000	6311.26000000	6363.76000000	6440.32000000	6474.34000000	6516.38000000	6560.34000000	6588.96000000	6588.54000000	6658.20000000	6717.60000000	6785.00000000	6857.76000000	6932.16000000	6965.50000000	7015.56000000	7062.44000000	7098.58000000	7139.92000000	7181.96000000	7226.98000000	7271.00000000	7338.02000000	7412.54000000	7466.20000000	7519.44000000	7566.70000000	7606.42000000	7652.82000000	7694.44000000	7732.40000000	7765.00000000	7781.14000000	7788.98000000	7820.28000000	7862.32000000	7920.42000000	7981.14000000	8036.49000000	8094.93000000	8145.67000000	8210.75000000	8295.29000000	8364.68000000	8427.90000000	8497.98000000	8557.54000000	8633.36000000	8703.32000000	8783.64000000	8861.04000000	8968.84000000	9032.00000000	9101.84000000	9156.32000000	9228.06000000	9247.64000000	9294.06000000	9355.18000000	9432.74000000	9489.00000000	9529.62000000	9562.60000000	9597.66000000	9622.98000000	9645.03000000	9687.39000000	9764.45000000	9834.75000000	9905.87000000	9961.42000000	10027.38000000	10054.04000000	10107.36000000	10158.22000000	10231.88000000	10321.48000000	10401.74000000	10471.92000000	10567.58000000	10631.10000000	10701.34000000	10809.94000000	10904.34000000	10982.90000000	11110.66000000	11193.74000000	11283.14000000	11381.92000000	11494.20000000	11564.12000000	11659.80000000	11740.90000000	11805.50000000	11852.98000000	11923.88000000	11983.84000000	12021.86000000	12068.46000000	12101.56000000	12148.84000000	12210.28000000	12263.38000000	12316.56000000	12386.90000000	12417.24000000	12448.00000000	12503.68000000	12565.78000000	12635.38000000	12721.44000000	12807.51000000	12897.55000000	12984.91000000	13087.25000000	13210.39000000	13292.16000000	13402.26000000	13520.42000000	13621.82000000	13710.90000000	13831.84000000	13913.56000000	13999.70000000	14063.36000000	14144.62000000	14241.92000000	14353.74000000	14423.98000000	14538.96000000	14646.68000000	14724.80000000	14805.86000000	14894.08000000	14946.82000000	14992.20000000	15059.48000000	15112.68000000	15161.26000000	15236.82000000	15306.66000000	15352.12000000	15407.54000000	15490.12000000	15561.80000000	15640.90000000	15723.26000000	15812.84000000	15900.78000000	15982.62000000	16037.30000000	16132.92000000	16202.94000000	16271.66000000	16344.32000000	16457.38000000	16543.96000000	16662.38000000	16781.22000000	16895.70000000	16997.18000000	17133.40000000	17252.28000000	17376.02000000	17504.68000000	17637.86000000	17749.84000000	17877.06000000	17975.54000000	18068.16000000	18174.96000000	18243.54000000	18286.52000000	18355.16000000	18442.32000000	18492.82000000	18569.86000000	18642.28000000	18716.26000000	18748.14000000	18816.62000000	18848.72000000	18899.22000000	18949.06000000	19006.56000000	19025.02000000	19094.90000000	19143.58000000	19211.78000000	19272.36000000	19358.20000000	19393.12000000	19473.86000000	19523.74000000	19618.82000000	19715.66000000	19842.14000000	19974.18000000	20085.46000000	20217.72000000	20345.20000000	20486.48000000	20617.36000000	20778.52000000	20905.76000000	21051.96000000	21204.92000000	21319.68000000	21458.54000000	21577.46000000	21688.98000000	21803.50000000	21926.36000000	22040.24000000	22152.22000000	22239.54000000	22311.96000000	22382.78000000	22439.74000000	22488.44000000	22548.00000000	22619.72000000	22684.14000000	22761.08000000	22855.56000000	22946.52000000	23016.54000000	23091.16000000	23121.52000000	23166.92000000	23196.98000000	23263.64000000	23307.56000000	23373.14000000	23451.92000000	23541.12000000	23579.20000000	23679.14000000	23792.12000000	23886.20000000	23973.02000000	24073.38000000	24148.64000000	24235.92000000	24307.44000000	24442.68000000	24572.94000000	24684.86000000	24798.24000000	24901.52000000	24983.06000000	25089.66000000	25204.50000000	25327.36000000	25434.32000000	25538.70000000	25644.92000000	25744.30000000	25829.30000000	25943.24000000	26047.36000000	26144.82000000	26253.92000000	26365.24000000	26454.24000000	26523.32000000	26569.10000000	26613.38000000	26708.60000000	26747.22000000	26795.60000000	26835.14000000	26876.78000000	26834.12000000	26872.26000000	26910.50000000	26970.78000000	27038.96000000	27113.56000000	27195.12000000	27275.30000000	27356.74000000	27425.40000000	27515.22000000	27574.02000000	27641.72000000	27735.00000000	27797.94000000	27870.52000000	27985.26000000	28105.74000000	28186.94000000	28284.58000000	28373.82000000	28459.62000000	28507.12000000	28559.48000000	28646.14000000	28729.88000000	28821.72000000	28920.02000000	29038.10000000	29175.72000000	29307.38000000	29394.04000000	29529.46000000	29666.90000000	29750.64000000	29834.40000000	29946.84000000	30022.24000000	30068.62000000	30148.36000000	30188.40000000	30231.82000000	30277.42000000	30361.22000000	30409.62000000	30488.20000000	30541.22000000	30571.68000000	30563.46000000	30544.38000000	30536.54000000	30543.56000000	30554.78000000	30557.02000000	30574.10000000	30551.98000000	30539.02000000	30523.36000000	30541.64000000	30536.86000000	30552.74000000	30563.62000000	30615.86000000	30641.26000000	30702.04000000	30761.86000000	30814.18000000	30858.52000000	30919.52000000	30977.46000000	31060.20000000	31159.36000000	31272.02000000	31365.00000000	31483.64000000	31589.30000000	31676.30000000	31736.90000000	31799.32000000	31851.72000000	31894.14000000	31944.34000000	31921.86000000	31939.28000000	31899.32000000	31859.88000000	31830.76000000	31821.70000000	31809.84000000	31829.12000000	31867.16000000	31881.28000000	31928.30000000	31993.76000000	32086.16000000	32173.72000000	32289.30000000	32443.24000000	32547.50000000	32661.24000000	32788.62000000	32885.42000000	32942.74000000	32974.76000000	32947.26000000	32886.62000000	32813.02000000	32733.24000000	32724.64000000	32739.30000000	32718.66000000	32690.08000000	32591.84000000	32456.68000000	32341.08000000	32349.82000000	32392.96000000	32490.74000000	32569.42000000	32649.06000000	32627.58000000	32585.40000000	32574.22000000	32598.06000000	32555.06000000	32546.48000000	32591.44000000	32632.64000000	32643.98000000	32699.40000000	32739.38000000	32755.52000000	32789.70000000	32809.32000000	32809.92000000	32833.30000000	32852.34000000	32870.80000000	32888.66000000	32955.96000000	32999.50000000	33035.06000000	33059.50000000	33108.00000000	33153.08000000	33196.40000000	33246.14000000	33282.46000000	33340.60000000	33349.06000000	33357.36000000	33329.48000000	33313.54000000	33258.10000000	33217.98000000	33198.80000000	33192.66000000	33182.38000000	33150.32000000	33118.22000000	33051.54000000	32978.16000000	33024.56000000	32959.86000000	32898.72000000	32803.72000000	32711.94000000	32456.88000000	32335.76000000	32188.16000000	32056.84000000	31907.50000000	31789.68000000	31688.96000000	31596.76000000	31512.98000000	31434.48000000	31364.82000000	31284.62000000	31213.16000000	31167.92000000	31138.08000000	31086.08000000	31005.36000000	30922.08000000	30837.74000000	30746.18000000	30668.58000000	30614.56000000	30564.74000000	30504.88000000	30452.18000000	30428.08000000	30399.10000000	30390.78000000	30401.40000000	30418.06000000	30421.80000000	30423.68000000	30427.48000000	30417.84000000	30428.70000000	30429.40000000	30454.92000000	30440.50000000	30441.96000000	30411.34000000	30422.38000000	30383.22000000	30318.62000000	30254.80000000	30219.76000000	30117.26000000	30063.10000000	30016.14000000	29966.34000000	29919.24000000	29838.20000000	29756.84000000	29712.42000000	29649.70000000	29590.38000000	29591.12000000	29579.76000000	29577.10000000	29562.08000000	29513.58000000	29478.98000000	29453.56000000	29401.64000000	29376.34000000	29381.36000000	29351.70000000	29308.54000000	29271.46000000	29230.26000000	29139.32000000	29061.96000000	28961.23000000	28849.67000000	28750.29000000	28678.17000000	28584.73000000	28499.56000000	28439.44000000	28351.16000000	28240.62000000	28150.60000000	28069.90000000	27981.82000000	27871.84000000	27781.50000000	27682.40000000	27582.44000000	27480.86000000	27416.98000000	27343.30000000	27281.82000000	27209.26000000	27168.20000000	27078.98000000	26993.62000000	26886.44000000	26828.78000000	26766.02000000	26741.56000000	26743.98000000	26721.54000000	26672.82000000	26590.60000000	26540.82000000	26478.00000000	26512.10000000	26547.08000000	26589.26000000	26598.98000000	26625.86000000	26593.88000000	26557.44000000	26552.26000000	26519.54000000	26488.02000000	26423.12000000	26377.28000000	26318.68000000	26292.46000000	26212.72000000	26159.08000000	26076.52000000	25984.10000000	25879.28000000	25760.38000000	25648.94000000	25540.46000000	25397.84000000	25236.44000000	25132.04000000	25015.88000000	24888.32000000	24779.34000000	24654.20000000	24509.00000000	24352.34000000	24173.46000000	23977.28000000	23823.56000000	23632.50000000	23444.28000000	23267.30000000	23117.24000000	22921.14000000	22768.72000000	22620.92000000	22480.18000000	22304.60000000	22162.84000000	22010.34000000	21885.42000000	21750.46000000	21628.46000000	21514.76000000	21403.84000000	21282.40000000	21183.48000000	21120.06000000	21037.58000000	20947.64000000	20869.82000000	20792.26000000	20706.38000000	20640.32000000	20596.04000000	20547.38000000	20462.28000000	20352.36000000	20186.72000000	19979.50000000	19777.02000000	19655.68000000	19602.16000000	19675.38000000	19789.46000000	19886.94000000	19940.10000000	19950.98000000	19857.30000000	19758.58000000	19663.48000000	19577.94000000	19542.44000000	19478.60000000	19400.64000000	19293.18000000	19197.28000000	19088.82000000	19008.82000000	18944.98000000	18911.86000000	18863.04000000	18762.28000000	18702.36000000	18590.70000000	18485.24000000	18365.86000000	18230.44000000	18033.12000000	17895.40000000	17759.10000000	17611.08000000	17504.82000000	17445.96000000	17336.78000000	17217.94000000	17092.90000000	16939.96000000	16751.12000000	16585.60000000	16432.92000000	16265.84000000	16092.96000000	15948.36000000	15805.14000000	15659.00000000	15537.70000000	15424.80000000	15313.52000000	15213.02000000	15098.88000000	14999.84000000	14927.36000000	14841.14000000	14748.50000000	14670.32000000	14609.94000000	14502.36000000	14432.34000000	14342.08000000	14250.54000000	14160.40000000	14107.82000000	14040.54000000	13983.98000000	13962.54000000	13917.86000000	13877.44000000	13848.30000000	13846.74000000	13815.94000000	13800.18000000	13773.26000000	13726.98000000	13698.18000000	13663.96000000	13642.18000000	13625.50000000	13650.22000000	13662.94000000	13677.60000000	13683.90000000	13699.64000000	13677.12000000	13669.50000000	13694.00000000	13694.40000000	13669.76000000	13682.80000000	13671.70000000	13614.86000000	13593.22000000	13597.50000000	13587.66000000	13568.04000000	13547.30000000	13526.00000000	13471.12000000	13427.88000000	13377.94000000	13357.68000000	13308.48000000	13296.62000000	13234.30000000	13196.36000000	13109.68000000	13077.14000000	13001.78000000	12936.48000000	12825.98000000	12765.02000000	12631.72000000	12552.64000000	12459.40000000	12386.20000000	12292.82000000	12298.74000000	12195.30000000	12120.14000000	12022.24000000	11913.24000000	11745.46000000	11638.18000000	11518.68000000	11409.82000000	11308.62000000	11185.72000000	11075.52000000	10968.68000000	10860.78000000	10788.40000000	10700.32000000	10597.50000000	10488.34000000	10417.80000000	10300.28000000	10197.96000000	10100.28000000	10029.04000000	9941.20000000	9872.28000000	9829.60000000	9799.38000000	9715.64000000	9655.04000000	9626.36000000	9560.56000000	9537.38000000	9515.68000000	9482.88000000	9414.20000000	9355.30000000	9262.16000000	9217.70000000	9164.42000000	9119.80000000	9100.80000000	9104.14000000	9073.22000000	9057.30000000	9058.96000000	9041.06000000	8998.74000000	9014.02000000	9011.34000000	8965.36000000	8965.70000000	8955.42000000	8922.38000000	8894.76000000	8914.48000000	8869.06000000	8846.08000000	8817.38000000	8798.26000000	8758.40000000	8739.44000000	8730.96000000	8722.32000000	8708.36000000	8684.38000000	8670.76000000	8611.08000000	8556.26000000	8515.94000000	8466.06000000	8422.52000000	8380.36000000	8336.48000000	8272.80000000	8257.98000000	8226.62000000	8200.62000000	8169.54000000	8150.94000000	8089.20000000	8022.90000000	7961.28000000	7927.68000000	7857.18000000	7800.26000000	7775.64000000	7737.24000000	7687.64000000	7623.88000000	7591.28000000	7503.36000000	7430.06000000	7342.78000000	7307.32000000	7200.50000000	7123.38000000	7074.58000000	7007.92000000	6934.76000000	6887.38000000	6833.54000000	6763.06000000	6713.58000000	6671.92000000	6616.78000000	6562.22000000	6530.38000000	6503.40000000	6446.36000000	6389.96000000	6351.00000000	6275.48000000	6207.56000000	6162.98000000	6162.96000000	6139.82000000	6140.84000000	6148.56000000	6123.26000000	6102.60000000	6086.28000000	6063.94000000	6037.42000000	6015.14000000	5961.80000000	5935.16000000	5891.62000000	5881.06000000	5852.84000000	5844.28000000	5844.18000000	5858.28000000	5831.66000000	5843.74000000	5851.30000000	5827.80000000	5817.68000000	5817.30000000	5815.66000000	5809.18000000	5815.66000000	5802.04000000	5789.30000000	5770.34000000	5749.54000000	5734.20000000	5752.48000000	5751.24000000	5748.34000000	5773.18000000	5783.02000000	5765.90000000	5741.80000000	5740.88000000	5726.68000000	5739.00000000	5746.32000000	5754.80000000	5764.90000000	5743.08000000	5727.42000000	5745.94000000	5736.48000000	5724.76000000	5707.12000000	5670.12000000	5631.52000000	5613.06000000	5591.28000000	5600.08000000	5583.52000000	5543.74000000	5537.04000000	5499.50000000	5429.14000000	5408.64000000	5388.86000000	5339.64000000	5325.46000000	5318.42000000	5281.76000000	5241.52000000	5208.52000000	5173.52000000	5140.20000000	5089.90000000	5041.44000000	5007.82000000	4956.08000000	4928.32000000	4913.24000000	4876.94000000	4837.28000000	4798.82000000	4728.44000000	4687.22000000	4665.20000000	4641.48000000	4596.16000000	4578.36000000	4536.64000000	4505.72000000	4458.70000000	4446.88000000	4396.40000000	4354.20000000	4311.30000000	4271.70000000	4218.86000000	4222.44000000	4224.48000000	4185.98000000	4150.34000000	4132.04000000	4095.12000000	4082.24000000	4066.12000000	4040.80000000	4012.28000000	4000.70000000	3958.02000000	3948.56000000	3938.52000000	3941.16000000	3925.36000000	3930.80000000	3915.54000000	3900.04000000	3881.18000000	3875.80000000	3831.20000000	3838.78000000	3826.60000000	3808.84000000	3785.04000000	3776.90000000	3759.26000000	3773.22000000	3763.14000000	3758.68000000	3739.68000000	3722.86000000	3742.68000000	3724.18000000	3714.36000000	3717.36000000	3704.32000000	3656.92000000	3674.58000000	3662.00000000	3649.70000000	3633.92000000	3638.12000000	3634.90000000	3630.08000000	3617.96000000	3598.74000000	3572.94000000	3527.12000000	3526.36000000	3515.10000000	3532.10000000	3542.72000000	3569.62000000	3545.54000000	3576.06000000	3573.66000000	3558.38000000	3528.42000000	3522.68000000	3493.22000000	3454.02000000	3442.74000000	3441.40000000	3451.48000000	3441.10000000	3442.78000000	3424.00000000	3423.10000000	3373.34000000	3331.90000000	3307.36000000	3295.66000000	3283.54000000	3286.00000000	3307.32000000	3299.12000000	3275.96000000	3253.34000000	3231.40000000	3186.70000000	3177.76000000	3158.76000000	3159.14000000	3145.04000000	3141.78000000	3118.14000000	3104.22000000	3029.40000000	3004.64000000	2971.62000000	2953.58000000	2932.10000000	2935.34000000	2919.06000000	2917.22000000	2891.30000000	2874.02000000	2875.52000000	2854.00000000	2830.22000000	2821.30000000	2808.80000000	2775.44000000	2792.24000000	2800.82000000	2780.42000000	2780.30000000	2791.32000000	2752.04000000	2725.66000000	2698.98000000	2678.56000000	2663.34000000	2659.60000000	2655.52000000	2678.38000000	2662.60000000	2653.78000000	2649.86000000	2622.36000000	2612.76000000	2601.02000000	2556.34000000	2558.94000000	2550.74000000	2519.72000000	2518.48000000	2520.74000000	2492.82000000	2507.76000000	2534.66000000	2519.58000000	2526.18000000	2531.46000000	2510.44000000	2457.00000000	2470.72000000	2458.28000000	2425.56000000	2407.46000000	2441.90000000	2442.24000000	2432.84000000	2432.84000000	2406.06000000	2367.28000000	2344.06000000	2332.92000000	2343.06000000	2348.14000000	2346.68000000	2319.96000000	2343.68000000	2324.68000000	2329.64000000	2345.14000000	2357.84000000	2339.48000000	2318.20000000	2324.48000000	2301.96000000	2296.32000000	2297.20000000	2293.18000000	2295.78000000	2283.68000000	2275.42000000	2264.12000000	2282.34000000	2282.04000000	2266.44000000	2268.00000000	2260.58000000	2256.72000000	2234.82000000	2269.98000000	2253.98000000	2243.06000000	2218.76000000	2206.32000000	2187.36000000	2180.90000000	2165.48000000	2193.64000000	2175.86000000	2159.42000000	2162.34000000	2148.18000000	2116.58000000	2127.02000000	2145.86000000	2135.40000000	2164.50000000	2155.36000000	2150.12000000	2106.92000000	2094.12000000	2066.26000000	2065.22000000	2051.28000000	2058.36000000	2041.36000000	2055.96000000	2051.34000000	2043.60000000	2025.84000000	2061.34000000	2043.56000000	2040.96000000	2041.64000000	2039.40000000	2012.46000000	2021.88000000	2009.70000000	2022.38000000	2033.26000000	2044.42000000	2044.50000000	2043.78000000	2011.58000000	2005.80000000	2004.42000000	1969.20000000	1978.70000000	2005.82000000	1996.64000000	1972.18000000	1983.44000000	1950.46000000	1932.98000000	1970.50000000	1981.88000000	1975.12000000	1992.22000000	1986.42000000	1936.78000000	1923.18000000	1928.10000000	1915.80000000	1914.72000000	1905.52000000	1925.34000000	1912.12000000	1939.78000000	1948.10000000	1964.32000000	1956.38000000	1957.16000000	1926.56000000	1914.58000000	1902.72000000	1900.72000000	1870.30000000	1881.70000000	1877.32000000	1891.68000000	1908.54000000	1916.76000000	1897.84000000	1894.36000000	1895.82000000	1833.62000000	1834.38000000	1849.02000000	1846.48000000	1860.38000000	1884.80000000	1899.60000000	1906.72000000	1907.08000000	1895.16000000	1881.56000000	1883.08000000	1871.26000000	1868.44000000	1875.94000000	1898.24000000	1883.70000000	1869.44000000	1871.38000000	1837.76000000	1830.66000000	1828.98000000	1834.40000000	1826.36666667
