Time1=100ms:Average1=5:Objective=10X:Aperture=1: (11/21/2018 2:12:12 PM)
11/21/2018 2:12:12 PM
Reflectance
10X
Ap#: 1
Avg1: 5.000000
Avg2: 0.000000
Int.Time1:100.000000

420.190645	20.911173
420.624620	21.051656
421.058582	21.208234
421.492531	21.333875
421.926468	21.492884
422.360391	21.664037
422.794301	21.832133
423.228199	22.038526
423.662083	22.253762
424.095955	22.476226
424.529813	22.712752
424.963658	22.950648
425.397491	23.170153
425.831310	23.393034
426.265116	23.605089
426.698909	23.841090
427.132689	24.065517
427.566455	24.298709
428.000209	24.568711
428.433949	24.808070
428.867676	25.044334
429.301389	25.293602
429.735090	25.539856
430.168777	25.762747
430.602451	25.994629
431.036111	26.219494
431.469759	26.421593
431.903392	26.641159
432.337013	26.853818
432.770620	27.049983
433.204213	27.238843
433.637794	27.435850
434.071360	27.636317
434.504914	27.825143
434.938453	28.021119
435.371979	28.217148
435.805492	28.418961
436.238991	28.626884
436.672477	28.800738
437.105949	28.988810
437.539407	29.143434
437.972852	29.305407
438.406283	29.474474
438.839700	29.639433
439.273104	29.795663
439.706494	29.934091
440.139871	30.072537
440.573233	30.210314
441.006582	30.334402
441.439917	30.437967
441.873238	30.545159
442.306546	30.661307
442.739839	30.757250
443.173119	30.831626
443.606385	30.944503
444.039636	31.038810
444.472874	31.132269
444.906099	31.224760
445.339309	31.333493
445.772505	31.426521
446.205687	31.533601
446.638855	31.634722
447.072009	31.727907
447.505149	31.803587
447.938275	31.889862
448.371387	31.967543
448.804485	32.027186
449.237569	32.075316
449.670638	32.123824
450.103694	32.161003
450.536735	32.198325
450.969762	32.234725
451.402774	32.253544
451.835773	32.267559
452.268757	32.286228
452.701727	32.296467
453.134683	32.319294
453.567624	32.338938
454.000551	32.360706
454.433464	32.370966
454.866362	32.389851
455.299246	32.412373
455.732116	32.435440
456.164971	32.455807
456.597811	32.483513
457.030638	32.473009
457.463449	32.488723
457.896246	32.471614
458.329029	32.472285
458.761797	32.440338
459.194551	32.425524
459.627290	32.382318
460.060014	32.328747
460.492724	32.279204
460.925419	32.220660
461.358099	32.165866
461.790765	32.083321
462.223416	31.998152
462.656052	31.918380
463.088674	31.816764
463.521281	31.721829
463.953873	31.635731
464.386450	31.516273
464.819012	31.418292
465.251560	31.296597
465.684093	31.174608
466.116611	31.057305
466.549114	30.939815
466.981602	30.816246
467.414075	30.670777
467.846533	30.528058
468.278977	30.374786
468.711405	30.218093
469.143818	30.050952
469.576216	29.879368
470.008600	29.691367
470.440968	29.502185
470.873321	29.299405
471.305659	29.094460
471.737982	28.884720
472.170289	28.676703
472.602582	28.431024
473.034859	28.207597
473.467122	28.001038
473.899369	27.785294
474.331600	27.582659
474.763817	27.374857
475.196018	27.181902
475.628204	26.992911
476.060375	26.792818
476.492530	26.600282
476.924670	26.417450
477.356795	26.226853
477.788904	26.075937
478.220998	25.912741
478.653076	25.771026
479.085139	25.639872
479.517186	25.514125
479.949219	25.385394
480.381235	25.264607
480.813236	25.170652
481.245221	25.081496
481.677191	25.001114
482.109146	24.916278
482.541084	24.844966
482.973008	24.774222
483.404915	24.742329
483.836807	24.712939
484.268683	24.699722
484.700544	24.703676
485.132388	24.713081
485.564217	24.737179
485.996031	24.783765
486.427828	24.837494
486.859610	24.890132
487.291376	24.956090
487.723126	25.035434
488.154860	25.117027
488.586579	25.210184
489.018281	25.312560
489.449968	25.425999
489.881639	25.548704
490.313293	25.664215
490.744932	25.782497
491.176555	25.887693
491.608162	26.004602
492.039753	26.118358
492.471328	26.216053
492.902886	26.320630
493.334429	26.432324
493.765956	26.543005
494.197466	26.642816
494.628960	26.734536
495.060439	26.826486
495.491901	26.911962
495.923347	26.988256
496.354776	27.064537
496.786190	27.111783
497.217587	27.164831
497.648968	27.205655
498.080332	27.248396
498.511681	27.285337
498.943013	27.316374
499.374328	27.351866
499.805628	27.380063
500.236911	27.406250
500.668177	27.421772
501.099427	27.418777
501.530661	27.414687
501.961878	27.397304
502.393079	27.370306
502.824264	27.345062
503.255431	27.315523
503.686583	27.288653
504.117717	27.270345
504.548835	27.250981
504.979937	27.233340
505.411022	27.219093
505.842090	27.217810
506.273142	27.211373
506.704177	27.197917
507.135195	27.176141
507.566197	27.152515
507.997182	27.133803
508.428150	27.112112
508.859102	27.103073
509.290036	27.100017
509.720954	27.110292
510.151855	27.150553
510.582739	27.204071
511.013607	27.274490
511.444457	27.352125
511.875291	27.444745
512.306107	27.553761
512.736907	27.666874
513.167690	27.790163
513.598456	27.927188
514.029205	28.079614
514.459936	28.252860
514.890651	28.446571
515.321349	28.659412
515.752030	28.905274
516.182693	29.169538
516.613340	29.461774
517.043969	29.788110
517.474582	30.137556
517.905177	30.519006
518.335755	30.917546
518.766315	31.326463
519.196859	31.748079
519.627385	32.176414
520.057894	32.604091
520.488386	33.035316
520.918860	33.475988
521.349318	33.919944
521.779757	34.370202
522.210180	34.820494
522.640585	35.281285
523.070973	35.746202
523.501343	36.214245
523.931696	36.696502
524.362031	37.181351
524.792349	37.685874
525.222650	38.197468
525.652933	38.721862
526.083198	39.259560
526.513446	39.800902
526.943677	40.343021
527.373890	40.887055
527.804085	41.447253
528.234262	41.989599
528.664422	42.526799
529.094565	43.054072
529.524689	43.578757
529.954796	44.101324
530.384885	44.609310
530.814957	45.111788
531.245011	45.613421
531.675047	46.118433
532.105065	46.649520
532.535065	47.193109
532.965048	47.754923
533.395013	48.344644
533.824959	48.951260
534.254888	49.569005
534.684799	50.217982
535.114693	50.875051
535.544568	51.541207
535.974425	52.203373
536.404264	52.845924
536.834086	53.472977
537.263889	54.073838
537.693674	54.659463
538.123441	55.214594
538.553190	55.749499
538.982921	56.270152
539.412634	56.776775
539.842329	57.279015
540.272006	57.774474
540.701664	58.266058
541.131304	58.740293
541.560926	59.227729
541.990530	59.720175
542.420116	60.209924
542.849683	60.690004
543.279232	61.162789
543.708763	61.625090
544.138275	62.069915
544.567769	62.500268
544.997245	62.884419
545.426702	63.240155
545.856141	63.572750
546.285562	63.883383
546.714964	64.166128
547.144347	64.432137
547.573713	64.687874
548.003059	64.935334
548.432387	65.183568
548.861697	65.428897
549.290988	65.679467
549.720260	65.958115
550.149514	66.234523
550.578750	66.525382
551.007966	66.831233
551.437164	67.159035
551.866344	67.502999
552.295504	67.853206
552.724646	68.195654
553.153769	68.540225
553.582874	68.877428
554.011960	69.205487
554.441027	69.520725
554.870075	69.819924
555.299104	70.099267
555.728115	70.367110
556.157106	70.634349
556.586079	70.877318
557.015033	71.108092
557.443968	71.329537
557.872884	71.548506
558.301781	71.792540
558.730659	72.009678
559.159518	72.242724
559.588358	72.485287
560.017180	72.722019
560.445982	72.966665
560.874765	73.208783
561.303528	73.442632
561.732273	73.664581
562.160999	73.889381
562.589705	74.097510
563.018393	74.284937
563.447061	74.459897
563.875710	74.628302
564.304340	74.773219
564.732950	74.902715
565.161542	75.008344
565.590114	75.114023
566.018666	75.216011
566.447200	75.303512
566.875714	75.398187
567.304208	75.489905
567.732684	75.580305
568.161140	75.673478
568.589576	75.769556
569.017993	75.862695
569.446391	75.947576
569.874769	76.037626
570.303128	76.130238
570.731467	76.231012
571.159787	76.313923
571.588087	76.386548
572.016368	76.482037
572.444629	76.558640
572.872870	76.624905
573.301092	76.698004
573.729294	76.757404
574.157476	76.822518
574.585639	76.873817
575.013782	76.930678
575.441906	76.983207
575.870009	77.039818
576.298093	77.112475
576.726157	77.187241
577.154202	77.261582
577.582226	77.338358
578.010231	77.424320
578.438216	77.520964
578.866181	77.616581
579.294126	77.711510
579.722051	77.820182
580.149957	77.916034
580.577842	78.024189
581.005707	78.132692
581.433553	78.249795
581.861378	78.356388
582.289184	78.464407
582.716969	78.567660
583.144734	78.663620
583.572479	78.775168
584.000205	78.858521
584.427910	78.940978
584.855594	79.030521
585.283259	79.093326
585.710904	79.158061
586.138528	79.215674
586.566132	79.248287
586.993716	79.280031
587.421280	79.286149
587.848823	79.293339
588.276346	79.284091
588.703849	79.250336
589.131332	79.189500
589.558794	79.100624
589.986236	78.993427
590.413657	78.871921
590.841058	78.736178
591.268438	78.570491
591.695799	78.387757
592.123138	78.188438
592.550458	77.982900
592.977756	77.757525
593.405034	77.536689
593.832292	77.296500
594.259529	77.051105
594.686746	76.793490
595.113942	76.549689
595.541117	76.298300
595.968272	76.057145
596.395406	75.818138
596.822519	75.570798
597.249612	75.338310
597.676684	75.119483
598.103735	74.895289
598.530766	74.687595
598.957775	74.471043
599.384764	74.258966
599.811733	74.068527
600.238680	73.874357
600.665606	73.691266
601.092512	73.503038
601.519397	73.318496
601.946261	73.138993
602.373104	72.968666
602.799926	72.807200
603.226727	72.643528
603.653507	72.471997
604.080266	72.300122
604.507004	72.135653
604.933721	71.965387
605.360417	71.780473
605.787092	71.594519
606.213746	71.403139
606.640379	71.193361
607.066991	70.976750
607.493581	70.742184
607.920150	70.504259
608.346699	70.237498
608.773226	69.961733
609.199731	69.645957
609.626216	69.315325
610.052679	68.959240
610.479121	68.579386
610.905542	68.162459
611.331941	67.722149
611.758319	67.252714
612.184676	66.768534
612.611011	66.249647
613.037325	65.691340
613.463617	65.107689
613.889888	64.487193
614.316138	63.845217
614.742366	63.175362
615.168573	62.476357
615.594758	61.744193
616.020921	60.989961
616.447063	60.212045
616.873184	59.413552
617.299283	58.596737
617.725360	57.760030
618.151416	56.914678
618.577450	56.053821
619.003462	55.189145
619.429453	54.315302
619.855422	53.447459
620.281369	52.586804
620.707295	51.723552
621.133199	50.857217
621.559081	50.004609
621.984941	49.165460
622.410779	48.339475
622.836596	47.530876
623.262391	46.729173
623.688163	45.947297
624.113914	45.188474
624.539644	44.449182
624.965351	43.730312
625.391036	43.032603
625.816699	42.358069
626.242340	41.705917
626.667960	41.071913
627.093557	40.468331
627.519132	39.889316
627.944685	39.334179
628.370216	38.805944
628.795725	38.316765
629.221212	37.839770
629.646677	37.407625
630.072119	37.010301
630.497540	36.643317
630.922938	36.315041
631.348314	36.015243
631.773668	35.757330
632.198999	35.534014
632.624308	35.344929
633.049595	35.182104
633.474860	35.048936
633.900102	34.947607
634.325322	34.870283
634.750520	34.816850
635.175695	34.781589
635.600848	34.774958
636.025978	34.784158
636.451086	34.816156
636.876171	34.861288
637.301234	34.920472
637.726275	34.992191
638.151293	35.082252
638.576288	35.177483
639.001261	35.286712
639.426211	35.406258
639.851139	35.545094
640.276044	35.689220
640.700927	35.840506
641.125787	35.994846
641.550624	36.160629
641.975438	36.329706
642.400230	36.509654
642.824999	36.685810
643.249745	36.858806
643.674469	37.036988
644.099169	37.203778
644.523847	37.375400
644.948502	37.535753
645.373135	37.681050
645.797744	37.819851
646.222330	37.952691
646.646894	38.068993
647.071435	38.175116
647.495953	38.265668
647.920447	38.345508
648.344919	38.407489
648.769368	38.447556
649.193794	38.479460
649.618197	38.488426
650.042576	38.488287
650.466933	38.473388
650.891267	38.448585
651.315577	38.407353
651.739864	38.352640
652.164129	38.284194
652.588370	38.207561
653.012587	38.120522
653.436782	38.027076
653.860953	37.929733
654.285102	37.832652
654.709226	37.733699
655.133328	37.628529
655.557406	37.530952
655.981461	37.435901
656.405493	37.356880
656.829501	37.278352
657.253486	37.225447
657.677448	37.179945
658.101386	37.159154
658.525301	37.159192
658.949192	37.183101
659.373060	37.222765
659.796904	37.286575
660.220725	37.375395
660.644522	37.491703
661.068296	37.635498
661.492046	37.803018
661.915772	38.008275
662.339475	38.224324
662.763154	38.474382
663.186810	38.747420
663.610442	39.038108
664.034050	39.346712
664.457635	39.674582
664.881196	40.030160
665.304733	40.408863
665.728247	40.797301
666.151736	41.205835
666.575202	41.624923
666.998644	42.059340
667.422062	42.496842
667.845457	42.943427
668.268827	43.400410
668.692174	43.862068
669.115496	44.329622
669.538795	44.795116
669.962070	45.266733
670.385321	45.729866
670.808547	46.190387
671.231750	46.635293
671.654929	47.062829
672.078084	47.477983
672.501214	47.871100
672.924321	48.253543
673.347404	48.612537
673.770462	48.947642
674.193496	49.246004
674.616506	49.521948
675.039492	49.765307
675.462454	49.988137
675.885391	50.176545
676.308305	50.333409
676.731194	50.469661
677.154058	50.576306
677.576899	50.662406
677.999715	50.719612
678.422507	50.748450
678.845274	50.766613
679.268017	50.764403
679.690736	50.750127
680.113430	50.717836
680.536100	50.687165
680.958746	50.649081
681.381367	50.611787
681.803963	50.572690
682.226535	50.539210
682.649083	50.516002
683.071605	50.504767
683.494104	50.506012
683.916578	50.522872
684.339027	50.565437
684.761451	50.637831
685.183851	50.733086
685.606227	50.869028
686.028577	51.025499
686.450903	51.228161
686.873204	51.473701
687.295481	51.766046
687.717733	52.101722
688.139959	52.476700
688.562162	52.906381
688.984339	53.385768
689.406492	53.917225
689.828619	54.490518
690.250722	55.119933
690.672800	55.789108
691.094853	56.511419
691.516881	57.279762
691.938884	58.089784
692.360863	58.930363
692.782816	59.805847
693.204744	60.717572
693.626647	61.647603
694.048526	62.608794
694.470379	63.581955
694.892207	64.572805
695.314010	65.575946
695.735788	66.594161
696.157540	67.611953
696.579268	68.636544
697.000970	69.665125
697.422648	70.691914
697.844300	71.706973
698.265926	72.724264
698.687528	73.736489
699.109104	74.737009
699.530655	75.713630
699.952181	76.686427
