Time1=100ms:Average1=5:Objective=10X:Aperture=1: (11/28/2018 11:19:26 AM)
11/28/2018 11:19:26 AM
Reflectance
10X
Ap#: 1
Avg1: 5.000000
Avg2: 0.000000
Int.Time1:100.000000

420.190645	10.269943
420.624620	10.101525
421.058582	9.985224
421.492531	9.857378
421.926468	9.723078
422.360391	9.610317
422.794301	9.515572
423.228199	9.418725
423.662083	9.337714
424.095955	9.265440
424.529813	9.191496
424.963658	9.152561
425.397491	9.086264
425.831310	9.025462
426.265116	8.971977
426.698909	8.930182
427.132689	8.894143
427.566455	8.871068
428.000209	8.836389
428.433949	8.785980
428.867676	8.760095
429.301389	8.725470
429.735090	8.717577
430.168777	8.710063
430.602451	8.687703
431.036111	8.650888
431.469759	8.636269
431.903392	8.621665
432.337013	8.605561
432.770620	8.594120
433.204213	8.578939
433.637794	8.579462
434.071360	8.580926
434.504914	8.573288
434.938453	8.578955
435.371979	8.581887
435.805492	8.597974
436.238991	8.596091
436.672477	8.615547
437.105949	8.632569
437.539407	8.641150
437.972852	8.653989
438.406283	8.642297
438.839700	8.651337
439.273104	8.658846
439.706494	8.666063
440.139871	8.681196
440.573233	8.686110
441.006582	8.689672
441.439917	8.704334
441.873238	8.717341
442.306546	8.730792
442.739839	8.753730
443.173119	8.760662
443.606385	8.770171
444.039636	8.777120
444.472874	8.796317
444.906099	8.803158
445.339309	8.819358
445.772505	8.834902
446.205687	8.856775
446.638855	8.883983
447.072009	8.910566
447.505149	8.941503
447.938275	8.971928
448.371387	8.998661
448.804485	9.030079
449.237569	9.050888
449.670638	9.085279
450.103694	9.111103
450.536735	9.132879
450.969762	9.164010
451.402774	9.197605
451.835773	9.234118
452.268757	9.264105
452.701727	9.293064
453.134683	9.324670
453.567624	9.353131
454.000551	9.392025
454.433464	9.422889
454.866362	9.447035
455.299246	9.478515
455.732116	9.505474
456.164971	9.535148
456.597811	9.563490
457.030638	9.593147
457.463449	9.624513
457.896246	9.657411
458.329029	9.691460
458.761797	9.719027
459.194551	9.745378
459.627290	9.766142
460.060014	9.785379
460.492724	9.803901
460.925419	9.824915
461.358099	9.851556
461.790765	9.879055
462.223416	9.904363
462.656052	9.933753
463.088674	9.962991
463.521281	9.993073
463.953873	10.021718
464.386450	10.047923
464.819012	10.079650
465.251560	10.109951
465.684093	10.151052
466.116611	10.189846
466.549114	10.227590
466.981602	10.262063
467.414075	10.298938
467.846533	10.339665
468.278977	10.383069
468.711405	10.426646
469.143818	10.472973
469.576216	10.518461
470.008600	10.570277
470.440968	10.621232
470.873321	10.670154
471.305659	10.723553
471.737982	10.771399
472.170289	10.819280
472.602582	10.868111
473.034859	10.916044
473.467122	10.965585
473.899369	11.011798
474.331600	11.047280
474.763817	11.082098
475.196018	11.113250
475.628204	11.151901
476.060375	11.185170
476.492530	11.222559
476.924670	11.252987
477.356795	11.279297
477.788904	11.306635
478.220998	11.331335
478.653076	11.356719
479.085139	11.367343
479.517186	11.382007
479.949219	11.398522
480.381235	11.411866
480.813236	11.416782
481.245221	11.424578
481.677191	11.432811
482.109146	11.440674
482.541084	11.449940
482.973008	11.455725
483.404915	11.459755
483.836807	11.460026
484.268683	11.464196
484.700544	11.460045
485.132388	11.458469
485.564217	11.452208
485.996031	11.442964
486.427828	11.428885
486.859610	11.412362
487.291376	11.394846
487.723126	11.384599
488.154860	11.369767
488.586579	11.361523
489.018281	11.342532
489.449968	11.325995
489.881639	11.312744
490.313293	11.302542
490.744932	11.297260
491.176555	11.294804
491.608162	11.289979
492.039753	11.283805
492.471328	11.289388
492.902886	11.282977
493.334429	11.276781
493.765956	11.270751
494.197466	11.271832
494.628960	11.270906
495.060439	11.267981
495.491901	11.263420
495.923347	11.261245
496.354776	11.259144
496.786190	11.265907
497.217587	11.276820
497.648968	11.289387
498.080332	11.307196
498.511681	11.326346
498.943013	11.357721
499.374328	11.391257
499.805628	11.434257
500.236911	11.480954
500.668177	11.529462
501.099427	11.582733
501.530661	11.640642
501.961878	11.699168
502.393079	11.766861
502.824264	11.843957
503.255431	11.917709
503.686583	12.001005
504.117717	12.092301
504.548835	12.188719
504.979937	12.295234
505.411022	12.412266
505.842090	12.534548
506.273142	12.668471
506.704177	12.816684
507.135195	12.971048
507.566197	13.131991
507.997182	13.302734
508.428150	13.479020
508.859102	13.660127
509.290036	13.839557
509.720954	14.025349
510.151855	14.209088
510.582739	14.387583
511.013607	14.568178
511.444457	14.742626
511.875291	14.919403
512.306107	15.090242
512.736907	15.265302
513.167690	15.438143
513.598456	15.612729
514.029205	15.800839
514.459936	15.981307
514.890651	16.164943
515.321349	16.351553
515.752030	16.544293
516.182693	16.733847
516.613340	16.928160
517.043969	17.124047
517.474582	17.324534
517.905177	17.520468
518.335755	17.717615
518.766315	17.923868
519.196859	18.131969
519.627385	18.345953
520.057894	18.558899
520.488386	18.789687
520.918860	19.034703
521.349318	19.291060
521.779757	19.571313
522.210180	19.879502
522.640585	20.211732
523.070973	20.575100
523.501343	20.966470
523.931696	21.392744
524.362031	21.848218
524.792349	22.343158
525.222650	22.869522
525.652933	23.425929
526.083198	24.019020
526.513446	24.642744
526.943677	25.299402
527.373890	25.972918
527.804085	26.685761
528.234262	27.431460
528.664422	28.209486
529.094565	29.015172
529.524689	29.851643
529.954796	30.717856
530.384885	31.618008
530.814957	32.545922
531.245011	33.513427
531.675047	34.504511
532.105065	35.530897
532.535065	36.590822
532.965048	37.689407
533.395013	38.820898
533.824959	39.968492
534.254888	41.151501
534.684799	42.390526
535.114693	43.641048
535.544568	44.885359
535.974425	46.141632
536.404264	47.405657
536.834086	48.675299
537.263889	49.930581
537.693674	51.185040
538.123441	52.429937
538.553190	53.657970
538.982921	54.875760
539.412634	56.075934
539.842329	57.267500
540.272006	58.443548
540.701664	59.599364
541.131304	60.744452
541.560926	61.861336
541.990530	62.958152
542.420116	64.025568
542.849683	65.059570
543.279232	66.056559
543.708763	67.017828
544.138275	67.953815
544.567769	68.854196
544.997245	69.719998
545.426702	70.545770
545.856141	71.352048
546.285562	72.125362
546.714964	72.863404
547.144347	73.593811
547.573713	74.299177
548.003059	74.965629
548.432387	75.627210
548.861697	76.263234
549.290988	76.880366
549.720260	77.470723
550.149514	78.041173
550.578750	78.604852
551.007966	79.144331
551.437164	79.660654
551.866344	80.171043
552.295504	80.667329
552.724646	81.143198
553.153769	81.604842
553.582874	82.054564
554.011960	82.493972
554.441027	82.905296
554.870075	83.308623
555.299104	83.697170
555.728115	84.071651
556.157106	84.434007
556.586079	84.785358
557.015033	85.117965
557.443968	85.419149
557.872884	85.716986
558.301781	86.016184
558.730659	86.281426
559.159518	86.525038
559.588358	86.758164
560.017180	86.988592
560.445982	87.205940
560.874765	87.401738
561.303528	87.580406
561.732273	87.735100
562.160999	87.880968
562.589705	88.024170
563.018393	88.148500
563.447061	88.263420
563.875710	88.353588
564.304340	88.446270
564.732950	88.541460
565.161542	88.615907
565.590114	88.692048
566.018666	88.765412
566.447200	88.835429
566.875714	88.905120
567.304208	88.980811
567.732684	89.048721
568.161140	89.108909
568.589576	89.172864
569.017993	89.237854
569.446391	89.292963
569.874769	89.357291
570.303128	89.411220
570.731467	89.465915
571.159787	89.499223
571.588087	89.528761
572.016368	89.572465
572.444629	89.608167
572.872870	89.645731
573.301092	89.674944
573.729294	89.687347
574.157476	89.712403
574.585639	89.724018
575.013782	89.747435
575.441906	89.774268
575.870009	89.774827
576.298093	89.794379
576.726157	89.802378
577.154202	89.817726
577.582226	89.825631
578.010231	89.825996
578.438216	89.830443
578.866181	89.831417
579.294126	89.827609
579.722051	89.828353
580.149957	89.815467
580.577842	89.790389
581.005707	89.775354
581.433553	89.753582
581.861378	89.712071
582.289184	89.672814
582.716969	89.630518
583.144734	89.586870
583.572479	89.559895
584.000205	89.528950
584.427910	89.504225
584.855594	89.466720
585.283259	89.441623
585.710904	89.413085
586.138528	89.380833
586.566132	89.353502
586.993716	89.337174
587.421280	89.319539
587.848823	89.316894
588.276346	89.305208
588.703849	89.289505
589.131332	89.293553
589.558794	89.284081
589.986236	89.293154
590.413657	89.300723
590.841058	89.310605
591.268438	89.328811
591.695799	89.354992
592.123138	89.385710
592.550458	89.412575
592.977756	89.440751
593.405034	89.466794
593.832292	89.506884
594.259529	89.544188
594.686746	89.589005
595.113942	89.641852
595.541117	89.696172
595.968272	89.743706
596.395406	89.776935
596.822519	89.811640
597.249612	89.840705
597.676684	89.871880
598.103735	89.893306
598.530766	89.900952
598.957775	89.904565
599.384764	89.890017
599.811733	89.869114
600.238680	89.833145
600.665606	89.767431
601.092512	89.686885
601.519397	89.578619
601.946261	89.472380
602.373104	89.343258
602.799926	89.181607
603.226727	88.986341
603.653507	88.775071
604.080266	88.541321
604.507004	88.265198
604.933721	87.955917
605.360417	87.625938
605.787092	87.268576
606.213746	86.884526
606.640379	86.478036
607.066991	86.040826
607.493581	85.586855
607.920150	85.097353
608.346699	84.578499
608.773226	84.029514
609.199731	83.472987
609.626216	82.908735
610.052679	82.304239
610.479121	81.704655
610.905542	81.069280
611.331941	80.428360
611.758319	79.760957
612.184676	79.080927
612.611011	78.384545
613.037325	77.668516
613.463617	76.941161
613.889888	76.192228
614.316138	75.430185
614.742366	74.664719
615.168573	73.875654
615.594758	73.070132
616.020921	72.269160
616.447063	71.460421
616.873184	70.647464
617.299283	69.820745
617.725360	69.011893
618.151416	68.199273
618.577450	67.377977
619.003462	66.566888
619.429453	65.753185
619.855422	64.945050
620.281369	64.138617
620.707295	63.336010
621.133199	62.553181
621.559081	61.773912
621.984941	60.998872
622.410779	60.237456
622.836596	59.465704
623.262391	58.712109
623.688163	57.950430
624.113914	57.201654
624.539644	56.469493
624.965351	55.743791
625.391036	55.026869
625.816699	54.319786
626.242340	53.624611
626.667960	52.937456
627.093557	52.272508
627.519132	51.618065
627.944685	50.980301
628.370216	50.366079
628.795725	49.781212
629.221212	49.214672
629.646677	48.675431
630.072119	48.161411
630.497540	47.679266
630.922938	47.222952
631.348314	46.804406
631.773668	46.417452
632.198999	46.058299
632.624308	45.733014
633.049595	45.438739
633.474860	45.174016
633.900102	44.936703
634.325322	44.718852
634.750520	44.532162
635.175695	44.370625
635.600848	44.223673
636.025978	44.099272
636.451086	43.988246
636.876171	43.890587
637.301234	43.804248
637.726275	43.713963
638.151293	43.631350
638.576288	43.551562
639.001261	43.476118
639.426211	43.407005
639.851139	43.334526
640.276044	43.262603
640.700927	43.191524
641.125787	43.112920
641.550624	43.027075
641.975438	42.932147
642.400230	42.832308
642.824999	42.720396
643.249745	42.602499
643.674469	42.478913
644.099169	42.343893
644.523847	42.201317
644.948502	42.055205
645.373135	41.913201
645.797744	41.769751
646.222330	41.626946
646.646894	41.487721
647.071435	41.356779
647.495953	41.231905
647.920447	41.123273
648.344919	41.023486
648.769368	40.940320
649.193794	40.878409
649.618197	40.840727
650.042576	40.819075
650.466933	40.831731
650.891267	40.865925
651.315577	40.932158
651.739864	41.025353
652.164129	41.145226
652.588370	41.287946
653.012587	41.452928
653.436782	41.637041
653.860953	41.847930
654.285102	42.086472
654.709226	42.336665
655.133328	42.608562
655.557406	42.900616
655.981461	43.207436
656.405493	43.533751
656.829501	43.867032
657.253486	44.196679
657.677448	44.533662
658.101386	44.871844
658.525301	45.203667
658.949192	45.523208
659.373060	45.837670
659.796904	46.138395
660.220725	46.417809
660.644522	46.676703
661.068296	46.905573
661.492046	47.111956
661.915772	47.291161
662.339475	47.442890
662.763154	47.559095
663.186810	47.649728
663.610442	47.700859
664.034050	47.725649
664.457635	47.714055
664.881196	47.667652
665.304733	47.588480
665.728247	47.478184
666.151736	47.338879
666.575202	47.174379
666.998644	46.977186
667.422062	46.755136
667.845457	46.514107
668.268827	46.249640
668.692174	45.961173
669.115496	45.654535
669.538795	45.319944
669.962070	44.978848
670.385321	44.635474
670.808547	44.281146
671.231750	43.921034
671.654929	43.557694
672.078084	43.198879
672.501214	42.836329
672.924321	42.481023
673.347404	42.143693
673.770462	41.825335
674.193496	41.529995
674.616506	41.252368
675.039492	41.000200
675.462454	40.767350
675.885391	40.560132
676.308305	40.387106
676.731194	40.246254
677.154058	40.132294
677.576899	40.053297
677.999715	39.999913
678.422507	39.977111
678.845274	39.987532
679.268017	40.033105
679.690736	40.092221
680.113430	40.180878
680.536100	40.284511
680.958746	40.415568
681.381367	40.559328
681.803963	40.717560
682.226535	40.887362
682.649083	41.075645
683.071605	41.265387
683.494104	41.456702
683.916578	41.649476
684.339027	41.842101
684.761451	42.031686
685.183851	42.218993
685.606227	42.394306
686.028577	42.560522
686.450903	42.709439
686.873204	42.839120
687.295481	42.945797
687.717733	43.038541
688.139959	43.110996
688.562162	43.161332
688.984339	43.189106
689.406492	43.190272
689.828619	43.164288
690.250722	43.113299
690.672800	43.034197
691.094853	42.938139
691.516881	42.828297
691.938884	42.690631
692.360863	42.530994
692.782816	42.369082
693.204744	42.187134
693.626647	41.998039
694.048526	41.790092
694.470379	41.579868
694.892207	41.364229
695.314010	41.150303
695.735788	40.930196
696.157540	40.713178
696.579268	40.504652
697.000970	40.303781
697.422648	40.112862
697.844300	39.930233
698.265926	39.757207
698.687528	39.605674
699.109104	39.474558
699.530655	39.360214
699.952181	39.275171
