Time1=100ms:Average1=5:Objective=10X:Aperture=1: (11/28/2018 9:52:04 AM)
11/28/2018 9:52:04 AM
Reflectance
10X
Ap#: 1
Avg1: 5.000000
Avg2: 0.000000
Int.Time1:100.000000

350.166136	72.507782
350.601937	72.335444
351.037728	72.857524
351.473509	72.576054
351.909281	72.899197
352.345042	72.465717
352.780794	72.640747
353.216536	72.451914
353.652267	72.437111
354.087989	72.169045
354.523701	72.288181
354.959403	72.140155
355.395095	72.402948
355.830777	71.907794
356.266449	72.172513
356.702110	72.348621
357.137762	72.949201
357.573404	72.587425
358.009035	72.301098
358.444656	72.459368
358.880268	72.446152
359.315869	72.642099
359.751459	72.623912
360.187040	72.473061
360.622610	71.854803
361.058170	71.780604
361.493720	71.987259
361.929260	71.932149
362.364789	72.016279
362.800308	72.348922
363.235816	72.750780
363.671314	72.894197
364.106802	72.750688
364.542279	72.798088
364.977746	72.833496
365.413203	72.683706
365.848649	72.902595
366.284084	72.484054
366.719509	72.505759
367.154924	72.458639
367.590328	72.350964
368.025721	72.194690
368.461104	71.910806
368.896477	71.675790
369.331838	71.507986
369.767189	71.479217
370.202530	71.166078
370.637859	70.724842
371.073178	70.849421
371.508486	70.742396
371.943784	71.066480
372.379071	71.025663
372.814347	70.709021
373.249612	70.907973
373.684866	70.969151
374.120110	71.304880
374.555343	71.253716
374.990565	70.945474
375.425776	70.995822
375.860976	70.929219
376.296165	70.728741
376.731343	70.545927
377.166511	70.182258
377.601667	70.202457
378.036812	69.949801
378.471946	70.134141
378.907070	70.272374
379.342182	70.214236
379.777283	70.729383
380.212373	70.896814
380.647452	70.848102
381.082520	70.802794
381.517576	70.837642
381.952622	71.144708
382.387656	71.196353
382.822679	71.214470
383.257691	70.933722
383.692692	70.812703
384.127681	70.904269
384.562659	70.914530
384.997626	70.861717
385.432581	70.530619
385.867525	70.675664
386.302458	70.875607
386.737379	70.678225
387.172289	70.414051
387.607188	70.353758
388.042075	70.438604
388.476951	70.927870
388.911815	70.971574
389.346668	70.867803
389.781509	70.793919
390.216338	70.725126
390.651157	71.202292
391.085963	71.471953
391.520758	71.954507
391.955541	71.592720
392.390313	71.271599
392.825073	71.127291
393.259821	70.878249
393.694558	70.593630
394.129283	70.496714
394.563996	70.427464
394.998698	70.445479
395.433388	70.419792
395.868066	70.279561
396.302732	70.503983
396.737386	70.475369
397.172029	70.317558
397.606659	69.980046
398.041278	69.382057
398.475885	68.876336
398.910480	68.212132
399.345063	67.442227
399.779634	66.851730
400.214194	65.788169
400.648741	64.689614
401.083276	63.190363
401.517799	61.860399
401.952310	60.071559
402.386809	58.287814
402.821296	56.077883
403.255771	54.088336
403.690234	51.797672
404.124684	49.064545
404.559123	46.801072
404.993549	44.229157
405.427963	41.548049
405.862365	39.431821
406.296754	37.224091
406.731131	35.174035
407.165496	33.233437
407.599849	31.411490
408.034190	29.707696
408.468518	27.975462
408.902833	26.424793
409.337137	24.981445
409.771428	23.628538
410.205706	22.468943
410.639973	21.352041
411.074226	20.481844
411.508467	19.654393
411.942696	18.935182
412.376912	18.288044
412.811116	17.653908
413.245307	17.007681
413.679486	16.450128
414.113652	15.973081
414.547805	15.500711
414.981946	15.071107
415.416074	14.673902
415.850190	14.314867
416.284293	13.984351
416.718383	13.712489
417.152460	13.456469
417.586525	13.236745
418.020577	12.962034
418.454616	12.744904
418.888643	12.611709
419.322656	12.446173
419.756657	12.263852
420.190645	12.098967
420.624620	11.986805
421.058582	11.825936
421.492531	11.679086
421.926468	11.586420
422.360391	11.493191
422.794301	11.441034
423.228199	11.376581
423.662083	11.321325
424.095955	11.304984
424.529813	11.225904
424.963658	11.161676
425.397491	11.122406
425.831310	11.061458
426.265116	11.026910
426.698909	11.009162
427.132689	11.007187
427.566455	10.992404
428.000209	10.994907
428.433949	10.991359
428.867676	10.981254
429.301389	10.991238
429.735090	10.994165
430.168777	10.967470
430.602451	10.947913
431.036111	10.938742
431.469759	10.930190
431.903392	10.915761
432.337013	10.896715
432.770620	10.881180
433.204213	10.875593
433.637794	10.885183
434.071360	10.870357
434.504914	10.887517
434.938453	10.917550
435.371979	10.916746
435.805492	10.927581
436.238991	10.926829
436.672477	10.941729
437.105949	10.945201
437.539407	10.933756
437.972852	10.951058
438.406283	10.968227
438.839700	10.959413
439.273104	10.977503
439.706494	10.987060
440.139871	11.008705
440.573233	11.032460
441.006582	11.046818
441.439917	11.060877
441.873238	11.063330
442.306546	11.077646
442.739839	11.064468
443.173119	11.067826
443.606385	11.072716
444.039636	11.094665
444.472874	11.102488
444.906099	11.117864
445.339309	11.150622
445.772505	11.179260
446.205687	11.207119
446.638855	11.247846
447.072009	11.284478
447.505149	11.328858
447.938275	11.380467
448.371387	11.416542
448.804485	11.459212
449.237569	11.490381
449.670638	11.510934
450.103694	11.542351
450.536735	11.553417
450.969762	11.566628
451.402774	11.564199
451.835773	11.577538
452.268757	11.595623
452.701727	11.612378
453.134683	11.633239
453.567624	11.631177
454.000551	11.642559
454.433464	11.665324
454.866362	11.691640
455.299246	11.727222
455.732116	11.756597
456.164971	11.786108
456.597811	11.819608
457.030638	11.847065
457.463449	11.862484
457.896246	11.880924
458.329029	11.902699
458.761797	11.912455
459.194551	11.920430
459.627290	11.930625
460.060014	11.928145
460.492724	11.927334
460.925419	11.931604
461.358099	11.939471
461.790765	11.952682
462.223416	11.976366
462.656052	12.003097
463.088674	12.027542
463.521281	12.039644
463.953873	12.060209
464.386450	12.089192
464.819012	12.110727
465.251560	12.117864
465.684093	12.125923
466.116611	12.123351
466.549114	12.129628
466.981602	12.136931
467.414075	12.145133
467.846533	12.153772
468.278977	12.164059
468.711405	12.181976
469.143818	12.213648
469.576216	12.246024
470.008600	12.266620
470.440968	12.310664
470.873321	12.342388
471.305659	12.384980
471.737982	12.416264
472.170289	12.437637
472.602582	12.455283
473.034859	12.467763
473.467122	12.472868
473.899369	12.473581
474.331600	12.460588
474.763817	12.438556
475.196018	12.420486
475.628204	12.410247
476.060375	12.394589
476.492530	12.387948
476.924670	12.403603
477.356795	12.423440
477.788904	12.454598
478.220998	12.493109
478.653076	12.537744
479.085139	12.599325
479.517186	12.652243
479.949219	12.706658
480.381235	12.758614
480.813236	12.801536
481.245221	12.840137
481.677191	12.869692
482.109146	12.893572
482.541084	12.908869
482.973008	12.928706
483.404915	12.959490
483.836807	12.980381
484.268683	13.026531
484.700544	13.063572
485.132388	13.126435
485.564217	13.194757
485.996031	13.284844
486.427828	13.387713
486.859610	13.513586
487.291376	13.648876
487.723126	13.781165
488.154860	13.929972
488.586579	14.070970
489.018281	14.190747
489.449968	14.321041
489.881639	14.439194
490.313293	14.544796
490.744932	14.641152
491.176555	14.726948
491.608162	14.804179
492.039753	14.882551
492.471328	14.952038
492.902886	15.030581
493.334429	15.104791
493.765956	15.191175
494.197466	15.285260
494.628960	15.391117
495.060439	15.516042
495.491901	15.655049
495.923347	15.796807
496.354776	15.960748
496.786190	16.133073
497.217587	16.306133
497.648968	16.480175
498.080332	16.663648
498.511681	16.839424
498.943013	17.019455
499.374328	17.185514
499.805628	17.339475
500.236911	17.483326
500.668177	17.613713
501.099427	17.747719
501.530661	17.856715
501.961878	17.966387
502.393079	18.087638
502.824264	18.196014
503.255431	18.316265
503.686583	18.446250
504.117717	18.583874
504.548835	18.724750
504.979937	18.882614
505.411022	19.052732
505.842090	19.231941
506.273142	19.417337
506.704177	19.599251
507.135195	19.784295
507.566197	19.961918
507.997182	20.145068
508.428150	20.299974
508.859102	20.439220
509.290036	20.562673
509.720954	20.673770
510.151855	20.766772
510.582739	20.855705
511.013607	20.938738
511.444457	21.005887
511.875291	21.071621
512.306107	21.141228
512.736907	21.217071
513.167690	21.302824
513.598456	21.396873
514.029205	21.506059
514.459936	21.641283
514.890651	21.800718
515.321349	21.971146
515.752030	22.163180
516.182693	22.381009
516.613340	22.610496
517.043969	22.833216
517.474582	23.070401
517.905177	23.315598
518.335755	23.555801
518.766315	23.788815
519.196859	24.013527
519.627385	24.226275
520.057894	24.439923
520.488386	24.643886
520.918860	24.843068
521.349318	25.026155
521.779757	25.224129
522.210180	25.405756
522.640585	25.604077
523.070973	25.798560
523.501343	26.001057
523.931696	26.206352
524.362031	26.417992
524.792349	26.653572
525.222650	26.905719
525.652933	27.171669
526.083198	27.447129
526.513446	27.748802
526.943677	28.063042
527.373890	28.393402
527.804085	28.731962
528.234262	29.092826
528.664422	29.479240
529.094565	29.887340
529.524689	30.308725
529.954796	30.749768
530.384885	31.225616
530.814957	31.724338
531.245011	32.243103
531.675047	32.804590
532.105065	33.382651
532.535065	34.003684
532.965048	34.663544
533.395013	35.377641
533.824959	36.117996
534.254888	36.918150
534.684799	37.785132
535.114693	38.678799
535.544568	39.612942
535.974425	40.565620
536.404264	41.553705
536.834086	42.552610
537.263889	43.568226
537.693674	44.598128
538.123441	45.628742
538.553190	46.649815
538.982921	47.661624
539.412634	48.668644
539.842329	49.660919
540.272006	50.635953
540.701664	51.580987
541.131304	52.501618
541.560926	53.408617
541.990530	54.275033
542.420116	55.103615
542.849683	55.903016
543.279232	56.672809
543.708763	57.393172
544.138275	58.080569
544.567769	58.738744
544.997245	59.366937
545.426702	59.978818
545.856141	60.551744
546.285562	61.119957
546.714964	61.652249
547.144347	62.192802
547.573713	62.689369
548.003059	63.165841
548.432387	63.632713
548.861697	64.109838
549.290988	64.591001
549.720260	65.057004
550.149514	65.549733
550.578750	66.035282
551.007966	66.519158
551.437164	67.008378
551.866344	67.510040
552.295504	68.026738
552.724646	68.552122
553.153769	69.083781
553.582874	69.647809
554.011960	70.232572
554.441027	70.823481
554.870075	71.402467
555.299104	71.994097
555.728115	72.599930
556.157106	73.211442
556.586079	73.805980
557.015033	74.430255
557.443968	75.049255
557.872884	75.664004
558.301781	76.254147
558.730659	76.847207
559.159518	77.451933
559.588358	78.039274
560.017180	78.613471
560.445982	79.164575
560.874765	79.734854
561.303528	80.291560
561.732273	80.836840
562.160999	81.365033
562.589705	81.878195
563.018393	82.384822
563.447061	82.875860
563.875710	83.339384
564.304340	83.805365
564.732950	84.252381
565.161542	84.699032
565.590114	85.147803
566.018666	85.586701
566.447200	86.004983
566.875714	86.406754
567.304208	86.802503
567.732684	87.197550
568.161140	87.585852
568.589576	87.963361
569.017993	88.322900
569.446391	88.681560
569.874769	89.028533
570.303128	89.342721
570.731467	89.651414
571.159787	89.964897
571.588087	90.266384
572.016368	90.565247
572.444629	90.820806
572.872870	91.091953
573.301092	91.354626
573.729294	91.605257
574.157476	91.838148
574.585639	92.064804
575.013782	92.285763
575.441906	92.499857
575.870009	92.711763
576.298093	92.915862
576.726157	93.104903
577.154202	93.300602
577.582226	93.487013
578.010231	93.682901
578.438216	93.860438
578.866181	94.038425
579.294126	94.232614
579.722051	94.430597
580.149957	94.641260
580.577842	94.836498
581.005707	95.039939
581.433553	95.227149
581.861378	95.445044
582.289184	95.664095
582.716969	95.854887
583.144734	96.070641
583.572479	96.293982
584.000205	96.503894
584.427910	96.714222
584.855594	96.914692
585.283259	97.093919
585.710904	97.284651
586.138528	97.454110
586.566132	97.608580
586.993716	97.752056
587.421280	97.871519
587.848823	97.980088
588.276346	98.072845
588.703849	98.132570
589.131332	98.168270
589.558794	98.175384
589.986236	98.147173
590.413657	98.086598
590.841058	97.991487
591.268438	97.852683
591.695799	97.692380
592.123138	97.496249
592.550458	97.272212
592.977756	97.019076
593.405034	96.721118
593.832292	96.408541
594.259529	96.063859
594.686746	95.719772
595.113942	95.343724
595.541117	94.946717
595.968272	94.560411
596.395406	94.163545
596.822519	93.757375
597.249612	93.362934
597.676684	92.933925
598.103735	92.530710
598.530766	92.121860
598.957775	91.730856
599.384764	91.329519
599.811733	90.944702
600.238680	90.568143
600.665606	90.202716
601.092512	89.832996
601.519397	89.469148
601.946261	89.125287
602.373104	88.791138
602.799926	88.472955
603.226727	88.152491
603.653507	87.851132
604.080266	87.556234
604.507004	87.269447
604.933721	86.993953
605.360417	86.725232
605.787092	86.445132
606.213746	86.172466
606.640379	85.909784
607.066991	85.649297
607.493581	85.396898
607.920150	85.144184
608.346699	84.879093
608.773226	84.623143
609.199731	84.360520
609.626216	84.089309
610.052679	83.818009
610.479121	83.537875
610.905542	83.269644
611.331941	82.983847
611.758319	82.717120
612.184676	82.427840
612.611011	82.142142
613.037325	81.845225
613.463617	81.560503
613.889888	81.259993
614.316138	80.961714
614.742366	80.657116
615.168573	80.358748
615.594758	80.063823
616.020921	79.768639
616.447063	79.496184
616.873184	79.234600
617.299283	78.978113
617.725360	78.714126
618.151416	78.472493
618.577450	78.222694
619.003462	77.979024
619.429453	77.746273
619.855422	77.522610
620.281369	77.304095
620.707295	77.087948
621.133199	76.857550
621.559081	76.646157
621.984941	76.420574
622.410779	76.197971
622.836596	75.944691
623.262391	75.686982
623.688163	75.406051
624.113914	75.115256
624.539644	74.802436
624.965351	74.456758
625.391036	74.085198
625.816699	73.683666
626.242340	73.260042
626.667960	72.796752
627.093557	72.310299
627.519132	71.777896
627.944685	71.226708
628.370216	70.645024
628.795725	70.026390
629.221212	69.372348
629.646677	68.694503
630.072119	67.979654
630.497540	67.241542
630.922938	66.494343
631.348314	65.715858
631.773668	64.920283
632.198999	64.120520
632.624308	63.314733
633.049595	62.503553
633.474860	61.696307
633.900102	60.889170
634.325322	60.106717
634.750520	59.324244
635.175695	58.549214
635.600848	57.779206
636.025978	57.039741
636.451086	56.309068
636.876171	55.605593
637.301234	54.915668
637.726275	54.249059
638.151293	53.612601
638.576288	52.996261
639.001261	52.404421
639.426211	51.826816
639.851139	51.279256
640.276044	50.759534
640.700927	50.265950
641.125787	49.796861
641.550624	49.345292
641.975438	48.921249
642.400230	48.520922
642.824999	48.143687
643.249745	47.793870
643.674469	47.456466
644.099169	47.139684
644.523847	46.837220
644.948502	46.558112
645.373135	46.291713
645.797744	46.024547
646.222330	45.766808
646.646894	45.517975
647.071435	45.271306
647.495953	45.020678
647.920447	44.766894
648.344919	44.516667
648.769368	44.270827
649.193794	44.015157
649.618197	43.751463
650.042576	43.483712
650.466933	43.210873
650.891267	42.928610
651.315577	42.630528
651.739864	42.342954
652.164129	42.051888
652.588370	41.755842
653.012587	41.447608
653.436782	41.141790
653.860953	40.845829
654.285102	40.552190
654.709226	40.261927
655.133328	39.974152
655.557406	39.700703
655.981461	39.427404
656.405493	39.163902
656.829501	38.919914
657.253486	38.687287
657.677448	38.467593
658.101386	38.276715
658.525301	38.096020
658.949192	37.954394
659.373060	37.838079
659.796904	37.744521
660.220725	37.687531
660.644522	37.669046
661.068296	37.689291
661.492046	37.738065
661.915772	37.838661
662.339475	37.966980
662.763154	38.135728
663.186810	38.332666
663.610442	38.566254
664.034050	38.834949
664.457635	39.143106
664.881196	39.479063
665.304733	39.849999
665.728247	40.254003
666.151736	40.680640
666.575202	41.132459
666.998644	41.604069
667.422062	42.097415
667.845457	42.606274
668.268827	43.138888
668.692174	43.681881
669.115496	44.239869
669.538795	44.812627
669.962070	45.399276
670.385321	46.000413
670.808547	46.605844
671.231750	47.199215
671.654929	47.802039
672.078084	48.383865
672.501214	48.948952
672.924321	49.502162
673.347404	50.036701
673.770462	50.527119
674.193496	50.994183
674.616506	51.436022
675.039492	51.812461
675.462454	52.173629
675.885391	52.478577
676.308305	52.760360
676.731194	52.997091
677.154058	53.197749
677.576899	53.349052
677.999715	53.464399
678.422507	53.530888
678.845274	53.556865
679.268017	53.552788
679.690736	53.518749
680.113430	53.456829
680.536100	53.363748
680.958746	53.246597
681.381367	53.097184
681.803963	52.920745
682.226535	52.730592
682.649083	52.510982
683.071605	52.273513
683.494104	52.024946
683.916578	51.764951
684.339027	51.495335
684.761451	51.214883
685.183851	50.927426
685.606227	50.645359
686.028577	50.359533
686.450903	50.069592
686.873204	49.790178
687.295481	49.500046
687.717733	49.214184
688.139959	48.942423
688.562162	48.665574
688.984339	48.409686
689.406492	48.149311
689.828619	47.899815
690.250722	47.659578
690.672800	47.438854
691.094853	47.221726
691.516881	47.017202
691.938884	46.827274
692.360863	46.646109
692.782816	46.472364
693.204744	46.314859
693.626647	46.161886
694.048526	46.025900
694.470379	45.906843
694.892207	45.811353
695.314010	45.717329
695.735788	45.642260
696.157540	45.577135
696.579268	45.521422
697.000970	45.480351
697.422648	45.448106
697.844300	45.431432
698.265926	45.434418
698.687528	45.438937
699.109104	45.456315
699.530655	45.479242
699.952181	45.522733
700.373681	45.574468
700.795156	45.638146
701.216606	45.703513
701.638030	45.788012
702.059429	45.875646
702.480803	45.969189
702.902151	46.066925
703.323473	46.165568
703.744770	46.263782
704.166042	46.357677
704.587288	46.453123
705.008509	46.542710
705.429704	46.627824
705.850873	46.711444
706.272017	46.776050
706.693135	46.828033
707.114228	46.864197
707.535295	46.885735
707.956336	46.883443
708.377352	46.868918
708.798342	46.834570
709.219306	46.780988
709.640245	46.709434
710.061157	46.619968
710.482044	46.519013
710.902905	46.399945
711.323741	46.260361
711.744550	46.123165
712.165334	45.974443
712.586092	45.826903
713.006823	45.670601
713.427529	45.524600
713.848209	45.375874
714.268863	45.243477
714.689492	45.105296
715.110094	44.978048
715.530670	44.855402
715.951220	44.744033
716.371744	44.635245
716.792242	44.533995
717.212714	44.436360
717.633159	44.347786
718.053579	44.274624
718.473973	44.206741
718.894340	44.140344
719.314681	44.082055
719.734996	44.033969
720.155285	43.985367
720.575547	43.945697
720.995784	43.911347
721.415994	43.883045
721.836177	43.858574
722.256335	43.847650
722.676466	43.839813
723.096570	43.841277
723.516649	43.838568
723.936701	43.847529
724.356726	43.859827
724.776725	43.869487
725.196698	43.883165
725.616644	43.890855
726.036564	43.897412
726.456457	43.886673
726.876324	43.886301
727.296164	43.870279
727.715977	43.843950
728.135764	43.817089
728.555525	43.789639
728.975258	43.752366
729.394966	43.710230
729.814646	43.660997
730.234300	43.618129
730.653927	43.573744
731.073527	43.518189
731.493101	43.461330
731.912648	43.399732
732.332168	43.336905
732.751661	43.275181
733.171128	43.220136
733.590568	43.166394
734.009980	43.113407
734.429366	43.070474
734.848726	43.033053
735.268058	42.988655
735.687363	42.949084
736.106641	42.910566
736.525893	42.881527
736.945117	42.855624
737.364314	42.840035
737.783485	42.826874
738.202628	42.816149
738.621744	42.811655
739.040834	42.819324
739.459896	42.845825
739.878931	42.857905
740.297939	42.893018
740.716919	42.935045
741.135873	42.976873
741.554799	43.028149
741.973698	43.086819
742.392570	43.159329
742.811415	43.236578
743.230232	43.323704
743.649022	43.413298
744.067785	43.510782
744.486521	43.607046
744.905229	43.704881
745.323909	43.809695
745.742563	43.912674
746.161189	44.020385
746.579787	44.118957
746.998358	44.218611
747.416902	44.311668
747.835418	44.396026
748.253907	44.487462
748.672368	44.575974
749.090802	44.658907
749.509208	44.733533
749.927586	44.791613
750.345937	44.843392
750.764261	44.889293
751.182556	44.930780
751.600824	44.960396
752.019065	44.973492
752.437277	44.972359
752.855462	44.978374
753.273620	44.961014
753.691749	44.937475
754.109851	44.911426
754.527925	44.876069
754.945971	44.828717
755.363989	44.770624
755.781980	44.703855
756.199943	44.628113
756.617877	44.549080
757.035784	44.456535
757.453663	44.370258
757.871514	44.281059
758.289337	44.183927
758.707132	44.084433
759.124899	43.974262
759.542639	43.869614
759.960350	43.761029
760.378033	43.647351
760.795688	43.531433
761.213314	43.406510
761.630913	43.280371
762.048484	43.149782
762.466026	43.023337
762.883541	42.898371
763.301027	42.773327
763.718485	42.648344
764.135914	42.512743
764.553316	42.390512
764.970689	42.268665
765.388034	42.156505
765.805351	42.035973
766.222639	41.918845
766.639899	41.810914
767.057131	41.699058
767.474334	41.588622
767.891509	41.487037
768.308655	41.393338
768.725773	41.311419
769.142863	41.229544
769.559924	41.157394
769.976957	41.096899
770.393961	41.041949
770.810936	40.995514
771.227883	40.958580
771.644802	40.935879
772.061692	40.928576
772.478553	40.924022
772.895386	40.927681
773.312190	40.947293
773.728965	40.983326
774.145712	41.026643
774.562430	41.086999
774.979119	41.149547
775.395780	41.228027
775.812411	41.311417
776.229014	41.411829
776.645589	41.520296
777.062134	41.647684
777.478651	41.781316
777.895138	41.924262
778.311597	42.073879
778.728027	42.227195
779.144428	42.388622
779.560800	42.571422
779.977143	42.762491
780.393458	42.969680
780.809743	43.190094
781.225999	43.420114
781.642226	43.659155
782.058425	43.923322
782.474594	44.183920
782.890734	44.455547
783.306845	44.738115
783.722926	45.032420
784.138979	45.337667
784.555003	45.645619
784.970997	45.953148
785.386962	46.272274
785.802898	46.598141
786.218805	46.917806
786.634682	47.245976
787.050531	47.576061
787.466349	47.899315
787.882139	48.237273
788.297899	48.555652
788.713630	48.885252
789.129332	49.201091
789.545004	49.502723
789.960647	49.800965
790.376260	50.075276
790.791844	50.330649
791.207399	50.588286
791.622924	50.846808
792.038419	51.097319
792.453885	51.322700
792.869321	51.540166
793.284728	51.730577
793.700106	51.903835
794.115453	52.063791
794.530771	52.197558
794.946060	52.310848
795.361319	52.412202
795.776548	52.510568
796.191747	52.584613
796.606917	52.647266
797.022057	52.690544
797.437167	52.730559
797.852248	52.757889
798.267298	52.775078
798.682319	52.799294
799.097310	52.826329
799.512271	52.840617
799.927203	52.867348
800.342104	52.885240
800.756976	52.902295
801.171818	52.930759
801.586629	52.951142
802.001411	52.966222
802.416163	52.998237
802.830885	53.026353
803.245577	53.055099
803.660238	53.102281
804.074870	53.120375
804.489472	53.155841
804.904043	53.188961
805.318585	53.215795
805.733096	53.237466
806.147577	53.261812
806.562028	53.294474
806.976449	53.301278
807.390840	53.325895
807.805200	53.334033
808.219530	53.322778
808.633830	53.288930
809.048100	53.260551
809.462339	53.220908
809.876548	53.169249
810.290727	53.106912
810.704875	53.043452
811.118993	52.956664
811.533080	52.859739
811.947137	52.738626
812.361164	52.604787
812.775160	52.449162
813.189126	52.289810
813.603061	52.103560
814.016966	51.919035
814.430840	51.722743
814.844684	51.523384
815.258497	51.299713
815.672280	51.071977
816.086032	50.848500
816.499753	50.619958
816.913444	50.388576
817.327104	50.151935
817.740733	49.920380
818.154331	49.685234
818.567899	49.465097
818.981436	49.240855
819.394943	49.008122
819.808418	48.784751
820.221863	48.551233
820.635277	48.326733
821.048660	48.109982
821.462013	47.897352
821.875334	47.692396
822.288625	47.478832
822.701884	47.278225
823.115113	47.075041
823.528311	46.881937
823.941478	46.692118
824.354614	46.489665
824.767718	46.306238
825.180792	46.124475
825.593835	45.945166
826.006847	45.748844
826.419827	45.576550
826.832777	45.391526
827.245695	45.205398
827.658582	45.023047
828.071438	44.849383
828.484263	44.669288
828.897057	44.488200
829.309819	44.310527
829.722551	44.141824
830.135251	43.965434
830.547919	43.770025
830.960557	43.584211
831.373163	43.398479
831.785738	43.212289
832.198281	43.025289
832.610793	42.852181
833.023274	42.671930
833.435723	42.489824
833.848141	42.328178
834.260528	42.184924
834.672883	42.026729
835.085206	41.882965
835.497498	41.756876
835.909758	41.644493
836.321987	41.516910
836.734185	41.403566
837.146350	41.315326
837.558485	41.221193
837.970587	41.153143
838.382658	41.102640
838.794697	41.069444
839.206705	41.048626
839.618681	41.021649
840.030625	41.019237
840.442538	41.025502
840.854418	41.048576
841.266267	41.088545
841.678084	41.141738
842.089870	41.199026
842.501623	41.274501
842.913345	41.347068
843.325035	41.451970
843.736693	41.584149
844.148319	41.704377
844.559913	41.842584
844.971475	42.001253
845.383005	42.158876
845.794504	42.331041
846.205970	42.506652
846.617404	42.676845
847.028806	42.836887
847.440176	43.016347
847.851514	43.185105
848.262820	43.336084
848.674094	43.481152
849.085336	43.642816
849.496546	43.796492
849.907723	43.915281
850.318868	44.029135
850.729981	44.138695
851.141062	44.218047
851.552110	44.299670
851.963127	44.341446
852.374111	44.407387
852.785062	44.458087
853.195982	44.486571
853.606869	44.508771
854.017723	44.520413
854.428546	44.530863
854.839336	44.524283
855.250093	44.508703
855.660818	44.487996
856.071511	44.468045
856.482171	44.418854
856.892799	44.387424
857.303394	44.333034
857.713956	44.261231
858.124486	44.203959
858.534984	44.146642
858.945449	44.075090
859.355881	44.001424
859.766280	43.936100
860.176647	43.842168
860.586982	43.770175
860.997283	43.679073
861.407552	43.579096
861.817789	43.455770
862.227992	43.336171
862.638163	43.228483
863.048301	43.117535
863.458406	42.973471
863.868478	42.833788
864.278518	42.683819
864.688524	42.510011
865.098498	42.336318
865.508439	42.152917
865.918347	41.950595
866.328222	41.722340
866.738064	41.486213
867.147873	41.237917
867.557649	40.967196
867.967392	40.700383
868.377102	40.423921
868.786779	40.118420
869.196423	39.814338
869.606034	39.494846
870.015612	39.179393
870.425156	38.858866
870.834668	38.533100
871.244146	38.183002
871.653591	37.847913
872.063003	37.516169
872.472382	37.181624
872.881728	36.858716
873.291040	36.536460
873.700319	36.224151
874.109564	35.910288
874.518777	35.605948
874.927956	35.302584
875.337102	35.002400
875.746214	34.709338
876.155293	34.434780
876.564338	34.155364
876.973350	33.880133
877.382329	33.649080
877.791274	33.385813
878.200186	33.120627
878.609064	32.896514
879.017909	32.685891
879.426720	32.478550
879.835497	32.260963
880.244241	32.063066
880.652952	31.872715
881.061629	31.685685
881.470272	31.524642
881.878881	31.364071
882.287457	31.217194
882.695999	31.088184
883.104507	30.966856
883.512982	30.825601
883.921423	30.723069
884.329830	30.624107
884.738203	30.518816
885.146543	30.408943
885.554849	30.315123
885.963120	30.198256
886.371358	30.093555
886.779563	29.995421
887.187733	29.902018
887.595869	29.809188
888.003971	29.703641
888.412040	29.608831
888.820074	29.516267
889.228074	29.421207
889.636041	29.318119
890.043973	29.207360
890.451871	29.112560
890.859736	29.030996
891.267566	28.923747
891.675362	28.817553
892.083124	28.707469
892.490851	28.609757
892.898545	28.515344
893.306204	28.403405
893.713829	28.311787
894.121420	28.205887
894.528977	28.086812
894.936499	27.949282
895.343987	27.817513
895.751441	27.657606
896.158860	27.523587
896.566246	27.357230
896.973596	27.189288
897.380913	27.020950
897.788195	26.857351
898.195442	26.669111
898.602655	26.498610
899.009834	26.317057
899.416978	26.118567
899.824088	25.911817
900.231163	25.716823
900.638204	25.518443
901.045210	25.301831
901.452181	25.071833
901.859118	24.872897
902.266021	24.671818
902.672888	24.476373
903.079721	24.270143
903.486520	24.060469
903.893283	23.862175
904.300012	23.662484
904.706707	23.462714
905.113366	23.268629
905.519991	23.058844
905.926581	22.868045
906.333136	22.669576
906.739656	22.462693
907.146142	22.275730
907.552592	22.086405
907.959008	21.894719
908.365389	21.717430
908.771735	21.524487
909.178046	21.348458
909.584322	21.161378
909.990563	20.988557
910.396769	20.801255
910.802940	20.636672
911.209076	20.470239
911.615177	20.302268
912.021243	20.137110
912.427274	19.967672
912.833270	19.797304
913.239231	19.639608
913.645156	19.488764
914.051046	19.342786
914.456902	19.176035
914.862721	19.013815
915.268506	18.863986
915.674256	18.730363
916.079970	18.585979
916.485649	18.450220
916.891292	18.322770
917.296901	18.206195
917.702474	18.080725
918.108011	17.973681
918.513514	17.876329
918.918980	17.770522
919.324412	17.684116
919.729808	17.570496
920.135169	17.503145
920.540494	17.433513
920.945783	17.380320
921.351037	17.325391
921.756256	17.288229
922.161439	17.245057
922.566586	17.210247
922.971698	17.193001
923.376775	17.175522
923.781815	17.168271
924.186820	17.164598
924.591790	17.169696
924.996723	17.200667
925.401621	17.229718
925.806484	17.258366
926.211310	17.301862
926.616101	17.334869
927.020856	17.376243
927.425575	17.426491
927.830259	17.469977
928.234906	17.521473
928.639518	17.572771
929.044094	17.624633
929.448634	17.674770
929.853138	17.715256
930.257606	17.780594
930.662038	17.838725
931.066434	17.887724
931.470795	17.953603
931.875119	18.003774
932.279407	18.083322
932.683659	18.122106
933.087875	18.163106
933.492055	18.198697
933.896199	18.239416
934.300307	18.268558
934.704379	18.317038
935.108414	18.351839
935.512414	18.390890
935.916377	18.414979
936.320304	18.423914
936.724195	18.459920
937.128049	18.495488
937.531867	18.512256
937.935649	18.520971
938.339395	18.533183
938.743104	18.520515
939.146777	18.537522
939.550414	18.537072
939.954014	18.542169
940.357578	18.561638
940.761105	18.568583
941.164596	18.568405
941.568050	18.567873
941.971468	18.574130
942.374850	18.578357
942.778195	18.561708
943.181503	18.556881
943.584775	18.531268
943.988010	18.502228
944.391209	18.487913
944.794371	18.462940
945.197496	18.453152
945.600585	18.444134
946.003637	18.434432
946.406653	18.451550
946.809632	18.438617
947.212574	18.423894
947.615479	18.409875
948.018347	18.396885
948.421179	18.381156
948.823974	18.372448
949.226732	18.329514
949.629453	18.295998
950.032138	18.277087
950.434785	18.265613
950.837396	18.242468
951.239969	18.233367
951.642506	18.204074
952.045006	18.203118
952.447469	18.179808
952.849895	18.149002
953.252283	18.113712
953.654635	18.056519
954.056950	18.025663
954.459227	17.982268
954.861468	17.949048
955.263671	17.904216
955.665838	17.888546
956.067967	17.889672
956.470059	17.838790
956.872114	17.798899
957.274131	17.763869
957.676112	17.723400
958.078055	17.700453
958.479961	17.663063
958.881829	17.588673
959.283661	17.532207
959.685455	17.483656
960.087211	17.444383
960.488931	17.367358
960.890613	17.317275
961.292257	17.232831
961.693864	17.181960
962.095434	17.123084
962.496966	17.062836
962.898461	16.991310
963.299918	16.930008
963.701338	16.871107
964.102720	16.788035
964.504065	16.720794
964.905372	16.672872
965.306641	16.614670
965.707873	16.540460
966.109068	16.509924
966.510224	16.434874
966.911343	16.403659
967.312425	16.367179
967.713468	16.341254
968.114474	16.269729
968.515442	16.192480
968.916373	16.160684
969.317265	16.117134
969.718120	16.090794
970.118937	16.074388
970.519716	16.000239
970.920458	15.945821
971.321161	15.951629
971.721827	15.953117
972.122454	15.911104
972.523044	15.883438
972.923596	15.891720
973.324110	15.882618
973.724585	15.900053
974.125023	15.916064
974.525423	15.923716
974.925785	15.949336
975.326108	15.947795
975.726394	15.924918
976.126642	15.936495
976.526851	15.987489
976.927022	15.988360
977.327155	16.000876
977.727250	15.959997
978.127307	15.997949
978.527325	16.056866
978.927306	16.096158
979.327248	16.132954
979.727151	16.159719
980.127017	16.225955
980.526844	16.261643
980.926633	16.346672
981.326383	16.404380
981.726095	16.487368
982.125769	16.529114
982.525404	16.563616
982.925001	16.679372
983.324560	16.761323
983.724079	16.817122
984.123561	16.873700
984.523004	16.994894
984.922408	17.087830
985.321774	17.147467
985.721102	17.286013
986.120390	17.406725
986.519641	17.490664
986.918852	17.565610
987.318025	17.684112
987.717159	17.810882
988.116255	17.992143
988.515312	18.024772
988.914330	18.149713
989.313310	18.271233
989.712250	18.485876
990.111152	18.661966
990.510015	18.812988
990.908840	18.961269
991.307625	19.092553
991.706372	19.236323
992.105080	19.431572
992.503749	19.543579
992.902379	19.727586
993.300970	19.900543
993.699522	20.189819
994.098035	20.386674
994.496510	20.661092
994.894945	20.943775
995.293341	21.072396
995.691698	21.400231
996.090016	21.545894
996.488296	21.762068
996.886535	22.028751
997.284736	22.297686
997.682898	22.524071
998.081021	22.827397
998.479104	23.038817
998.877148	23.316010
999.275153	23.631481
999.673119	23.780359
1000.071046	24.072173
1000.468933	24.348836
1000.866781	24.812774
1001.264590	25.160210
1001.662359	25.571141
1002.060089	25.829721
1002.457780	26.135905
1002.855431	26.420364
1003.253043	26.727603
1003.650615	27.133174
1004.048148	27.531840
1004.445642	27.951111
1004.843096	28.378138
1005.240511	28.824987
1005.637886	29.180058
1006.035221	29.452370
1006.432517	29.951995
1006.829774	30.376734
1007.226991	30.643560
1007.624168	31.163264
1008.021306	31.479228
1008.418404	32.005703
1008.815462	32.733007
1009.212481	33.195760
1009.609460	33.787295
1010.006399	34.346942
1010.403298	34.816060
1010.800158	35.380193
1011.196978	35.869624
1011.593758	36.509424
1011.990498	37.358212
1012.387199	38.159818
1012.783860	38.527490
1013.180480	39.244096
1013.577061	39.965640
1013.973602	40.867685
1014.370103	41.620452
1014.766564	42.257423
1015.162985	42.871035
1015.559366	43.385491
1015.955708	43.998998
1016.352009	44.487564
1016.748270	44.778629
1017.144491	45.456351
1017.540671	45.929987
1017.936812	46.405742
1018.332913	46.990245
1018.728973	47.265130
1019.124994	47.721433
1019.520974	48.627850
1019.916914	49.250468
1020.312814	49.957706
