Time1=100ms:Average1=5:Objective=10X:Aperture=1: (11/28/2018 9:45:45 AM)
11/28/2018 9:45:45 AM
Reflectance
10X
Ap#: 1
Avg1: 5.000000
Avg2: 0.000000
Int.Time1:100.000000

420.190645	0.300519
420.624620	0.289263
421.058582	0.280260
421.492531	0.269821
421.926468	0.266493
422.360391	0.259065
422.794301	0.256751
423.228199	0.256110
423.662083	0.250217
424.095955	0.255546
424.529813	0.253308
424.963658	0.256697
425.397491	0.251803
425.831310	0.244899
426.265116	0.242050
426.698909	0.234268
427.132689	0.227181
427.566455	0.230333
428.000209	0.226228
428.433949	0.223653
428.867676	0.230743
429.301389	0.235932
429.735090	0.246641
430.168777	0.248174
430.602451	0.250165
431.036111	0.252259
431.469759	0.260880
431.903392	0.258613
432.337013	0.258645
432.770620	0.265517
433.204213	0.277380
433.637794	0.300820
434.071360	0.312600
434.504914	0.322185
434.938453	0.331270
435.371979	0.340216
435.805492	0.350591
436.238991	0.364294
436.672477	0.376450
437.105949	0.395352
437.539407	0.418434
437.972852	0.438698
438.406283	0.464847
438.839700	0.484266
439.273104	0.508098
439.706494	0.528358
440.139871	0.557974
440.573233	0.583732
441.006582	0.608979
441.439917	0.636704
441.873238	0.671522
442.306546	0.698393
442.739839	0.727717
443.173119	0.746908
443.606385	0.768099
444.039636	0.789825
444.472874	0.815066
444.906099	0.834760
445.339309	0.860804
445.772505	0.891762
446.205687	0.916831
446.638855	0.935361
447.072009	0.956571
447.505149	0.978746
447.938275	1.003221
448.371387	1.027445
448.804485	1.051619
449.237569	1.076585
449.670638	1.099595
450.103694	1.121567
450.536735	1.136595
450.969762	1.148046
451.402774	1.165039
451.835773	1.181075
452.268757	1.198584
452.701727	1.210629
453.134683	1.221140
453.567624	1.227482
454.000551	1.231981
454.433464	1.236616
454.866362	1.233979
455.299246	1.226642
455.732116	1.213788
456.164971	1.200767
456.597811	1.191193
457.030638	1.177601
457.463449	1.159486
457.896246	1.140465
458.329029	1.121500
458.761797	1.099230
459.194551	1.076787
459.627290	1.054794
460.060014	1.033620
460.492724	1.009349
460.925419	0.987963
461.358099	0.965510
461.790765	0.947785
462.223416	0.926487
462.656052	0.904134
463.088674	0.880873
463.521281	0.859668
463.953873	0.844026
464.386450	0.832053
464.819012	0.819192
465.251560	0.806737
465.684093	0.799489
466.116611	0.796276
466.549114	0.798433
466.981602	0.808131
467.414075	0.819737
467.846533	0.836269
468.278977	0.854217
468.711405	0.872699
469.143818	0.891083
469.576216	0.911039
470.008600	0.930539
470.440968	0.947041
470.873321	0.962762
471.305659	0.976297
471.737982	0.990034
472.170289	1.002198
472.602582	1.009584
473.034859	1.016591
473.467122	1.020770
473.899369	1.028597
474.331600	1.034541
474.763817	1.042158
475.196018	1.050623
475.628204	1.056787
476.060375	1.064190
476.492530	1.076319
476.924670	1.088959
477.356795	1.103787
477.788904	1.118182
478.220998	1.134088
478.653076	1.150460
479.085139	1.168621
479.517186	1.188723
479.949219	1.208168
480.381235	1.231980
480.813236	1.253919
481.245221	1.273584
481.677191	1.297557
482.109146	1.322495
482.541084	1.346791
482.973008	1.366959
483.404915	1.392286
483.836807	1.410106
484.268683	1.433014
484.700544	1.457657
485.132388	1.480637
485.564217	1.506446
485.996031	1.531472
486.427828	1.556969
486.859610	1.582052
487.291376	1.606218
487.723126	1.632992
488.154860	1.659666
488.586579	1.685842
489.018281	1.712524
489.449968	1.742176
489.881639	1.771355
490.313293	1.801680
490.744932	1.836345
491.176555	1.870786
491.608162	1.901694
492.039753	1.939533
492.471328	1.971729
492.902886	1.999422
493.334429	2.030029
493.765956	2.054350
494.197466	2.073381
494.628960	2.092800
495.060439	2.110301
495.491901	2.122697
495.923347	2.131484
496.354776	2.141438
496.786190	2.151115
497.217587	2.165351
497.648968	2.166617
498.080332	2.166108
498.511681	2.161271
498.943013	2.154917
499.374328	2.142960
499.805628	2.126747
500.236911	2.110186
500.668177	2.089027
501.099427	2.068123
501.530661	2.046418
501.961878	2.021601
502.393079	1.999258
502.824264	1.971920
503.255431	1.947290
503.686583	1.923102
504.117717	1.901386
504.548835	1.878863
504.979937	1.859379
505.411022	1.843550
505.842090	1.830635
506.273142	1.822901
506.704177	1.815638
507.135195	1.813506
507.566197	1.819117
507.997182	1.827396
508.428150	1.841290
508.859102	1.853464
509.290036	1.869459
509.720954	1.885891
510.151855	1.895333
510.582739	1.903569
511.013607	1.915507
511.444457	1.924810
511.875291	1.931531
512.306107	1.934385
512.736907	1.936991
513.167690	1.937638
513.598456	1.933482
514.029205	1.934145
514.459936	1.936405
514.890651	1.939043
515.321349	1.947278
515.752030	1.961972
516.182693	1.977795
516.613340	1.996039
517.043969	2.019485
517.474582	2.040524
517.905177	2.067493
518.335755	2.098874
518.766315	2.130185
519.196859	2.164339
519.627385	2.199924
520.057894	2.239748
520.488386	2.284087
520.918860	2.333784
521.349318	2.394348
521.779757	2.460859
522.210180	2.540197
522.640585	2.629202
523.070973	2.726133
523.501343	2.834380
523.931696	2.950071
524.362031	3.074055
524.792349	3.200755
525.222650	3.325559
525.652933	3.456184
526.083198	3.580319
526.513446	3.697902
526.943677	3.808245
527.373890	3.905872
527.804085	3.993772
528.234262	4.073960
528.664422	4.142535
529.094565	4.197618
529.524689	4.244899
529.954796	4.283764
530.384885	4.311744
530.814957	4.334701
531.245011	4.347553
531.675047	4.352964
532.105065	4.353453
532.535065	4.353048
532.965048	4.346376
533.395013	4.337409
533.824959	4.318431
534.254888	4.291881
534.684799	4.263626
535.114693	4.234517
535.544568	4.200915
535.974425	4.163874
536.404264	4.124140
536.834086	4.081771
537.263889	4.039785
537.693674	3.993584
538.123441	3.953127
538.553190	3.914834
538.982921	3.876082
539.412634	3.839533
539.842329	3.807886
540.272006	3.780155
540.701664	3.756433
541.131304	3.740589
541.560926	3.725206
541.990530	3.712396
542.420116	3.710142
542.849683	3.707771
543.279232	3.708051
543.708763	3.711042
544.138275	3.712959
544.567769	3.713812
544.997245	3.711428
545.426702	3.707968
545.856141	3.691900
546.285562	3.670134
546.714964	3.643008
547.144347	3.608486
547.573713	3.570608
548.003059	3.520138
548.432387	3.463788
548.861697	3.394424
549.290988	3.329223
549.720260	3.259084
550.149514	3.188799
550.578750	3.120395
551.007966	3.051657
551.437164	2.982675
551.866344	2.921235
552.295504	2.858490
552.724646	2.805757
553.153769	2.753048
553.582874	2.703441
554.011960	2.653920
554.441027	2.603811
554.870075	2.556470
555.299104	2.511009
555.728115	2.465417
556.157106	2.420637
556.586079	2.373512
557.015033	2.321621
557.443968	2.271010
557.872884	2.225863
558.301781	2.174855
558.730659	2.127863
559.159518	2.089138
559.588358	2.056531
560.017180	2.030121
560.445982	2.014819
560.874765	2.017490
561.303528	2.033076
561.732273	2.065301
562.160999	2.115400
562.589705	2.176517
563.018393	2.253439
563.447061	2.339204
563.875710	2.433340
564.304340	2.530392
564.732950	2.629427
565.161542	2.728209
565.590114	2.818865
566.018666	2.897626
566.447200	2.967501
566.875714	3.021939
567.304208	3.066868
567.732684	3.094631
568.161140	3.106619
568.589576	3.102468
569.017993	3.082728
569.446391	3.049500
569.874769	3.000944
570.303128	2.943426
570.731467	2.871117
571.159787	2.789985
571.588087	2.709719
572.016368	2.620443
572.444629	2.531330
572.872870	2.445102
573.301092	2.364884
573.729294	2.298604
574.157476	2.246284
574.585639	2.210153
575.013782	2.189302
575.441906	2.189354
575.870009	2.207319
576.298093	2.235118
576.726157	2.272099
577.154202	2.313771
577.582226	2.358291
578.010231	2.396229
578.438216	2.426793
578.866181	2.451713
579.294126	2.466810
579.722051	2.472252
580.149957	2.467204
580.577842	2.450239
581.005707	2.423285
581.433553	2.387484
581.861378	2.342962
582.289184	2.292115
582.716969	2.231460
583.144734	2.172875
583.572479	2.107317
584.000205	2.053542
584.427910	1.998594
584.855594	1.951779
585.283259	1.921551
585.710904	1.904894
586.138528	1.908774
586.566132	1.937271
586.993716	1.985509
587.421280	2.051202
587.848823	2.138748
588.276346	2.238129
588.703849	2.351210
589.131332	2.467445
589.558794	2.583666
589.986236	2.699538
590.413657	2.807210
590.841058	2.902492
591.268438	2.989522
591.695799	3.068766
592.123138	3.126852
592.550458	3.170980
592.977756	3.200596
593.405034	3.210046
593.832292	3.200486
594.259529	3.175398
594.686746	3.139166
595.113942	3.083112
595.541117	3.008833
595.968272	2.921642
596.395406	2.817959
596.822519	2.704093
597.249612	2.580787
597.676684	2.450821
598.103735	2.317441
598.530766	2.187994
598.957775	2.064375
599.384764	1.959303
599.811733	1.872834
600.238680	1.818263
600.665606	1.791447
601.092512	1.795133
601.519397	1.831237
601.946261	1.883906
602.373104	1.954293
602.799926	2.035508
603.226727	2.121476
603.653507	2.205465
604.080266	2.288120
604.507004	2.362462
604.933721	2.429964
605.360417	2.481639
605.787092	2.517079
606.213746	2.538203
606.640379	2.542595
607.066991	2.529124
607.493581	2.500777
607.920150	2.458285
608.346699	2.400709
608.773226	2.330034
609.199731	2.246920
609.626216	2.161352
610.052679	2.070689
610.479121	1.980056
610.905542	1.904714
611.331941	1.845439
611.758319	1.803559
612.184676	1.794477
612.611011	1.818200
613.037325	1.874699
613.463617	1.961709
613.889888	2.073275
614.316138	2.211757
614.742366	2.357920
615.168573	2.518699
615.594758	2.682158
616.020921	2.845961
616.447063	3.006540
616.873184	3.161307
617.299283	3.307431
617.725360	3.443816
618.151416	3.571371
618.577450	3.687057
619.003462	3.784874
619.429453	3.872501
619.855422	3.945665
620.281369	4.006867
620.707295	4.053026
621.133199	4.091647
621.559081	4.116809
621.984941	4.135177
622.410779	4.145651
622.836596	4.147293
623.262391	4.146242
623.688163	4.140645
624.113914	4.134164
624.539644	4.129349
624.965351	4.120606
625.391036	4.111568
625.816699	4.101241
626.242340	4.097979
626.667960	4.091893
627.093557	4.089150
627.519132	4.083081
627.944685	4.077799
628.370216	4.074591
628.795725	4.068671
629.221212	4.062643
629.646677	4.055541
630.072119	4.047729
630.497540	4.042732
630.922938	4.038676
631.348314	4.033452
631.773668	4.028532
632.198999	4.024379
632.624308	4.021124
633.049595	4.016406
633.474860	4.010460
633.900102	4.005326
634.325322	4.003764
634.750520	4.001423
635.175695	3.995739
635.600848	3.995614
636.025978	3.993772
636.451086	3.989208
636.876171	3.983722
637.301234	3.973533
637.726275	3.959072
638.151293	3.942617
638.576288	3.920413
639.001261	3.891136
639.426211	3.855677
639.851139	3.814335
640.276044	3.767410
640.700927	3.716734
641.125787	3.662921
641.550624	3.607156
641.975438	3.551753
642.400230	3.496650
642.824999	3.446581
643.249745	3.396359
643.674469	3.357092
644.099169	3.323331
644.523847	3.298562
644.948502	3.283810
645.373135	3.278466
645.797744	3.281835
646.222330	3.293718
646.646894	3.310971
647.071435	3.335391
647.495953	3.360188
647.920447	3.388373
648.344919	3.412154
648.769368	3.433291
649.193794	3.450981
649.618197	3.462383
650.042576	3.469363
650.466933	3.470281
650.891267	3.465295
651.315577	3.453673
651.739864	3.441753
652.164129	3.427514
652.588370	3.412430
653.012587	3.397409
653.436782	3.386845
653.860953	3.381072
654.285102	3.380865
654.709226	3.386971
655.133328	3.403560
655.557406	3.430705
655.981461	3.464742
656.405493	3.512359
656.829501	3.567887
657.253486	3.632920
657.677448	3.708217
658.101386	3.791259
658.525301	3.881761
658.949192	3.978942
659.373060	4.082278
659.796904	4.191259
660.220725	4.303095
660.644522	4.415507
661.068296	4.525375
661.492046	4.637395
661.915772	4.745676
662.339475	4.852716
662.763154	4.950575
663.186810	5.039566
663.610442	5.122634
664.034050	5.200063
664.457635	5.270509
664.881196	5.330871
665.304733	5.385391
665.728247	5.435568
666.151736	5.475132
666.575202	5.510109
666.998644	5.538631
667.422062	5.564087
667.845457	5.586677
668.268827	5.599729
668.692174	5.609417
669.115496	5.618139
669.538795	5.621453
669.962070	5.619308
670.385321	5.614180
670.808547	5.603814
671.231750	5.588717
671.654929	5.572442
672.078084	5.551425
672.501214	5.526433
672.924321	5.493016
673.347404	5.458304
673.770462	5.417670
674.193496	5.375478
674.616506	5.331596
675.039492	5.285117
675.462454	5.233373
675.885391	5.183212
676.308305	5.130780
676.731194	5.080957
677.154058	5.026933
677.576899	4.970416
677.999715	4.916913
678.422507	4.863169
678.845274	4.806656
679.268017	4.753993
679.690736	4.700199
680.113430	4.647971
680.536100	4.596472
680.958746	4.544612
681.381367	4.497906
681.803963	4.448948
682.226535	4.403586
682.649083	4.359038
683.071605	4.317573
683.494104	4.274768
683.916578	4.237345
684.339027	4.204066
684.761451	4.173083
685.183851	4.145938
685.606227	4.121328
686.028577	4.106053
686.450903	4.091593
686.873204	4.083337
687.295481	4.080550
687.717733	4.081733
688.139959	4.085427
688.562162	4.093320
688.984339	4.103366
689.406492	4.118076
689.828619	4.133243
690.250722	4.153845
690.672800	4.177947
691.094853	4.201200
691.516881	4.222819
691.938884	4.246730
692.360863	4.272898
692.782816	4.300039
693.204744	4.327318
693.626647	4.353786
694.048526	4.381559
694.470379	4.407276
694.892207	4.436136
695.314010	4.462518
695.735788	4.488441
696.157540	4.513450
696.579268	4.539905
697.000970	4.562296
697.422648	4.583018
697.844300	4.603367
698.265926	4.621077
698.687528	4.635087
699.109104	4.645607
699.530655	4.652189
699.952181	4.656283
