Time1=100ms:Average1=5:Objective=10X:Aperture=1: (11/28/2018 9:49:41 AM)
11/28/2018 9:49:41 AM
Reflectance
10X
Ap#: 1
Avg1: 5.000000
Avg2: 0.000000
Int.Time1:100.000000

420.190645	0.758827
420.624620	0.747291
421.058582	0.732441
421.492531	0.713332
421.926468	0.699195
422.360391	0.691153
422.794301	0.676864
423.228199	0.663933
423.662083	0.654908
424.095955	0.642506
424.529813	0.644102
424.963658	0.657785
425.397491	0.649990
425.831310	0.643817
426.265116	0.635164
426.698909	0.626338
427.132689	0.613443
427.566455	0.597783
428.000209	0.584325
428.433949	0.573402
428.867676	0.560932
429.301389	0.556135
429.735090	0.552524
430.168777	0.553840
430.602451	0.550720
431.036111	0.543380
431.469759	0.529266
431.903392	0.515772
432.337013	0.508296
432.770620	0.499338
433.204213	0.485600
433.637794	0.473641
434.071360	0.466676
434.504914	0.460030
434.938453	0.458479
435.371979	0.452741
435.805492	0.448107
436.238991	0.441839
436.672477	0.430823
437.105949	0.423958
437.539407	0.420968
437.972852	0.409797
438.406283	0.392449
438.839700	0.383648
439.273104	0.371938
439.706494	0.362862
440.139871	0.344454
440.573233	0.341018
441.006582	0.334552
441.439917	0.331936
441.873238	0.326675
442.306546	0.320538
442.739839	0.309783
443.173119	0.305864
443.606385	0.293911
444.039636	0.286721
444.472874	0.281086
444.906099	0.272780
445.339309	0.273172
445.772505	0.261309
446.205687	0.252720
446.638855	0.251715
447.072009	0.244677
447.505149	0.239541
447.938275	0.230830
448.371387	0.220801
448.804485	0.219945
449.237569	0.217729
449.670638	0.219491
450.103694	0.215876
450.536735	0.215409
450.969762	0.210035
451.402774	0.211039
451.835773	0.220639
452.268757	0.223695
452.701727	0.225140
453.134683	0.233794
453.567624	0.240346
454.000551	0.244435
454.433464	0.248246
454.866362	0.252342
455.299246	0.265631
455.732116	0.270937
456.164971	0.275030
456.597811	0.278152
457.030638	0.288801
457.463449	0.296459
457.896246	0.309925
458.329029	0.327801
458.761797	0.348381
459.194551	0.361174
459.627290	0.380384
460.060014	0.394335
460.492724	0.417479
460.925419	0.441018
461.358099	0.460441
461.790765	0.480694
462.223416	0.504041
462.656052	0.528072
463.088674	0.544638
463.521281	0.560591
463.953873	0.575945
464.386450	0.596689
464.819012	0.614333
465.251560	0.628671
465.684093	0.645117
466.116611	0.658283
466.549114	0.674151
466.981602	0.687893
467.414075	0.699153
467.846533	0.720999
468.278977	0.742513
468.711405	0.749252
469.143818	0.766007
469.576216	0.783478
470.008600	0.800234
470.440968	0.808068
470.873321	0.817907
471.305659	0.822151
471.737982	0.825060
472.170289	0.824704
472.602582	0.827428
473.034859	0.825486
473.467122	0.827428
473.899369	0.824452
474.331600	0.815143
474.763817	0.808693
475.196018	0.793471
475.628204	0.780831
476.060375	0.762220
476.492530	0.744270
476.924670	0.723270
477.356795	0.703416
477.788904	0.676527
478.220998	0.648783
478.653076	0.617512
479.085139	0.586786
479.517186	0.559535
479.949219	0.533101
480.381235	0.515924
480.813236	0.501449
481.245221	0.486923
481.677191	0.473869
482.109146	0.472787
482.541084	0.471710
482.973008	0.472774
483.404915	0.477352
483.836807	0.479288
484.268683	0.485402
484.700544	0.490174
485.132388	0.499122
485.564217	0.509710
485.996031	0.520280
486.427828	0.532209
486.859610	0.553417
487.291376	0.582482
487.723126	0.608897
488.154860	0.641175
488.586579	0.674387
489.018281	0.706851
489.449968	0.740239
489.881639	0.768093
490.313293	0.792578
490.744932	0.814477
491.176555	0.828334
491.608162	0.836117
492.039753	0.836648
492.471328	0.833253
492.902886	0.825317
493.334429	0.811226
493.765956	0.794105
494.197466	0.775257
494.628960	0.756967
495.060439	0.738699
495.491901	0.724161
495.923347	0.714370
496.354776	0.711082
496.786190	0.712665
497.217587	0.724234
497.648968	0.740689
498.080332	0.761294
498.511681	0.787962
498.943013	0.817000
499.374328	0.846201
499.805628	0.877869
500.236911	0.905787
500.668177	0.932991
501.099427	0.957246
501.530661	0.976948
501.961878	0.990727
502.393079	1.003484
502.824264	1.011291
503.255431	1.022618
503.686583	1.033372
504.117717	1.042061
504.548835	1.055130
504.979937	1.071574
505.411022	1.090228
505.842090	1.108045
506.273142	1.131120
506.704177	1.156059
507.135195	1.189967
507.566197	1.222773
507.997182	1.254461
508.428150	1.285806
508.859102	1.310018
509.290036	1.332860
509.720954	1.352003
510.151855	1.364973
510.582739	1.377170
511.013607	1.386011
511.444457	1.392130
511.875291	1.399332
512.306107	1.404810
512.736907	1.410020
513.167690	1.418334
513.598456	1.426800
514.029205	1.442878
514.459936	1.455646
514.890651	1.476709
515.321349	1.495048
515.752030	1.527692
516.182693	1.559688
516.613340	1.597469
517.043969	1.632085
517.474582	1.672541
517.905177	1.708931
518.335755	1.745064
518.766315	1.782790
519.196859	1.817666
519.627385	1.846872
520.057894	1.874210
520.488386	1.888458
520.918860	1.898240
521.349318	1.902160
521.779757	1.898481
522.210180	1.888124
522.640585	1.870182
523.070973	1.847683
523.501343	1.818993
523.931696	1.783619
524.362031	1.737755
524.792349	1.685888
525.222650	1.631743
525.652933	1.571687
526.083198	1.514777
526.513446	1.452498
526.943677	1.390579
527.373890	1.329449
527.804085	1.279255
528.234262	1.226064
528.664422	1.188184
529.094565	1.149340
529.524689	1.120660
529.954796	1.098964
530.384885	1.090504
530.814957	1.090257
531.245011	1.100074
531.675047	1.119654
532.105065	1.144324
532.535065	1.183638
532.965048	1.230806
533.395013	1.292245
533.824959	1.362248
534.254888	1.443825
534.684799	1.534054
535.114693	1.632414
535.544568	1.739007
535.974425	1.848432
536.404264	1.961311
536.834086	2.073091
537.263889	2.184513
537.693674	2.292028
538.123441	2.402016
538.553190	2.497846
538.982921	2.589203
539.412634	2.672323
539.842329	2.745006
540.272006	2.807176
540.701664	2.856026
541.131304	2.888321
541.560926	2.910687
541.990530	2.915013
542.420116	2.908803
542.849683	2.889715
543.279232	2.856618
543.708763	2.809981
544.138275	2.750281
544.567769	2.679493
544.997245	2.604138
545.426702	2.519651
545.856141	2.427479
546.285562	2.335529
546.714964	2.239095
547.144347	2.146280
547.573713	2.054864
548.003059	1.966855
548.432387	1.880021
548.861697	1.800735
549.290988	1.730117
549.720260	1.663827
550.149514	1.610068
550.578750	1.562811
551.007966	1.532236
551.437164	1.501194
551.866344	1.487888
552.295504	1.479558
552.724646	1.484482
553.153769	1.500832
553.582874	1.525249
554.011960	1.560830
554.441027	1.602874
554.870075	1.651915
555.299104	1.711319
555.728115	1.777319
556.157106	1.852990
556.586079	1.932153
557.015033	2.011236
557.443968	2.097297
557.872884	2.185097
558.301781	2.272822
558.730659	2.356841
559.159518	2.434541
559.588358	2.509063
560.017180	2.578683
560.445982	2.639961
560.874765	2.686150
561.303528	2.722273
561.732273	2.751546
562.160999	2.768294
562.589705	2.771449
563.018393	2.765895
563.447061	2.742813
563.875710	2.705810
564.304340	2.657292
564.732950	2.599052
565.161542	2.526368
565.590114	2.444558
566.018666	2.351262
566.447200	2.253334
566.875714	2.149731
567.304208	2.044834
567.732684	1.942791
568.161140	1.838035
568.589576	1.736230
569.017993	1.639339
569.446391	1.549081
569.874769	1.466382
570.303128	1.391201
570.731467	1.324164
571.159787	1.263871
571.588087	1.211099
572.016368	1.159253
572.444629	1.118223
572.872870	1.077630
573.301092	1.035034
573.729294	0.991356
574.157476	0.947966
574.585639	0.901770
575.013782	0.859112
575.441906	0.824066
575.870009	0.797943
576.298093	0.787747
576.726157	0.803769
577.154202	0.843792
577.582226	0.902844
578.010231	0.984337
578.438216	1.087984
578.866181	1.203950
579.294126	1.331434
579.722051	1.466383
580.149957	1.605153
580.577842	1.746395
581.005707	1.887158
581.433553	2.028083
581.861378	2.167089
582.289184	2.296960
582.716969	2.424382
583.144734	2.544073
583.572479	2.653466
584.000205	2.752907
584.427910	2.837622
584.855594	2.910050
585.283259	2.967564
585.710904	3.010267
586.138528	3.033754
586.566132	3.045729
586.993716	3.038818
587.421280	3.018293
587.848823	2.983571
588.276346	2.937405
588.703849	2.879723
589.131332	2.810259
589.558794	2.732235
589.986236	2.648905
590.413657	2.557387
590.841058	2.466204
591.268438	2.375236
591.695799	2.279366
592.123138	2.184427
592.550458	2.094537
592.977756	2.006060
593.405034	1.926024
593.832292	1.851713
594.259529	1.790351
594.686746	1.736415
595.113942	1.694397
595.541117	1.663703
595.968272	1.642834
596.395406	1.632883
596.822519	1.628721
597.249612	1.629476
597.676684	1.637643
598.103735	1.642337
598.530766	1.647128
598.957775	1.652011
599.384764	1.651688
599.811733	1.646198
600.238680	1.632605
600.665606	1.612992
601.092512	1.589609
601.519397	1.559593
601.946261	1.533218
602.373104	1.503640
602.799926	1.473879
603.226727	1.452597
603.653507	1.434071
604.080266	1.430747
604.507004	1.440071
604.933721	1.465607
605.360417	1.505620
605.787092	1.562528
606.213746	1.633489
606.640379	1.718217
607.066991	1.815439
607.493581	1.920788
607.920150	2.034389
608.346699	2.156690
608.773226	2.281196
609.199731	2.405347
609.626216	2.529032
610.052679	2.651794
610.479121	2.771788
610.905542	2.883539
611.331941	2.992074
611.758319	3.095634
612.184676	3.191682
612.611011	3.277693
613.037325	3.358444
613.463617	3.425584
613.889888	3.487364
614.316138	3.539893
614.742366	3.586213
615.168573	3.619840
615.594758	3.649518
616.020921	3.673700
616.447063	3.691913
616.873184	3.699261
617.299283	3.702428
617.725360	3.701066
618.151416	3.696405
618.577450	3.688612
619.003462	3.676662
619.429453	3.660714
619.855422	3.639045
620.281369	3.613072
620.707295	3.581781
621.133199	3.549678
621.559081	3.510518
621.984941	3.463996
622.410779	3.416421
622.836596	3.366036
623.262391	3.308176
623.688163	3.246384
624.113914	3.183962
624.539644	3.118086
624.965351	3.053225
625.391036	2.987325
625.816699	2.928866
626.242340	2.869323
626.667960	2.817149
627.093557	2.767529
627.519132	2.725122
627.944685	2.685474
628.370216	2.655183
628.795725	2.629140
629.221212	2.602882
629.646677	2.583991
630.072119	2.566880
630.497540	2.548389
630.922938	2.534207
631.348314	2.514005
631.773668	2.492271
632.198999	2.471946
632.624308	2.449002
633.049595	2.423958
633.474860	2.397474
633.900102	2.371021
634.325322	2.341832
634.750520	2.314848
635.175695	2.289848
635.600848	2.267645
636.025978	2.249031
636.451086	2.239462
636.876171	2.237504
637.301234	2.243479
637.726275	2.259133
638.151293	2.284387
638.576288	2.321751
639.001261	2.369273
639.426211	2.432431
639.851139	2.507255
640.276044	2.594711
640.700927	2.698621
641.125787	2.816186
641.550624	2.941741
641.975438	3.076229
642.400230	3.225868
642.824999	3.381215
643.249745	3.539841
643.674469	3.704821
644.099169	3.869869
644.523847	4.036479
644.948502	4.200268
645.373135	4.360465
645.797744	4.516729
646.222330	4.666764
646.646894	4.808077
647.071435	4.940539
647.495953	5.065240
647.920447	5.177129
648.344919	5.277989
648.769368	5.368902
649.193794	5.451355
649.618197	5.524263
650.042576	5.592623
650.466933	5.647264
650.891267	5.694196
651.315577	5.736064
651.739864	5.769738
652.164129	5.798635
652.588370	5.820931
653.012587	5.837344
653.436782	5.850781
653.860953	5.858334
654.285102	5.860371
654.709226	5.860593
655.133328	5.860126
655.557406	5.856538
655.981461	5.851923
656.405493	5.849813
656.829501	5.846986
657.253486	5.843288
657.677448	5.839898
658.101386	5.839672
658.525301	5.840102
658.949192	5.844338
659.373060	5.849511
659.796904	5.857113
660.220725	5.865647
660.644522	5.877742
661.068296	5.890521
661.492046	5.906929
661.915772	5.923172
662.339475	5.945431
662.763154	5.965797
663.186810	5.985700
663.610442	6.008531
664.034050	6.037576
664.457635	6.067330
664.881196	6.100457
665.304733	6.131649
665.728247	6.170445
666.151736	6.211565
666.575202	6.255708
666.998644	6.301607
667.422062	6.349805
667.845457	6.399057
668.268827	6.448020
668.692174	6.497033
669.115496	6.545276
669.538795	6.589514
669.962070	6.627771
670.385321	6.662665
670.808547	6.691521
671.231750	6.711446
671.654929	6.724353
672.078084	6.727903
672.501214	6.725633
672.924321	6.717101
673.347404	6.699193
673.770462	6.672413
674.193496	6.641763
674.616506	6.604046
675.039492	6.564358
675.462454	6.516611
675.885391	6.470440
676.308305	6.421508
676.731194	6.374039
677.154058	6.325159
677.576899	6.277094
677.999715	6.226782
678.422507	6.182379
678.845274	6.135860
679.268017	6.089009
679.690736	6.041974
680.113430	5.995953
680.536100	5.948695
680.958746	5.904162
681.381367	5.858941
681.803963	5.813444
682.226535	5.767666
682.649083	5.724352
683.071605	5.685055
683.494104	5.645421
683.916578	5.610201
684.339027	5.577367
684.761451	5.551868
685.183851	5.528682
685.606227	5.510570
686.028577	5.496621
686.450903	5.493863
686.873204	5.495725
687.295481	5.503628
687.717733	5.520150
688.139959	5.544667
688.562162	5.576107
688.984339	5.610240
689.406492	5.651221
689.828619	5.696620
690.250722	5.742957
690.672800	5.792677
691.094853	5.850383
691.516881	5.907816
691.938884	5.966982
692.360863	6.028736
692.782816	6.097975
693.204744	6.167772
693.626647	6.245840
694.048526	6.324778
694.470379	6.411691
694.892207	6.499580
695.314010	6.594595
695.735788	6.695477
696.157540	6.799169
696.579268	6.910100
697.000970	7.025100
697.422648	7.145321
697.844300	7.267569
698.265926	7.394077
698.687528	7.519825
699.109104	7.646890
699.530655	7.770626
699.952181	7.894550
