Time1=100ms:Average1=5:Objective=10X:Aperture=1: (11/28/2018 9:54:14 AM)
11/28/2018 9:54:14 AM
Reflectance
10X
Ap#: 1
Avg1: 5.000000
Avg2: 0.000000
Int.Time1:100.000000

350.166136	62.866998
350.601937	63.238227
351.037728	63.913856
351.473509	63.591888
351.909281	64.076717
352.345042	63.807475
352.780794	64.119601
353.216536	64.236923
353.652267	64.124065
354.087989	63.770995
354.523701	63.977334
354.959403	63.952441
355.395095	63.928828
355.830777	63.611086
356.266449	63.913744
356.702110	63.812254
357.137762	64.019027
357.573404	64.144531
358.009035	63.978927
358.444656	64.172174
358.880268	64.295290
359.315869	64.334791
359.751459	64.185468
360.187040	64.057351
360.622610	63.877822
361.058170	64.061120
361.493720	64.236418
361.929260	64.104603
362.364789	64.124569
362.800308	63.954211
363.235816	64.208649
363.671314	64.319458
364.106802	64.268585
364.542279	63.955032
364.977746	64.008144
365.413203	63.995385
365.848649	64.006399
366.284084	63.571935
366.719509	63.547758
367.154924	63.363709
367.590328	63.727224
368.025721	63.504425
368.461104	63.352723
368.896477	63.190888
369.331838	63.169505
369.767189	63.183550
370.202530	62.906360
370.637859	62.711119
371.073178	62.513163
371.508486	62.608467
371.943784	62.734608
372.379071	62.687221
372.814347	62.741313
373.249612	62.829294
373.684866	62.605960
374.120110	62.777681
374.555343	62.406015
374.990565	62.495631
375.425776	62.204039
375.860976	62.186192
376.296165	62.077651
376.731343	62.088388
377.166511	61.872679
377.601667	62.164734
378.036812	62.229531
378.471946	62.527045
378.907070	62.559447
379.342182	62.802350
379.777283	63.288288
380.212373	63.426247
380.647452	63.335351
381.082520	63.145641
381.517576	62.952430
381.952622	63.049676
382.387656	63.077320
382.822679	63.161068
383.257691	63.217011
383.692692	63.189346
384.127681	63.401489
384.562659	63.230769
384.997626	62.976839
385.432581	62.882208
385.867525	62.731699
386.302458	62.656663
386.737379	62.527622
387.172289	62.234855
387.607188	61.932972
388.042075	61.996113
388.476951	62.114799
388.911815	62.231650
389.346668	61.928077
389.781509	62.060811
390.216338	61.652614
390.651157	61.690117
391.085963	61.695487
391.520758	61.701769
391.955541	61.175879
392.390313	61.206173
392.825073	60.950707
393.259821	60.633409
393.694558	60.005003
394.129283	59.838589
394.563996	60.044996
394.998698	60.264295
395.433388	60.291741
395.868066	60.066266
396.302732	60.061089
396.737386	59.710752
397.172029	59.573858
397.606659	59.074806
398.041278	58.666181
398.475885	58.257010
398.910480	57.665429
399.345063	57.336325
399.779634	56.924331
400.214194	55.890766
400.648741	55.200508
401.083276	54.039058
401.517799	52.938876
401.952310	51.426016
402.386809	49.756679
402.821296	48.121208
403.255771	46.232555
403.690234	44.414427
404.124684	42.327640
404.559123	40.239888
404.993549	38.263119
405.427963	36.197350
405.862365	34.140937
406.296754	32.286420
406.731131	30.449326
407.165496	28.975503
407.599849	27.519289
408.034190	25.992602
408.468518	24.586657
408.902833	23.311957
409.337137	22.069533
409.771428	20.999677
410.205706	20.001400
410.639973	19.027522
411.074226	18.186480
411.508467	17.448785
411.942696	16.802340
412.376912	16.182191
412.811116	15.620304
413.245307	15.086840
413.679486	14.709757
414.113652	14.299776
414.547805	13.964321
414.981946	13.602566
415.416074	13.268631
415.850190	13.026791
416.284293	12.759222
416.718383	12.571424
417.152460	12.381429
417.586525	12.218231
418.020577	12.042908
418.454616	11.907011
418.888643	11.825420
419.322656	11.722797
419.756657	11.606201
420.190645	11.546809
420.624620	11.445039
421.058582	11.366833
421.492531	11.278322
421.926468	11.199020
422.360391	11.152343
422.794301	11.176310
423.228199	11.173465
423.662083	11.188199
424.095955	11.249831
424.529813	11.308968
424.963658	11.381024
425.397491	11.462830
425.831310	11.517615
426.265116	11.576138
426.698909	11.625328
427.132689	11.686817
427.566455	11.773165
428.000209	11.866581
428.433949	11.962895
428.867676	12.079503
429.301389	12.196786
429.735090	12.310007
430.168777	12.402875
430.602451	12.488113
431.036111	12.572581
431.469759	12.656939
431.903392	12.727535
432.337013	12.808081
432.770620	12.915802
433.204213	13.042234
433.637794	13.152204
434.071360	13.297679
434.504914	13.461375
434.938453	13.655251
435.371979	13.864676
435.805492	14.082779
436.238991	14.280366
436.672477	14.477805
437.105949	14.662077
437.539407	14.821012
437.972852	15.005306
438.406283	15.167002
438.839700	15.323509
439.273104	15.501297
439.706494	15.679448
440.139871	15.899797
440.573233	16.123537
441.006582	16.338856
441.439917	16.557195
441.873238	16.738806
442.306546	16.900045
442.739839	17.039751
443.173119	17.180953
443.606385	17.314040
444.039636	17.446868
444.472874	17.582854
444.906099	17.756068
445.339309	17.939996
445.772505	18.112001
446.205687	18.308913
446.638855	18.515701
447.072009	18.742572
447.505149	18.982131
447.938275	19.205551
448.371387	19.430258
448.804485	19.632984
449.237569	19.835786
449.670638	20.024946
450.103694	20.208199
450.536735	20.381318
450.969762	20.553704
451.402774	20.729494
451.835773	20.934420
452.268757	21.136882
452.701727	21.373983
453.134683	21.610622
453.567624	21.806732
454.000551	22.005488
454.433464	22.190950
454.866362	22.357821
455.299246	22.538230
455.732116	22.707907
456.164971	22.858251
456.597811	23.007066
457.030638	23.160073
457.463449	23.325488
457.896246	23.487033
458.329029	23.646954
458.761797	23.815663
459.194551	23.997207
459.627290	24.166125
460.060014	24.348481
460.492724	24.535563
460.925419	24.724713
461.358099	24.919961
461.790765	25.124132
462.223416	25.330030
462.656052	25.511647
463.088674	25.664374
463.521281	25.814705
463.953873	25.975010
464.386450	26.140566
464.819012	26.299773
465.251560	26.451263
465.684093	26.623267
466.116611	26.796104
466.549114	26.977968
466.981602	27.177372
467.414075	27.379309
467.846533	27.548686
468.278977	27.732427
468.711405	27.900877
469.143818	28.065015
469.576216	28.214712
470.008600	28.352549
470.440968	28.475048
470.873321	28.592835
471.305659	28.684629
471.737982	28.780218
472.170289	28.872799
472.602582	28.942113
473.034859	29.034861
473.467122	29.115159
473.899369	29.211445
474.331600	29.304219
474.763817	29.407786
475.196018	29.520925
475.628204	29.644775
476.060375	29.785289
476.492530	29.942307
476.924670	30.098305
477.356795	30.228664
477.788904	30.332630
478.220998	30.416016
478.653076	30.479127
479.085139	30.529801
479.517186	30.560217
479.949219	30.590627
480.381235	30.642712
480.813236	30.687389
481.245221	30.786884
481.677191	30.861825
482.109146	30.966342
482.541084	31.075626
482.973008	31.182525
483.404915	31.266966
483.836807	31.317846
484.268683	31.343659
484.700544	31.370669
485.132388	31.362168
485.564217	31.300844
485.996031	31.250738
486.427828	31.167342
486.859610	31.088836
487.291376	30.989954
487.723126	30.879283
488.154860	30.786983
488.586579	30.695179
489.018281	30.611058
489.449968	30.556853
489.881639	30.526465
490.313293	30.537279
490.744932	30.573110
491.176555	30.642549
491.608162	30.718284
492.039753	30.799683
492.471328	30.862520
492.902886	30.907475
493.334429	30.916393
493.765956	30.899598
494.197466	30.883674
494.628960	30.862038
495.060439	30.867415
495.491901	30.890021
495.923347	30.935441
496.354776	31.039313
496.786190	31.206454
497.217587	31.420725
497.648968	31.665302
498.080332	31.929610
498.511681	32.195775
498.943013	32.488026
499.374328	32.762840
499.805628	33.027285
500.236911	33.264431
500.668177	33.486764
501.099427	33.715289
501.530661	33.902484
501.961878	34.083101
502.393079	34.260571
502.824264	34.415106
503.255431	34.576882
503.686583	34.723315
504.117717	34.887773
504.548835	35.078898
504.979937	35.319157
505.411022	35.593958
505.842090	35.932555
506.273142	36.314595
506.704177	36.748061
507.135195	37.204278
507.566197	37.676058
507.997182	38.145092
508.428150	38.589692
508.859102	39.002822
509.290036	39.376896
509.720954	39.717306
510.151855	40.007297
510.582739	40.270888
511.013607	40.545165
511.444457	40.820656
511.875291	41.133512
512.306107	41.491279
512.736907	41.900359
513.167690	42.359648
513.598456	42.858301
514.029205	43.382137
514.459936	43.909046
514.890651	44.441331
515.321349	44.946501
515.752030	45.425714
516.182693	45.875278
516.613340	46.260153
517.043969	46.600417
517.474582	46.897718
517.905177	47.125662
518.335755	47.295246
518.766315	47.414126
519.196859	47.473544
519.627385	47.499241
520.057894	47.483919
520.488386	47.463627
520.918860	47.430651
521.349318	47.408628
521.779757	47.410704
522.210180	47.449888
522.640585	47.544515
523.070973	47.671178
523.501343	47.843569
523.931696	48.057002
524.362031	48.278305
524.792349	48.498511
525.222650	48.680824
525.652933	48.829341
526.083198	48.925801
526.513446	48.956648
526.943677	48.941680
527.373890	48.876427
527.804085	48.784781
528.234262	48.661721
528.664422	48.547049
529.094565	48.437476
529.524689	48.361974
529.954796	48.327160
530.384885	48.347153
530.814957	48.395838
531.245011	48.484014
531.675047	48.604862
532.105065	48.749541
532.535065	48.910069
532.965048	49.047875
533.395013	49.182991
533.824959	49.283142
534.254888	49.348684
534.684799	49.344462
535.114693	49.302516
535.544568	49.208246
535.974425	49.039739
536.404264	48.827262
536.834086	48.561613
537.263889	48.238865
537.693674	47.881420
538.123441	47.511456
538.553190	47.138375
538.982921	46.762887
539.412634	46.393569
539.842329	46.070225
540.272006	45.766660
540.701664	45.506359
541.131304	45.288112
541.560926	45.126717
541.990530	44.996399
542.420116	44.903804
542.849683	44.819020
543.279232	44.745658
543.708763	44.662682
544.138275	44.575758
544.567769	44.473379
544.997245	44.353924
545.426702	44.205857
545.856141	44.041966
546.285562	43.877770
546.714964	43.711864
547.144347	43.557306
547.573713	43.413144
548.003059	43.320868
548.432387	43.258781
548.861697	43.234936
549.290988	43.279696
549.720260	43.370295
550.149514	43.515498
550.578750	43.726522
551.007966	43.979300
551.437164	44.261850
551.866344	44.588761
552.295504	44.924607
552.724646	45.284713
553.153769	45.621893
553.582874	45.945149
554.011960	46.235714
554.441027	46.478338
554.870075	46.667396
555.299104	46.803883
555.728115	46.865885
556.157106	46.879433
556.586079	46.843318
557.015033	46.772782
557.443968	46.666559
557.872884	46.541820
558.301781	46.396970
558.730659	46.255849
559.159518	46.110170
559.588358	45.973000
560.017180	45.829767
560.445982	45.693929
560.874765	45.577166
561.303528	45.462193
561.732273	45.344022
562.160999	45.216065
562.589705	45.057519
563.018393	44.891204
563.447061	44.701154
563.875710	44.486869
564.304340	44.245827
564.732950	43.968784
565.161542	43.661695
565.590114	43.342298
566.018666	42.979811
566.447200	42.598066
566.875714	42.200755
567.304208	41.795852
567.732684	41.380850
568.161140	40.967965
568.589576	40.554044
569.017993	40.174654
569.446391	39.811445
569.874769	39.478969
570.303128	39.163272
570.731467	38.891305
571.159787	38.661135
571.588087	38.474601
572.016368	38.324011
572.444629	38.211757
572.872870	38.138237
573.301092	38.102434
573.729294	38.097371
574.157476	38.091684
574.585639	38.091209
575.013782	38.092828
575.441906	38.091169
575.870009	38.093918
576.298093	38.067701
576.726157	38.038964
577.154202	37.993570
577.582226	37.946517
578.010231	37.907257
578.438216	37.870098
578.866181	37.846314
579.294126	37.839735
579.722051	37.862050
580.149957	37.905198
580.577842	37.975075
581.005707	38.075301
581.433553	38.187555
581.861378	38.326837
582.289184	38.464858
582.716969	38.614730
583.144734	38.774629
583.572479	38.948948
584.000205	39.112179
584.427910	39.274141
584.855594	39.415951
585.283259	39.550979
585.710904	39.674965
586.138528	39.792360
586.566132	39.889171
586.993716	39.952757
587.421280	40.004067
587.848823	40.035922
588.276346	40.034511
588.703849	40.010820
589.131332	39.954225
589.558794	39.881873
589.986236	39.768019
590.413657	39.631734
590.841058	39.465183
591.268438	39.277235
591.695799	39.078616
592.123138	38.856582
592.550458	38.636424
592.977756	38.409475
593.405034	38.191810
593.832292	37.969299
594.259529	37.753253
594.686746	37.544026
595.113942	37.343245
595.541117	37.159510
595.968272	36.981674
596.395406	36.801308
596.822519	36.609906
597.249612	36.418061
597.676684	36.197369
598.103735	35.973303
598.530766	35.719378
598.957775	35.457885
599.384764	35.170836
599.811733	34.881735
600.238680	34.598368
600.665606	34.316448
601.092512	34.042418
601.519397	33.792480
601.946261	33.571094
602.373104	33.385859
602.799926	33.229141
603.226727	33.124800
603.653507	33.056572
604.080266	33.027101
604.507004	33.034646
604.933721	33.069913
605.360417	33.137381
605.787092	33.224125
606.213746	33.328160
606.640379	33.441774
607.066991	33.572282
607.493581	33.716245
607.920150	33.879301
608.346699	34.050149
608.773226	34.233852
609.199731	34.420741
609.626216	34.620266
610.052679	34.836524
610.479121	35.058654
610.905542	35.299456
611.331941	35.543246
611.758319	35.809981
612.184676	36.065440
612.611011	36.314691
613.037325	36.550235
613.463617	36.775380
613.889888	36.982794
614.316138	37.168910
614.742366	37.328327
615.168573	37.459442
615.594758	37.555376
616.020921	37.632333
616.447063	37.673260
616.873184	37.690720
617.299283	37.691298
617.725360	37.676212
618.151416	37.647001
618.577450	37.603886
619.003462	37.559480
619.429453	37.513303
619.855422	37.467563
620.281369	37.419218
620.707295	37.360326
621.133199	37.294502
621.559081	37.218231
621.984941	37.119118
622.410779	37.007539
622.836596	36.872763
623.262391	36.711171
623.688163	36.528475
624.113914	36.327302
624.539644	36.106803
624.965351	35.868849
625.391036	35.619722
625.816699	35.376315
626.242340	35.139612
626.667960	34.901517
627.093557	34.673645
627.519132	34.454749
627.944685	34.260642
628.370216	34.085240
628.795725	33.930990
629.221212	33.796902
629.646677	33.681125
630.072119	33.576722
630.497540	33.489948
630.922938	33.410723
631.348314	33.338835
631.773668	33.276220
632.198999	33.212612
632.624308	33.151743
633.049595	33.098602
633.474860	33.047245
633.900102	33.006127
634.325322	32.970345
634.750520	32.957762
635.175695	32.958333
635.600848	32.985166
636.025978	33.032158
636.451086	33.112480
636.876171	33.221855
637.301234	33.360095
637.726275	33.533930
638.151293	33.734756
638.576288	33.969323
639.001261	34.217731
639.426211	34.477076
639.851139	34.755711
640.276044	35.047399
640.700927	35.339444
641.125787	35.639071
641.550624	35.927968
641.975438	36.211117
642.400230	36.473029
642.824999	36.728671
643.249745	36.968846
643.674469	37.186966
644.099169	37.399994
644.523847	37.594177
644.948502	37.785003
645.373135	37.966570
645.797744	38.137057
646.222330	38.293763
646.646894	38.444835
647.071435	38.589418
647.495953	38.721945
647.920447	38.835346
648.344919	38.935951
648.769368	39.017676
649.193794	39.081719
649.618197	39.114878
650.042576	39.128066
650.466933	39.109421
650.891267	39.064563
651.315577	39.002223
651.739864	38.910992
652.164129	38.803000
652.588370	38.678136
653.012587	38.526963
653.436782	38.358554
653.860953	38.188312
654.285102	37.997414
654.709226	37.806014
655.133328	37.616418
655.557406	37.424658
655.981461	37.234074
656.405493	37.051610
656.829501	36.868826
657.253486	36.682871
657.677448	36.497659
658.101386	36.307552
658.525301	36.115369
658.949192	35.922868
659.373060	35.721751
659.796904	35.520537
660.220725	35.317232
660.644522	35.121282
661.068296	34.916833
661.492046	34.717072
661.915772	34.531275
662.339475	34.352449
662.763154	34.186039
663.186810	34.035355
663.610442	33.906256
664.034050	33.794560
664.457635	33.706220
664.881196	33.652050
665.304733	33.622168
665.728247	33.624226
666.151736	33.663392
666.575202	33.733292
666.998644	33.835073
667.422062	33.962993
667.845457	34.113391
668.268827	34.272767
668.692174	34.457142
669.115496	34.646017
669.538795	34.842308
669.962070	35.045873
670.385321	35.247899
670.808547	35.442069
671.231750	35.626672
671.654929	35.795621
672.078084	35.952864
672.501214	36.092111
672.924321	36.211571
673.347404	36.310321
673.770462	36.384057
674.193496	36.456004
674.616506	36.519347
675.039492	36.558399
675.462454	36.593041
675.885391	36.626871
676.308305	36.654954
676.731194	36.683396
677.154058	36.717813
677.576899	36.743892
677.999715	36.776508
678.422507	36.808330
678.845274	36.837323
679.268017	36.872569
679.690736	36.897388
680.113430	36.919786
680.536100	36.944595
680.958746	36.970533
681.381367	36.991521
681.803963	37.008551
682.226535	37.028776
682.649083	37.044663
683.071605	37.057300
683.494104	37.072126
683.916578	37.088495
684.339027	37.103602
684.761451	37.123198
685.183851	37.135134
685.606227	37.155503
686.028577	37.179071
686.450903	37.195818
686.873204	37.218080
687.295481	37.226970
687.717733	37.228333
688.139959	37.223781
688.562162	37.209807
688.984339	37.181121
689.406492	37.137830
689.828619	37.082313
690.250722	37.008018
690.672800	36.923495
691.094853	36.811418
691.516881	36.687834
691.938884	36.556243
692.360863	36.401585
692.782816	36.248796
693.204744	36.095655
693.626647	35.935482
694.048526	35.782358
694.470379	35.650260
694.892207	35.533113
695.314010	35.428244
695.735788	35.355186
696.157540	35.308532
696.579268	35.293368
697.000970	35.317327
697.422648	35.383411
697.844300	35.486490
698.265926	35.641041
698.687528	35.822348
699.109104	36.044079
699.530655	36.306974
699.952181	36.600271
700.373681	36.929801
700.795156	37.286272
701.216606	37.662464
701.638030	38.057132
702.059429	38.464980
702.480803	38.879654
702.902151	39.291328
703.323473	39.698057
703.744770	40.088586
704.166042	40.461538
704.587288	40.825262
705.008509	41.156700
705.429704	41.479464
705.850873	41.772201
706.272017	42.033261
706.693135	42.275354
707.114228	42.486343
707.535295	42.674925
707.956336	42.833416
708.377352	42.968224
708.798342	43.081669
709.219306	43.175543
709.640245	43.244369
710.061157	43.289840
710.482044	43.316610
710.902905	43.321453
711.323741	43.304327
711.744550	43.283277
712.165334	43.242110
712.586092	43.189985
713.006823	43.124310
713.427529	43.044103
713.848209	42.953162
714.268863	42.859784
714.689492	42.757239
715.110094	42.649896
715.530670	42.553139
715.951220	42.453781
716.371744	42.359376
716.792242	42.275797
717.212714	42.202239
717.633159	42.132740
718.053579	42.077077
718.473973	42.021615
718.894340	41.978558
719.314681	41.938886
719.734996	41.904674
720.155285	41.872717
720.575547	41.835434
720.995784	41.796201
721.415994	41.749818
721.836177	41.682724
722.256335	41.600928
722.676466	41.502172
723.096570	41.388748
723.516649	41.242311
723.936701	41.085620
724.356726	40.901165
724.776725	40.694880
725.196698	40.466482
725.616644	40.210751
726.036564	39.940714
726.456457	39.653050
726.876324	39.356737
727.296164	39.057142
727.715977	38.749496
728.135764	38.445570
728.555525	38.134432
728.975258	37.839702
729.394966	37.560830
729.814646	37.296459
730.234300	37.055747
730.653927	36.828666
731.073527	36.639631
731.493101	36.481977
731.912648	36.354741
732.332168	36.268540
732.751661	36.220612
733.171128	36.211686
733.590568	36.241055
734.009980	36.305288
734.429366	36.412289
734.848726	36.556912
735.268058	36.741727
735.687363	36.965189
736.106641	37.216535
736.525893	37.504228
736.945117	37.815508
737.364314	38.150627
737.783485	38.504812
738.202628	38.875046
738.621744	39.262383
739.040834	39.653636
739.459896	40.051486
739.878931	40.449165
740.297939	40.828618
740.716919	41.211373
741.135873	41.578599
741.554799	41.931301
741.973698	42.257856
742.392570	42.562939
742.811415	42.841873
743.230232	43.087426
743.649022	43.320183
744.067785	43.516566
744.486521	43.680399
744.905229	43.820590
745.323909	43.927618
745.742563	44.003491
746.161189	44.051044
746.579787	44.072105
746.998358	44.081907
747.416902	44.079485
747.835418	44.060384
748.253907	44.030191
748.672368	43.983667
749.090802	43.938550
749.509208	43.887806
749.927586	43.838235
750.345937	43.794640
750.764261	43.766115
751.182556	43.744310
751.600824	43.745249
752.019065	43.765078
752.437277	43.798258
752.855462	43.853003
753.273620	43.940587
753.691749	44.036426
754.109851	44.161960
754.527925	44.304940
754.945971	44.473293
755.363989	44.662805
755.781980	44.866582
756.199943	45.091059
756.617877	45.320945
757.035784	45.556789
757.453663	45.796497
757.871514	46.035952
758.289337	46.269983
758.707132	46.487945
759.124899	46.692590
759.542639	46.875687
759.960350	47.034560
760.378033	47.157977
760.795688	47.260089
761.213314	47.328221
761.630913	47.367105
762.048484	47.367515
762.466026	47.338422
762.883541	47.272993
763.301027	47.176146
763.718485	47.040218
764.135914	46.882282
764.553316	46.690418
764.970689	46.468502
765.388034	46.239923
765.805351	45.994580
766.222639	45.727318
766.639899	45.460044
767.057131	45.168934
767.474334	44.889289
767.891509	44.609357
768.308655	44.329562
768.725773	44.060006
769.142863	43.806536
769.559924	43.568733
769.976957	43.352433
770.393961	43.159452
770.810936	42.986891
771.227883	42.839574
771.644802	42.717729
772.061692	42.635828
772.478553	42.574444
772.895386	42.541298
773.312190	42.544224
773.728965	42.577529
774.145712	42.644487
774.562430	42.737432
774.979119	42.859930
775.395780	43.021137
775.812411	43.197525
776.229014	43.396690
776.645589	43.625382
777.062134	43.874234
777.478651	44.134969
777.895138	44.418030
778.311597	44.710588
778.728027	45.007244
779.144428	45.312042
779.560800	45.617612
779.977143	45.938588
780.393458	46.243702
780.809743	46.549051
781.225999	46.825898
781.642226	47.100216
782.058425	47.346496
782.474594	47.572760
782.890734	47.763523
783.306845	47.932635
783.722926	48.068066
784.138979	48.167001
784.555003	48.246744
784.970997	48.279903
785.386962	48.297750
785.802898	48.275205
786.218805	48.215166
786.634682	48.129148
787.050531	48.018076
787.466349	47.888454
787.882139	47.747019
788.297899	47.562016
788.713630	47.394696
789.129332	47.213601
789.545004	47.029600
789.960647	46.850612
790.376260	46.680467
790.791844	46.515276
791.207399	46.371187
791.622924	46.255539
792.038419	46.163074
792.453885	46.093934
792.869321	46.040459
793.284728	46.020023
793.700106	46.022669
794.115453	46.072880
794.530771	46.143884
794.946060	46.256153
795.361319	46.376213
795.776548	46.533086
796.191747	46.695929
796.606917	46.887136
797.022057	47.101838
797.437167	47.304993
797.852248	47.503313
798.267298	47.712645
798.682319	47.925457
799.097310	48.127262
799.512271	48.307521
799.927203	48.465867
800.342104	48.618223
800.756976	48.738661
801.171818	48.845157
801.586629	48.905962
802.001411	48.943872
802.416163	48.942038
802.830885	48.915736
803.245577	48.868170
803.660238	48.792849
804.074870	48.674689
804.489472	48.522561
804.904043	48.339643
805.318585	48.126780
805.733096	47.887788
806.147577	47.626232
806.562028	47.335991
806.976449	47.025426
807.390840	46.693146
807.805200	46.325339
808.219530	45.947162
808.633830	45.549671
809.048100	45.150789
809.462339	44.744733
809.876548	44.326712
810.290727	43.917550
810.704875	43.512860
811.118993	43.095494
811.533080	42.682187
811.947137	42.283385
812.361164	41.898149
812.775160	41.525686
813.189126	41.153183
813.603061	40.807320
814.016966	40.479549
814.430840	40.182828
814.844684	39.898036
815.258497	39.630565
815.672280	39.379499
816.086032	39.147066
816.499753	38.948994
816.913444	38.770023
817.327104	38.623053
817.740733	38.504678
818.154331	38.414368
818.567899	38.360035
818.981436	38.323698
819.394943	38.317848
819.808418	38.336633
820.221863	38.381825
820.635277	38.472134
821.048660	38.593028
821.462013	38.731613
821.875334	38.898316
822.288625	39.076196
822.701884	39.270125
823.115113	39.485716
823.528311	39.724483
823.941478	39.965170
824.354614	40.216403
824.767718	40.468462
825.180792	40.716884
825.593835	40.959434
826.006847	41.192255
826.419827	41.413489
826.832777	41.616036
827.245695	41.777462
827.658582	41.916802
828.071438	42.048837
828.484263	42.141016
828.897057	42.206121
829.309819	42.235100
829.722551	42.235220
830.135251	42.202796
830.547919	42.124758
830.960557	42.006620
831.373163	41.867621
831.785738	41.703580
832.198281	41.534103
832.610793	41.327648
833.023274	41.116674
833.435723	40.876972
833.848141	40.642326
834.260528	40.415117
834.672883	40.190018
835.085206	39.973040
835.497498	39.768698
835.909758	39.588405
836.321987	39.412186
836.734185	39.274708
837.146350	39.173505
837.558485	39.077926
837.970587	39.027574
838.382658	39.009406
838.794697	39.035263
839.206705	39.093416
839.618681	39.183636
840.030625	39.309728
840.442538	39.493661
840.854418	39.685533
841.266267	39.919225
841.678084	40.180442
842.089870	40.470948
842.501623	40.779770
842.913345	41.094301
843.325035	41.435453
843.736693	41.813458
844.148319	42.173061
844.559913	42.552481
844.971475	42.918921
845.383005	43.308226
845.794504	43.689362
846.205970	44.062509
846.617404	44.416458
847.028806	44.745702
847.440176	45.050256
847.851514	45.332789
848.262820	45.599882
848.674094	45.836262
849.085336	46.047197
849.496546	46.231242
849.907723	46.346762
850.318868	46.468676
850.729981	46.529071
851.141062	46.550092
851.552110	46.523327
851.963127	46.452535
852.374111	46.347083
852.785062	46.220681
853.195982	46.048420
853.606869	45.866265
854.017723	45.659586
854.428546	45.422759
854.839336	45.146784
855.250093	44.844487
855.660818	44.529850
856.071511	44.218344
856.482171	43.867634
856.892799	43.541745
857.303394	43.189501
857.713956	42.823408
858.124486	42.446769
858.534984	42.071297
858.945449	41.703157
859.355881	41.330387
859.766280	40.971713
860.176647	40.607016
860.586982	40.250355
860.997283	39.893172
861.407552	39.539963
861.817789	39.193050
862.227992	38.833314
862.638163	38.520369
863.048301	38.188194
863.458406	37.874598
863.868478	37.579529
864.278518	37.306128
864.688524	37.040665
865.098498	36.812459
865.508439	36.586580
865.918347	36.374590
866.328222	36.188127
866.738064	36.006281
867.147873	35.860098
867.557649	35.739693
867.967392	35.658100
868.377102	35.608822
868.786779	35.577055
869.196423	35.586599
869.606034	35.603045
870.015612	35.650229
870.425156	35.745306
870.834668	35.864135
871.244146	36.005327
871.653591	36.169352
872.063003	36.363306
872.472382	36.573344
872.881728	36.820585
873.291040	37.090161
873.700319	37.360593
874.109564	37.650354
874.518777	37.962101
874.927956	38.288667
875.337102	38.602054
875.746214	38.949435
876.155293	39.311054
876.564338	39.655491
876.973350	40.007564
877.382329	40.357773
877.791274	40.666488
878.200186	41.001462
878.609064	41.309521
879.017909	41.597574
879.426720	41.878405
879.835497	42.111633
880.244241	42.333163
880.652952	42.532032
881.061629	42.696491
881.470272	42.826349
881.878881	42.925041
882.287457	43.011535
882.695999	43.057279
883.104507	43.086218
883.512982	43.063221
883.921423	43.031785
884.329830	42.964359
884.738203	42.876884
885.146543	42.790288
885.554849	42.656262
885.963120	42.517791
886.371358	42.380765
886.779563	42.233811
887.187733	42.090944
887.595869	41.937169
888.003971	41.789999
888.412040	41.634933
888.820074	41.477863
889.228074	41.364003
889.636041	41.219790
890.043973	41.102777
890.451871	41.010794
890.859736	40.901965
891.267566	40.833804
891.675362	40.793882
892.083124	40.736063
892.490851	40.705483
892.898545	40.690305
893.306204	40.700348
893.713829	40.724181
894.121420	40.767492
894.528977	40.810556
894.936499	40.864680
895.343987	40.965973
895.751441	41.050307
896.158860	41.181700
896.566246	41.307981
896.973596	41.458106
897.380913	41.638334
897.788195	41.766551
898.195442	41.933733
898.602655	42.087826
899.009834	42.242880
899.416978	42.401437
899.824088	42.539503
900.231163	42.692680
900.638204	42.848069
901.045210	42.984353
901.452181	43.112678
901.859118	43.207243
902.266021	43.309505
902.672888	43.393955
903.079721	43.463773
903.486520	43.520767
903.893283	43.540111
904.300012	43.519409
904.706707	43.506674
905.113366	43.491006
905.519991	43.435844
905.926581	43.378908
906.333136	43.263447
906.739656	43.137771
907.146142	43.036374
907.552592	42.888672
907.959008	42.718634
908.365389	42.549249
908.771735	42.332937
909.178046	42.124753
909.584322	41.897753
909.990563	41.632139
910.396769	41.404436
910.802940	41.158677
911.209076	40.915437
911.615177	40.661769
912.021243	40.383113
912.427274	40.105137
912.833270	39.814401
913.239231	39.516095
913.645156	39.226210
914.051046	38.936677
914.456902	38.649253
914.862721	38.376167
915.268506	38.100352
915.674256	37.844102
916.079970	37.583521
916.485649	37.363160
916.891292	37.132221
917.296901	36.926491
917.702474	36.709126
918.108011	36.525031
918.513514	36.338989
918.918980	36.210448
919.324412	36.075089
919.729808	35.933218
920.135169	35.827757
920.540494	35.739191
920.945783	35.676409
921.351037	35.640625
921.756256	35.615999
922.161439	35.597368
922.566586	35.582026
922.971698	35.585131
923.376775	35.611986
923.781815	35.653875
924.186820	35.715408
924.591790	35.799684
924.996723	35.899862
925.401621	36.005707
925.806484	36.092288
926.211310	36.202797
926.616101	36.318847
927.020856	36.441487
927.425575	36.538893
927.830259	36.670391
928.234906	36.778998
928.639518	36.899340
929.044094	36.983127
929.448634	37.083370
929.853138	37.189409
930.257606	37.290445
930.662038	37.370290
931.066434	37.436810
931.470795	37.488034
931.875119	37.547666
932.279407	37.588063
932.683659	37.616628
933.087875	37.604595
933.492055	37.566930
933.896199	37.523517
934.300307	37.432955
934.704379	37.362720
935.108414	37.271808
935.512414	37.199060
935.916377	37.066738
936.320304	36.919184
936.724195	36.776780
937.128049	36.599605
937.531867	36.418528
937.935649	36.231140
938.339395	36.048215
938.743104	35.850590
939.146777	35.680999
939.550414	35.471146
939.954014	35.300573
940.357578	35.093423
940.761105	34.899179
941.164596	34.699169
941.568050	34.519664
941.971468	34.367898
942.374850	34.195010
942.778195	34.038711
943.181503	33.905949
943.584775	33.755479
943.988010	33.626556
944.391209	33.520610
944.794371	33.430725
945.197496	33.341699
945.600585	33.282183
946.003637	33.241596
946.406653	33.195411
946.809632	33.177039
947.212574	33.149362
947.615479	33.161660
948.018347	33.141094
948.421179	33.147043
948.823974	33.150111
949.226732	33.126941
949.629453	33.149268
950.032138	33.142075
950.434785	33.163318
950.837396	33.186577
951.239969	33.193001
951.642506	33.177999
952.045006	33.164274
952.447469	33.143939
952.849895	33.106908
953.252283	33.088540
953.654635	33.056623
954.056950	33.017727
954.459227	32.966077
954.861468	32.878987
955.263671	32.792095
955.665838	32.687931
956.067967	32.619839
956.470059	32.526209
956.872114	32.395547
957.274131	32.239794
957.676112	32.086606
958.078055	31.966238
958.479961	31.806761
958.881829	31.643347
959.283661	31.455780
959.685455	31.303940
960.087211	31.111144
960.488931	30.914897
960.890613	30.726856
961.292257	30.556521
961.693864	30.403345
962.095434	30.216038
962.496966	30.026259
962.898461	29.819314
963.299918	29.662761
963.701338	29.511472
964.102720	29.335893
964.504065	29.219678
964.905372	29.053421
965.306641	28.896443
965.707873	28.748565
966.109068	28.612184
966.510224	28.486328
966.911343	28.327250
967.312425	28.264056
967.713468	28.192843
968.114474	28.105063
968.515442	27.972460
968.916373	27.873990
969.317265	27.794114
969.718120	27.735720
970.118937	27.711435
970.519716	27.602979
970.920458	27.524973
971.321161	27.524712
971.721827	27.518197
972.122454	27.424856
972.523044	27.401811
972.923596	27.385191
973.324110	27.369575
973.724585	27.315306
974.125023	27.277003
974.525423	27.267084
974.925785	27.327994
975.326108	27.356128
975.726394	27.322582
976.126642	27.287781
976.526851	27.255578
976.927022	27.204669
977.327155	27.241092
977.727250	27.263854
978.127307	27.263008
978.527325	27.273611
978.927306	27.271175
979.327248	27.323089
979.727151	27.288705
980.127017	27.329815
980.526844	27.338400
980.926633	27.435242
981.326383	27.461305
981.726095	27.493168
982.125769	27.537491
982.525404	27.560382
982.925001	27.653292
983.324560	27.761181
983.724079	27.786023
984.123561	27.846663
984.523004	27.998333
984.922408	28.088468
985.321774	28.130418
985.721102	28.245119
986.120390	28.352822
986.519641	28.451583
986.918852	28.534329
987.318025	28.620322
987.717159	28.715697
988.116255	28.880992
988.515312	29.007709
988.914330	29.162566
989.313310	29.320810
989.712250	29.446328
990.111152	29.627007
990.510015	29.768204
990.908840	29.975038
991.307625	30.055893
991.706372	30.172616
992.105080	30.319569
992.503749	30.455543
992.902379	30.600818
993.300970	30.752716
993.699522	30.978730
994.098035	31.167885
994.496510	31.386174
994.894945	31.576305
995.293341	31.699910
995.691698	31.888317
996.090016	32.004294
996.488296	32.181482
996.886535	32.372725
997.284736	32.563601
997.682898	32.740884
998.081021	32.930062
998.479104	33.091805
998.877148	33.326606
999.275153	33.487399
999.673119	33.521647
1000.071046	33.674572
1000.468933	33.686335
1000.866781	33.853328
1001.264590	34.045378
1001.662359	34.206321
1002.060089	34.446701
1002.457780	34.547033
1002.855431	34.660065
1003.253043	34.814599
1003.650615	35.130914
1004.048148	35.401485
1004.445642	35.765025
1004.843096	36.061955
1005.240511	36.365624
1005.637886	36.635772
1006.035221	36.846142
1006.432517	37.180294
1006.829774	37.463698
1007.226991	37.757465
1007.624168	38.301575
1008.021306	38.471232
1008.418404	38.977992
1008.815462	39.438680
1009.212481	39.794578
1009.609460	40.298364
1010.006399	40.815517
1010.403298	41.169877
1010.800158	41.792527
1011.196978	42.130699
1011.593758	42.819354
1011.990498	43.551497
1012.387199	44.484714
1012.783860	45.086636
1013.180480	45.785807
1013.577061	46.354034
1013.973602	47.394980
1014.370103	48.343027
1014.766564	48.891888
1015.162985	49.543686
1015.559366	49.952584
1015.955708	50.663994
1016.352009	51.146587
1016.748270	51.485149
1017.144491	51.891946
1017.540671	52.625474
1017.936812	53.055961
1018.332913	53.580776
1018.728973	54.001013
1019.124994	54.658553
1019.520974	55.278060
1019.916914	55.699563
1020.312814	56.487904
