Time1=100ms:Average1=5:Objective=10X:Aperture=1: (11/28/2018 9:55:06 AM)
11/28/2018 9:55:06 AM
Reflectance
10X
Ap#: 1
Avg1: 5.000000
Avg2: 0.000000
Int.Time1:100.000000

350.166136	55.623791
350.601937	56.057584
351.037728	56.358459
351.473509	56.057641
351.909281	56.217663
352.345042	56.054495
352.780794	56.271887
353.216536	56.408413
353.652267	56.370030
354.087989	56.050208
354.523701	55.927325
354.959403	55.827779
355.395095	55.913012
355.830777	55.744910
356.266449	56.111310
356.702110	56.144751
357.137762	56.731287
357.573404	56.426080
358.009035	56.219305
358.444656	56.393999
358.880268	56.376799
359.315869	56.393326
359.751459	56.555338
360.187040	56.834981
360.622610	56.733068
361.058170	56.827416
361.493720	56.414794
361.929260	56.400742
362.364789	56.108998
362.800308	56.322655
363.235816	56.388765
363.671314	56.341920
364.106802	56.292744
364.542279	56.607949
364.977746	56.749580
365.413203	56.762513
365.848649	57.154284
366.284084	56.750532
366.719509	56.866915
367.154924	56.639830
367.590328	56.978595
368.025721	57.353982
368.461104	57.297726
368.896477	57.222320
369.331838	56.895791
369.767189	57.085881
370.202530	57.049470
370.637859	56.623856
371.073178	56.765532
371.508486	56.806030
371.943784	56.691808
372.379071	56.766226
372.814347	56.879607
373.249612	56.902002
373.684866	56.759591
374.120110	56.952947
374.555343	56.836860
374.990565	57.095421
375.425776	57.172702
375.860976	57.095537
376.296165	56.805350
376.731343	56.897747
377.166511	56.802280
377.601667	56.887005
378.036812	56.716289
378.471946	56.685418
378.907070	56.636403
379.342182	56.453006
379.777283	56.652807
380.212373	56.388504
380.647452	56.315380
381.082520	56.195568
381.517576	55.601517
381.952622	55.766739
382.387656	55.878559
382.822679	55.848407
383.257691	55.371688
383.692692	55.403790
384.127681	55.650612
384.562659	55.427350
384.997626	55.168597
385.432581	55.131590
385.867525	55.257538
386.302458	55.384091
386.737379	55.065443
387.172289	54.963516
387.607188	54.646242
388.042075	54.719851
388.476951	54.757873
388.911815	54.501485
389.346668	54.474084
389.781509	54.636824
390.216338	54.241147
390.651157	54.301121
391.085963	54.145930
391.520758	54.245998
391.955541	54.088736
392.390313	53.850025
392.825073	53.820403
393.259821	53.664243
393.694558	53.710188
394.129283	53.548548
394.563996	53.670527
394.998698	54.055851
395.433388	53.934773
395.868066	53.795817
396.302732	53.869650
396.737386	53.835408
397.172029	53.509527
397.606659	52.909557
398.041278	52.693133
398.475885	52.632641
398.910480	52.242323
399.345063	51.478288
399.779634	50.906550
400.214194	50.383310
400.648741	49.273087
401.083276	48.235079
401.517799	47.022010
401.952310	45.756356
402.386809	44.559208
402.821296	43.083569
403.255771	41.576605
403.690234	39.902285
404.124684	37.852662
404.559123	36.095445
404.993549	34.129284
405.427963	32.095223
405.862365	30.327989
406.296754	28.595321
406.731131	27.075310
407.165496	25.490361
407.599849	24.182669
408.034190	22.757670
408.468518	21.519379
408.902833	20.350085
409.337137	19.260831
409.771428	18.223394
410.205706	17.294805
410.639973	16.441202
411.074226	15.773784
411.508467	15.091039
411.942696	14.512951
412.376912	13.978726
412.811116	13.478384
413.245307	13.011361
413.679486	12.621312
414.113652	12.303713
414.547805	11.996873
414.981946	11.672012
415.416074	11.387411
415.850190	11.126505
416.284293	10.877711
416.718383	10.691921
417.152460	10.513867
417.586525	10.378588
418.020577	10.238866
418.454616	10.125757
418.888643	10.071282
419.322656	9.996247
419.756657	9.898417
420.190645	9.774796
420.624620	9.698662
421.058582	9.620806
421.492531	9.517863
421.926468	9.459108
422.360391	9.399172
422.794301	9.389686
423.228199	9.406148
423.662083	9.447323
424.095955	9.518008
424.529813	9.567577
424.963658	9.635400
425.397491	9.700663
425.831310	9.749137
426.265116	9.802305
426.698909	9.826463
427.132689	9.862756
427.566455	9.914108
428.000209	9.980077
428.433949	10.083394
428.867676	10.184662
429.301389	10.307457
429.735090	10.403077
430.168777	10.472978
430.602451	10.552383
431.036111	10.635047
431.469759	10.704717
431.903392	10.776337
432.337013	10.829739
432.770620	10.892647
433.204213	10.993215
433.637794	11.113974
434.071360	11.252569
434.504914	11.408267
434.938453	11.612221
435.371979	11.775105
435.805492	11.960676
436.238991	12.147866
436.672477	12.330511
437.105949	12.499003
437.539407	12.637607
437.972852	12.791997
438.406283	12.931683
438.839700	13.076150
439.273104	13.243762
439.706494	13.432561
440.139871	13.658132
440.573233	13.869137
441.006582	14.089574
441.439917	14.298388
441.873238	14.463953
442.306546	14.627551
442.739839	14.758279
443.173119	14.896495
443.606385	15.036620
444.039636	15.169361
444.472874	15.311118
444.906099	15.462133
445.339309	15.627701
445.772505	15.816544
446.205687	16.024732
446.638855	16.228727
447.072009	16.457047
447.505149	16.688051
447.938275	16.921973
448.371387	17.139209
448.804485	17.368565
449.237569	17.586040
449.670638	17.775026
450.103694	17.953313
450.536735	18.098133
450.969762	18.265413
451.402774	18.436866
451.835773	18.630173
452.268757	18.825537
452.701727	19.037968
453.134683	19.258131
453.567624	19.453983
454.000551	19.633018
454.433464	19.811629
454.866362	19.965878
455.299246	20.134425
455.732116	20.273524
456.164971	20.422360
456.597811	20.571035
457.030638	20.713007
457.463449	20.860945
457.896246	21.001477
458.329029	21.154716
458.761797	21.300849
459.194551	21.462985
459.627290	21.631187
460.060014	21.795352
460.492724	21.963660
460.925419	22.155885
461.358099	22.340110
461.790765	22.528294
462.223416	22.709019
462.656052	22.873133
463.088674	23.015550
463.521281	23.152104
463.953873	23.306723
464.386450	23.447952
464.819012	23.576447
465.251560	23.721454
465.684093	23.875810
466.116611	24.025987
466.549114	24.184514
466.981602	24.363000
467.414075	24.567456
467.846533	24.744985
468.278977	24.927784
468.711405	25.095967
469.143818	25.284817
469.576216	25.416523
470.008600	25.540144
470.440968	25.663241
470.873321	25.771219
471.305659	25.856793
471.737982	25.939853
472.170289	26.019309
472.602582	26.094980
473.034859	26.164556
473.467122	26.226369
473.899369	26.311435
474.331600	26.392523
474.763817	26.487300
475.196018	26.589751
475.628204	26.713912
476.060375	26.860712
476.492530	27.017850
476.924670	27.171242
477.356795	27.306335
477.788904	27.422426
478.220998	27.533224
478.653076	27.601905
479.085139	27.658960
479.517186	27.695539
479.949219	27.743197
480.381235	27.794075
480.813236	27.826982
481.245221	27.898488
481.677191	27.994584
482.109146	28.101164
482.541084	28.196281
482.973008	28.318835
483.404915	28.434836
483.836807	28.514820
484.268683	28.591717
484.700544	28.658476
485.132388	28.686740
485.564217	28.691642
485.996031	28.671818
486.427828	28.629864
486.859610	28.586100
487.291376	28.515583
487.723126	28.423258
488.154860	28.333232
488.586579	28.244827
489.018281	28.157291
489.449968	28.094150
489.881639	28.062428
490.313293	28.059216
490.744932	28.086327
491.176555	28.138276
491.608162	28.195616
492.039753	28.250643
492.471328	28.283438
492.902886	28.294906
493.334429	28.257167
493.765956	28.196671
494.197466	28.136716
494.628960	28.042324
495.060439	27.943914
495.491901	27.856726
495.923347	27.791173
496.354776	27.752418
496.786190	27.744231
497.217587	27.775809
497.648968	27.814239
498.080332	27.874815
498.511681	27.955956
498.943013	28.044526
499.374328	28.131039
499.805628	28.214511
500.236911	28.283282
500.668177	28.350164
501.099427	28.408960
501.530661	28.458588
501.961878	28.497133
502.393079	28.536105
502.824264	28.552375
503.255431	28.567459
503.686583	28.582227
504.117717	28.607046
504.548835	28.660271
504.979937	28.746897
505.411022	28.875940
505.842090	29.059529
506.273142	29.298183
506.704177	29.580993
507.135195	29.907709
507.566197	30.264413
507.997182	30.641299
508.428150	31.016855
508.859102	31.379471
509.290036	31.721590
509.720954	32.065896
510.151855	32.386290
510.582739	32.699210
511.013607	33.033974
511.444457	33.377700
511.875291	33.756269
512.306107	34.178051
512.736907	34.641176
513.167690	35.148842
513.598456	35.688569
514.029205	36.250871
514.459936	36.827782
514.890651	37.393113
515.321349	37.954408
515.752030	38.480876
516.182693	38.989450
516.613340	39.445892
517.043969	39.864796
517.474582	40.233367
517.905177	40.552332
518.335755	40.814384
518.766315	41.026686
519.196859	41.188374
519.627385	41.314363
520.057894	41.416883
520.488386	41.489076
520.918860	41.532647
521.349318	41.578792
521.779757	41.626878
522.210180	41.692504
522.640585	41.788488
523.070973	41.904915
523.501343	42.050682
523.931696	42.215904
524.362031	42.373306
524.792349	42.529030
525.222650	42.654723
525.652933	42.737904
526.083198	42.781884
526.513446	42.773159
526.943677	42.731347
527.373890	42.650856
527.804085	42.563911
528.234262	42.460345
528.664422	42.361133
529.094565	42.304496
529.524689	42.268249
529.954796	42.284498
530.384885	42.354990
530.814957	42.467276
531.245011	42.621063
531.675047	42.823391
532.105065	43.053075
532.535065	43.285341
532.965048	43.499891
533.395013	43.698541
533.824959	43.861825
534.254888	43.990973
534.684799	44.047458
535.114693	44.067873
535.544568	44.044427
535.974425	43.950362
536.404264	43.792704
536.834086	43.573159
537.263889	43.298536
537.693674	42.995413
538.123441	42.662360
538.553190	42.310897
538.982921	41.940053
539.412634	41.567863
539.842329	41.213942
540.272006	40.866766
540.701664	40.536118
541.131304	40.221225
541.560926	39.950963
541.990530	39.696666
542.420116	39.438105
542.849683	39.189552
543.279232	38.950868
543.708763	38.696624
544.138275	38.436726
544.567769	38.155847
544.997245	37.851752
545.426702	37.534496
545.856141	37.226059
546.285562	36.923881
546.714964	36.623691
547.144347	36.367780
547.573713	36.146207
548.003059	35.988427
548.432387	35.878205
548.861697	35.820597
549.290988	35.838120
549.720260	35.929071
550.149514	36.097703
550.578750	36.345872
551.007966	36.652440
551.437164	37.012240
551.866344	37.424448
552.295504	37.881744
552.724646	38.365425
553.153769	38.852519
553.582874	39.334476
554.011960	39.800031
554.441027	40.236603
554.870075	40.617446
555.299104	40.950221
555.728115	41.223918
556.157106	41.455204
556.586079	41.603173
557.015033	41.717467
557.443968	41.779016
557.872884	41.795181
558.301781	41.783637
558.730659	41.747520
559.159518	41.683197
559.588358	41.605674
560.017180	41.519156
560.445982	41.399663
560.874765	41.272531
561.303528	41.123585
561.732273	40.952874
562.160999	40.756823
562.589705	40.521326
563.018393	40.259995
563.447061	39.963655
563.875710	39.626960
564.304340	39.254810
564.732950	38.843165
565.161542	38.410643
565.590114	37.944259
566.018666	37.447486
566.447200	36.933907
566.875714	36.412969
567.304208	35.887034
567.732684	35.357649
568.161140	34.842139
568.589576	34.343356
569.017993	33.879021
569.446391	33.440077
569.874769	33.054764
570.303128	32.692791
570.731467	32.383754
571.159787	32.127296
571.588087	31.928872
572.016368	31.779119
572.444629	31.672183
572.872870	31.621876
573.301092	31.605569
573.729294	31.626066
574.157476	31.663886
574.585639	31.726323
575.013782	31.798095
575.441906	31.868240
575.870009	31.949921
576.298093	32.010508
576.726157	32.070368
577.154202	32.126545
577.582226	32.180434
578.010231	32.234100
578.438216	32.282019
578.866181	32.338755
579.294126	32.409800
579.722051	32.492410
580.149957	32.597509
580.577842	32.713073
581.005707	32.840051
581.433553	32.978688
581.861378	33.130649
582.289184	33.281517
582.716969	33.421721
583.144734	33.558921
583.572479	33.702307
584.000205	33.835060
584.427910	33.959369
584.855594	34.049488
585.283259	34.123917
585.710904	34.184039
586.138528	34.216719
586.566132	34.233366
586.993716	34.225870
587.421280	34.201878
587.848823	34.155021
588.276346	34.086593
588.703849	34.002224
589.131332	33.889747
589.558794	33.763043
589.986236	33.604851
590.413657	33.432360
590.841058	33.237429
591.268438	33.025423
591.695799	32.796689
592.123138	32.571105
592.550458	32.335687
592.977756	32.105819
593.405034	31.872413
593.832292	31.647248
594.259529	31.436308
594.686746	31.244883
595.113942	31.058673
595.541117	30.889136
595.968272	30.743782
596.395406	30.600418
596.822519	30.457554
597.249612	30.313914
597.676684	30.164115
598.103735	30.016038
598.530766	29.869297
598.957775	29.715880
599.384764	29.560864
599.811733	29.401288
600.238680	29.247013
600.665606	29.097522
601.092512	28.957532
601.519397	28.825551
601.946261	28.719663
602.373104	28.638461
602.799926	28.578400
603.226727	28.547482
603.653507	28.535271
604.080266	28.550456
604.507004	28.591457
604.933721	28.655877
605.360417	28.724281
605.787092	28.804712
606.213746	28.885422
606.640379	28.985232
607.066991	29.085275
607.493581	29.188639
607.920150	29.287764
608.346699	29.393152
608.773226	29.499383
609.199731	29.608537
609.626216	29.723905
610.052679	29.837756
610.479121	29.966839
610.905542	30.099660
611.331941	30.232115
611.758319	30.365295
612.184676	30.499941
612.611011	30.626760
613.037325	30.741588
613.463617	30.846828
613.889888	30.927289
614.316138	30.994897
614.742366	31.040586
615.168573	31.060616
615.594758	31.058901
616.020921	31.042802
616.447063	31.011787
616.873184	30.965447
617.299283	30.910368
617.725360	30.847112
618.151416	30.782858
618.577450	30.722118
619.003462	30.667498
619.429453	30.619484
619.855422	30.563399
620.281369	30.520960
620.707295	30.480225
621.133199	30.442063
621.559081	30.403163
621.984941	30.354314
622.410779	30.298053
622.836596	30.228416
623.262391	30.143679
623.688163	30.037161
624.113914	29.923680
624.539644	29.798670
624.965351	29.661359
625.391036	29.511731
625.816699	29.352742
626.242340	29.190403
626.667960	29.032352
627.093557	28.883317
627.519132	28.731892
627.944685	28.593286
628.370216	28.460828
628.795725	28.335483
629.221212	28.206786
629.646677	28.086590
630.072119	27.959074
630.497540	27.823664
630.922938	27.685116
631.348314	27.526379
631.773668	27.361125
632.198999	27.178847
632.624308	26.990802
633.049595	26.798078
633.474860	26.597594
633.900102	26.393226
634.325322	26.185341
634.750520	25.983341
635.175695	25.789672
635.600848	25.609767
636.025978	25.449247
636.451086	25.317178
636.876171	25.211856
637.301234	25.132403
637.726275	25.087021
638.151293	25.069303
638.576288	25.081707
639.001261	25.131276
639.426211	25.210793
639.851139	25.312087
640.276044	25.441128
640.700927	25.596888
641.125787	25.774591
641.550624	25.969573
641.975438	26.179044
642.400230	26.407919
642.824999	26.641494
643.249745	26.893796
643.674469	27.159623
644.099169	27.436221
644.523847	27.733178
644.948502	28.046744
645.373135	28.384963
645.797744	28.727912
646.222330	29.086283
646.646894	29.458349
647.071435	29.835291
647.495953	30.227682
647.920447	30.620319
648.344919	31.018111
648.769368	31.410816
649.193794	31.799469
649.618197	32.164289
650.042576	32.514289
650.466933	32.842808
650.891267	33.147390
651.315577	33.428423
651.739864	33.680692
652.164129	33.898627
652.588370	34.081979
653.012587	34.233221
653.436782	34.351244
653.860953	34.435114
654.285102	34.488700
654.709226	34.512273
655.133328	34.511543
655.557406	34.486387
655.981461	34.441096
656.405493	34.372033
656.829501	34.283279
657.253486	34.167776
657.677448	34.020111
658.101386	33.843780
658.525301	33.628695
658.949192	33.392951
659.373060	33.127024
659.796904	32.828742
660.220725	32.510849
660.644522	32.165894
661.068296	31.794260
661.492046	31.400827
661.915772	30.996205
662.339475	30.578470
662.763154	30.161433
663.186810	29.738508
663.610442	29.318990
664.034050	28.910241
664.457635	28.516380
664.881196	28.143107
665.304733	27.794235
665.728247	27.486858
666.151736	27.205496
666.575202	26.961828
666.998644	26.758087
667.422062	26.597220
667.845457	26.462128
668.268827	26.363463
668.692174	26.293452
669.115496	26.250365
669.538795	26.233037
669.962070	26.234013
670.385321	26.252959
670.808547	26.294976
671.231750	26.346696
671.654929	26.407497
672.078084	26.479585
672.501214	26.551951
672.924321	26.632850
673.347404	26.718625
673.770462	26.805963
674.193496	26.906966
674.616506	27.014797
675.039492	27.126295
675.462454	27.249235
675.885391	27.386081
676.308305	27.540153
676.731194	27.707202
677.154058	27.885882
677.576899	28.076612
677.999715	28.279976
678.422507	28.495000
678.845274	28.705093
679.268017	28.939052
679.690736	29.168747
680.113430	29.404367
680.536100	29.630195
680.958746	29.861705
681.381367	30.082186
681.803963	30.298750
682.226535	30.511932
682.649083	30.715402
683.071605	30.917473
683.494104	31.115239
683.916578	31.302787
684.339027	31.473532
684.761451	31.647337
685.183851	31.808090
685.606227	31.965680
686.028577	32.110138
686.450903	32.243539
686.873204	32.359501
687.295481	32.456723
687.717733	32.535672
688.139959	32.593775
688.562162	32.620274
688.984339	32.618194
689.406492	32.578301
689.828619	32.510892
690.250722	32.406723
690.672800	32.266160
691.094853	32.094789
691.516881	31.890479
691.938884	31.667991
692.360863	31.404928
692.782816	31.124041
693.204744	30.825852
693.626647	30.522669
694.048526	30.213081
694.470379	29.913507
694.892207	29.619177
695.314010	29.332755
695.735788	29.068087
696.157540	28.827353
696.579268	28.617466
697.000970	28.439267
697.422648	28.306999
697.844300	28.204986
698.265926	28.142016
698.687528	28.120555
699.109104	28.134363
699.530655	28.191627
699.952181	28.290656
700.373681	28.423664
700.795156	28.590213
701.216606	28.783354
701.638030	29.017087
702.059429	29.279510
702.480803	29.559331
702.902151	29.858356
703.323473	30.174648
703.744770	30.505743
704.166042	30.832507
704.587288	31.175631
705.008509	31.515597
705.429704	31.864149
705.850873	32.213994
706.272017	32.553828
706.693135	32.879825
707.114228	33.200280
707.535295	33.507774
707.956336	33.808393
708.377352	34.097877
708.798342	34.372547
709.219306	34.628832
709.640245	34.873021
710.061157	35.109564
710.482044	35.325383
710.902905	35.529044
711.323741	35.717258
711.744550	35.895350
712.165334	36.062363
712.586092	36.206438
713.006823	36.329268
713.427529	36.446816
713.848209	36.547606
714.268863	36.638577
714.689492	36.701306
715.110094	36.749358
715.530670	36.798677
715.951220	36.830002
716.371744	36.845899
716.792242	36.851783
717.212714	36.851110
717.633159	36.828365
718.053579	36.797136
718.473973	36.748272
718.894340	36.681204
719.314681	36.597472
719.734996	36.495980
720.155285	36.371386
720.575547	36.225912
720.995784	36.056965
721.415994	35.862290
721.836177	35.643934
722.256335	35.400312
722.676466	35.127096
723.096570	34.815220
723.516649	34.486702
723.936701	34.128328
724.356726	33.750086
724.776725	33.346596
725.196698	32.931396
725.616644	32.498123
726.036564	32.060430
726.456457	31.599469
726.876324	31.147334
727.296164	30.690704
727.715977	30.246317
728.135764	29.815310
728.555525	29.396613
728.975258	28.988521
729.394966	28.611846
729.814646	28.252540
730.234300	27.934336
730.653927	27.640895
731.073527	27.374656
731.493101	27.145843
731.912648	26.950350
732.332168	26.798583
732.751661	26.692107
733.171128	26.626105
733.590568	26.599660
734.009980	26.610219
734.429366	26.665183
734.848726	26.755116
735.268058	26.874776
735.687363	27.035914
736.106641	27.232861
736.525893	27.454824
736.945117	27.706740
737.364314	27.979599
737.783485	28.272082
738.202628	28.581600
738.621744	28.902337
739.040834	29.232388
739.459896	29.570906
739.878931	29.905764
740.297939	30.245391
740.716919	30.581128
741.135873	30.907114
741.554799	31.224830
741.973698	31.535366
742.392570	31.826802
742.811415	32.100165
743.230232	32.354607
743.649022	32.593740
744.067785	32.818668
744.486521	33.018079
744.905229	33.204928
745.323909	33.369494
745.742563	33.512613
746.161189	33.644831
746.579787	33.754607
746.998358	33.849880
747.416902	33.934765
747.835418	34.007958
748.253907	34.077638
748.672368	34.134792
749.090802	34.183222
749.509208	34.217348
749.927586	34.244246
750.345937	34.271610
750.764261	34.293485
751.182556	34.312029
751.600824	34.342103
752.019065	34.378549
752.437277	34.424938
752.855462	34.479853
753.273620	34.549816
753.691749	34.622462
754.109851	34.708476
754.527925	34.800991
754.945971	34.906345
755.363989	35.019379
755.781980	35.148308
756.199943	35.277780
756.617877	35.416745
757.035784	35.552166
757.453663	35.688274
757.871514	35.815887
758.289337	35.932259
758.707132	36.044282
759.124899	36.139738
759.542639	36.215821
759.960350	36.277983
760.378033	36.310109
760.795688	36.319856
761.213314	36.307457
761.630913	36.263352
762.048484	36.203813
762.466026	36.127415
762.883541	36.032009
763.301027	35.920468
763.718485	35.795547
764.135914	35.658264
764.553316	35.502110
764.970689	35.328386
765.388034	35.153334
765.805351	34.973148
766.222639	34.777706
766.639899	34.592370
767.057131	34.401498
767.474334	34.216059
767.891509	34.037435
768.308655	33.862263
768.725773	33.704541
769.142863	33.554456
769.559924	33.419034
769.976957	33.304816
770.393961	33.205191
770.810936	33.126770
771.227883	33.074394
771.644802	33.031213
772.061692	33.008099
772.478553	33.016005
772.895386	33.037345
773.312190	33.086090
773.728965	33.165924
774.145712	33.260925
774.562430	33.386155
774.979119	33.521087
775.395780	33.677716
775.812411	33.850838
776.229014	34.032521
776.645589	34.229339
777.062134	34.431576
777.478651	34.647507
777.895138	34.876345
778.311597	35.112984
778.728027	35.342918
779.144428	35.578105
779.560800	35.810228
779.977143	36.029358
780.393458	36.244308
780.809743	36.455358
781.225999	36.648301
781.642226	36.816860
782.058425	36.970109
782.474594	37.102709
782.890734	37.209102
783.306845	37.300596
783.722926	37.358719
784.138979	37.383530
784.555003	37.390247
784.970997	37.373682
785.386962	37.327264
785.802898	37.261023
786.218805	37.167900
786.634682	37.051517
787.050531	36.922087
787.466349	36.765600
787.882139	36.612908
788.297899	36.441161
788.713630	36.275978
789.129332	36.112076
789.545004	35.943948
789.960647	35.792445
790.376260	35.654511
790.791844	35.535512
791.207399	35.425617
791.622924	35.346304
792.038419	35.288406
792.453885	35.256463
792.869321	35.254560
793.284728	35.273057
793.700106	35.320430
794.115453	35.409599
794.530771	35.525091
794.946060	35.670544
795.361319	35.833136
795.776548	36.018404
796.191747	36.218988
796.606917	36.439245
797.022057	36.675272
797.437167	36.908361
797.852248	37.144086
798.267298	37.386129
798.682319	37.625199
799.097310	37.848852
799.512271	38.061139
799.927203	38.252542
800.342104	38.433661
800.756976	38.579353
801.171818	38.707654
801.586629	38.801234
802.001411	38.861344
802.416163	38.899878
802.830885	38.904280
803.245577	38.884450
803.660238	38.819201
804.074870	38.721011
804.489472	38.596351
804.904043	38.441499
805.318585	38.247142
805.733096	38.037814
806.147577	37.804060
806.562028	37.535981
806.976449	37.246264
807.390840	36.940649
807.805200	36.618961
808.219530	36.277689
808.633830	35.919354
809.048100	35.556844
809.462339	35.192674
809.876548	34.817882
810.290727	34.452015
810.704875	34.079987
811.118993	33.712571
811.533080	33.355532
811.947137	33.009106
812.361164	32.664267
812.775160	32.342893
813.189126	32.023635
813.603061	31.726731
814.016966	31.452986
814.430840	31.198683
814.844684	30.969197
815.258497	30.750430
815.672280	30.556901
816.086032	30.375767
816.499753	30.234748
816.913444	30.104316
817.327104	29.997657
817.740733	29.912099
818.154331	29.855284
818.567899	29.818468
818.981436	29.811608
819.394943	29.820076
819.808418	29.848474
820.221863	29.888031
820.635277	29.944597
821.048660	30.020434
821.462013	30.118935
821.875334	30.219655
822.288625	30.338332
822.701884	30.470539
823.115113	30.603920
823.528311	30.753123
823.941478	30.899849
824.354614	31.041457
824.767718	31.188342
825.180792	31.341800
825.593835	31.474416
826.006847	31.597429
826.419827	31.709158
826.832777	31.801158
827.245695	31.865314
827.658582	31.909587
828.071438	31.943981
828.484263	31.945476
828.897057	31.928213
829.309819	31.878194
829.722551	31.812720
830.135251	31.716426
830.547919	31.601536
830.960557	31.460481
831.373163	31.287955
831.785738	31.086168
832.198281	30.887283
832.610793	30.673053
833.023274	30.456385
833.435723	30.235574
833.848141	30.024014
834.260528	29.821167
834.672883	29.632274
835.085206	29.442331
835.497498	29.264165
835.909758	29.113057
836.321987	28.976109
836.734185	28.866285
837.146350	28.798853
837.558485	28.741241
837.970587	28.700578
838.382658	28.708625
838.794697	28.749684
839.206705	28.816862
839.618681	28.906432
840.030625	29.029180
840.442538	29.187493
840.854418	29.358603
841.266267	29.566240
841.678084	29.788410
842.089870	30.032259
842.501623	30.299410
842.913345	30.580649
843.325035	30.862033
843.736693	31.170643
844.148319	31.496285
844.559913	31.826818
844.971475	32.164560
845.383005	32.500893
845.794504	32.834472
846.205970	33.165767
846.617404	33.471715
847.028806	33.759864
847.440176	34.028509
847.851514	34.288256
848.262820	34.530680
848.674094	34.751670
849.085336	34.950784
849.496546	35.119397
849.907723	35.222859
850.318868	35.329980
850.729981	35.421022
851.141062	35.458021
851.552110	35.474143
851.963127	35.458023
852.374111	35.416289
852.785062	35.351825
853.195982	35.248799
853.606869	35.142189
854.017723	35.002994
854.428546	34.857898
854.839336	34.688959
855.250093	34.491060
855.660818	34.287422
856.071511	34.083378
856.482171	33.852710
856.892799	33.627868
857.303394	33.400772
857.713956	33.146292
858.124486	32.895159
858.534984	32.666943
858.945449	32.413487
859.355881	32.178857
859.766280	31.942278
860.176647	31.716960
860.586982	31.495276
860.997283	31.278933
861.407552	31.065873
861.817789	30.868333
862.227992	30.668583
862.638163	30.496219
863.048301	30.307900
863.458406	30.117751
863.868478	29.943616
864.278518	29.781415
864.688524	29.626069
865.098498	29.485358
865.508439	29.363029
865.918347	29.248757
866.328222	29.137657
866.738064	29.040442
867.147873	28.942578
867.557649	28.862115
867.967392	28.823092
868.377102	28.778627
868.786779	28.762774
869.196423	28.763636
869.606034	28.778435
870.015612	28.808756
870.425156	28.866710
870.834668	28.965675
871.244146	29.061430
871.653591	29.184909
872.063003	29.321794
872.472382	29.474640
872.881728	29.655246
873.291040	29.854510
873.700319	30.055372
874.109564	30.273573
874.518777	30.485713
874.927956	30.709600
875.337102	30.948199
875.746214	31.203380
876.155293	31.464891
876.564338	31.734210
876.973350	31.997947
877.382329	32.270455
877.791274	32.531874
878.200186	32.794448
878.609064	33.037737
879.017909	33.299892
879.426720	33.525524
879.835497	33.760842
880.244241	33.981904
880.652952	34.178343
881.061629	34.377285
881.470272	34.547129
881.878881	34.698816
882.287457	34.818627
882.695999	34.921582
883.104507	35.031538
883.512982	35.073152
883.921423	35.117118
884.329830	35.145601
884.738203	35.166638
885.146543	35.159996
885.554849	35.128596
885.963120	35.075395
886.371358	35.026126
886.779563	34.953933
887.187733	34.902980
887.595869	34.835949
888.003971	34.765265
888.412040	34.692463
888.820074	34.619500
889.228074	34.544717
889.636041	34.463035
890.043973	34.386921
890.451871	34.337544
890.859736	34.276714
891.267566	34.239793
891.675362	34.187433
892.083124	34.181086
892.490851	34.168924
892.898545	34.164204
893.306204	34.176948
893.713829	34.198987
894.121420	34.232705
894.528977	34.274176
894.936499	34.339845
895.343987	34.431463
895.751441	34.497502
896.158860	34.621300
896.566246	34.732928
896.973596	34.848869
897.380913	34.986620
897.788195	35.136945
898.195442	35.277368
898.602655	35.443286
899.009834	35.621885
899.416978	35.812611
899.824088	35.976062
900.231163	36.157275
900.638204	36.336272
901.045210	36.520263
901.452181	36.677992
901.859118	36.855061
902.266021	37.043526
902.672888	37.199200
903.079721	37.349471
903.486520	37.483753
903.893283	37.610459
904.300012	37.718137
904.706707	37.817171
905.113366	37.888157
905.519991	37.947649
905.926581	37.988735
906.333136	38.003295
906.739656	37.996950
907.146142	37.989863
907.552592	37.936243
907.959008	37.856246
908.365389	37.778982
908.771735	37.661963
909.178046	37.535005
909.584322	37.402953
909.990563	37.230232
910.396769	37.056509
910.802940	36.887596
911.209076	36.697479
911.615177	36.476920
912.021243	36.256060
912.427274	36.024333
912.833270	35.797515
913.239231	35.550033
913.645156	35.281342
914.051046	35.033690
914.456902	34.777478
914.862721	34.508783
915.268506	34.261289
915.674256	34.005205
916.079970	33.769160
916.485649	33.536326
916.891292	33.290454
917.296901	33.056496
917.702474	32.836299
918.108011	32.625993
918.513514	32.421675
918.918980	32.241604
919.324412	32.075433
919.729808	31.909852
920.135169	31.792055
920.540494	31.688193
920.945783	31.592633
921.351037	31.509725
921.756256	31.461461
922.161439	31.413812
922.566586	31.398281
922.971698	31.381994
923.376775	31.400433
923.781815	31.423536
924.186820	31.457829
924.591790	31.512643
924.996723	31.582599
925.401621	31.648650
925.806484	31.732044
926.211310	31.835248
926.616101	31.951370
927.020856	32.037834
927.425575	32.123559
927.830259	32.233092
928.234906	32.344748
928.639518	32.433205
929.044094	32.523122
929.448634	32.633958
929.853138	32.717166
930.257606	32.817722
930.662038	32.912851
931.066434	32.978870
931.470795	33.035244
931.875119	33.094012
932.279407	33.141125
932.683659	33.158051
933.087875	33.172307
933.492055	33.171174
933.896199	33.163021
934.300307	33.099636
934.704379	33.079739
935.108414	32.985310
935.512414	32.904141
935.916377	32.799494
936.320304	32.690784
936.724195	32.565735
937.128049	32.410432
937.531867	32.263906
937.935649	32.104028
938.339395	31.935434
938.743104	31.761788
939.146777	31.597887
939.550414	31.434071
939.954014	31.262586
940.357578	31.082991
940.761105	30.908673
941.164596	30.755108
941.568050	30.603006
941.971468	30.486047
942.374850	30.376922
942.778195	30.279561
943.181503	30.154654
943.584775	30.074657
943.988010	29.995005
944.391209	29.925100
944.794371	29.867660
945.197496	29.824949
945.600585	29.786623
946.003637	29.770031
946.406653	29.785980
946.809632	29.832861
947.212574	29.838225
947.615479	29.900586
948.018347	29.960703
948.421179	30.017795
948.823974	30.054857
949.226732	30.138622
949.629453	30.219907
950.032138	30.307523
950.434785	30.379790
950.837396	30.453288
951.239969	30.523696
951.642506	30.565384
952.045006	30.632362
952.447469	30.685437
952.849895	30.741432
953.252283	30.783488
953.654635	30.814144
954.056950	30.839415
954.459227	30.795218
954.861468	30.771145
955.263671	30.691022
955.665838	30.659188
956.067967	30.601747
956.470059	30.535751
956.872114	30.447454
957.274131	30.343309
957.676112	30.242665
958.078055	30.150831
958.479961	30.030992
958.881829	29.836168
959.283661	29.630435
959.685455	29.463941
960.087211	29.280408
960.488931	29.091200
960.890613	28.873076
961.292257	28.668398
961.693864	28.450192
962.095434	28.226586
962.496966	27.981571
962.898461	27.775315
963.299918	27.596005
963.701338	27.385729
964.102720	27.175532
964.504065	26.979822
964.905372	26.822925
965.306641	26.624765
965.707873	26.442244
966.109068	26.274459
966.510224	26.090547
966.911343	25.936330
967.312425	25.796372
967.713468	25.696551
968.114474	25.567950
968.515442	25.426331
968.916373	25.343552
969.317265	25.238436
969.718120	25.184409
970.118937	25.108248
970.519716	25.006627
970.920458	24.920670
971.321161	24.927477
971.721827	24.909616
972.122454	24.863455
972.523044	24.823482
972.923596	24.827902
973.324110	24.820630
973.724585	24.813686
974.125023	24.824013
974.525423	24.854262
974.925785	24.925449
975.326108	24.922184
975.726394	24.905039
976.126642	24.926045
976.526851	24.933035
976.927022	24.968703
977.327155	24.998104
977.727250	25.027399
978.127307	25.060411
978.527325	25.097412
978.927306	25.117951
979.327248	25.202256
979.727151	25.222477
980.127017	25.280410
980.526844	25.302203
980.926633	25.403546
981.326383	25.386948
981.726095	25.450279
982.125769	25.475230
982.525404	25.549575
982.925001	25.577900
983.324560	25.625116
983.724079	25.632413
984.123561	25.710032
984.523004	25.789309
984.922408	25.849609
985.321774	25.836785
985.721102	25.926563
986.120390	26.039278
986.519641	26.125377
986.918852	26.216608
987.318025	26.264483
987.717159	26.352058
988.116255	26.522482
988.515312	26.609886
988.914330	26.751288
989.313310	26.833843
989.712250	26.958945
990.111152	27.130124
990.510015	27.302217
990.908840	27.408004
991.307625	27.585073
991.706372	27.716022
992.105080	27.901349
992.503749	28.020714
992.902379	28.221233
993.300970	28.361715
993.699522	28.643508
994.098035	28.781863
994.496510	28.983630
994.894945	29.094378
995.293341	29.340064
995.691698	29.595885
996.090016	29.700483
996.488296	29.827222
996.886535	30.035320
997.284736	30.256705
997.682898	30.511547
998.081021	30.722514
998.479104	30.883549
998.877148	31.103991
999.275153	31.313262
999.673119	31.544351
1000.071046	31.867538
1000.468933	32.019023
1000.866781	32.222693
1001.264590	32.457710
1001.662359	32.720762
1002.060089	32.949414
1002.457780	33.191701
1002.855431	33.361899
1003.253043	33.706081
1003.650615	33.974615
1004.048148	34.247088
1004.445642	34.494046
1004.843096	34.787253
1005.240511	35.133756
1005.637886	35.320278
1006.035221	35.561436
1006.432517	35.944755
1006.829774	36.245563
1007.226991	36.665564
1007.624168	36.998684
1008.021306	37.345733
1008.418404	37.895393
1008.815462	38.474197
1009.212481	38.823750
1009.609460	39.388835
1010.006399	39.987103
1010.403298	40.405584
1010.800158	41.003397
1011.196978	41.378940
1011.593758	41.865976
1011.990498	42.241379
1012.387199	42.812884
1012.783860	43.293962
1013.180480	43.948456
1013.577061	44.457877
1013.973602	45.186447
1014.370103	45.745976
1014.766564	46.078988
1015.162985	46.529025
1015.559366	46.759918
1015.955708	47.348200
1016.352009	47.662727
1016.748270	48.019802
1017.144491	48.485450
1017.540671	48.703079
1017.936812	49.310306
1018.332913	49.738282
1018.728973	50.227906
1019.124994	50.831643
1019.520974	51.357630
1019.916914	51.811368
1020.312814	52.207748
