Time1=100ms:Average1=5:Objective=10X:Aperture=1: (11/21/2018 11:36:10 AM)
11/21/2018 11:36:10 AM
Reflectance
10X
Ap#: 1
Avg1: 5.000000
Avg2: 0.000000
Int.Time1:100.000000

350.166136	65.773752
350.601937	65.886920
351.037728	66.314184
351.473509	66.976650
351.909281	67.204792
352.345042	68.068599
352.780794	68.173451
353.216536	68.851455
353.652267	69.002558
354.087989	68.969041
354.523701	69.156971
354.959403	69.316909
355.395095	69.631369
355.830777	69.697279
356.266449	70.505360
356.702110	70.284788
357.137762	70.506162
357.573404	70.615968
358.009035	70.400328
358.444656	70.747740
358.880268	71.234568
359.315869	71.695003
359.751459	71.644244
360.187040	72.142122
360.622610	72.309914
361.058170	71.879188
361.493720	72.318018
361.929260	72.473652
362.364789	72.290767
362.800308	72.185703
363.235816	72.417345
363.671314	72.799097
364.106802	72.785135
364.542279	73.280722
364.977746	73.406888
365.413203	73.775067
365.848649	73.050305
366.284084	73.076529
366.719509	72.497949
367.154924	72.338022
367.590328	72.044222
368.025721	72.368960
368.461104	72.275197
368.896477	72.097071
369.331838	72.358722
369.767189	71.234405
370.202530	71.285612
370.637859	70.895673
371.073178	71.315710
371.508486	71.658893
371.943784	71.627246
372.379071	71.441606
372.814347	71.626157
373.249612	71.626298
373.684866	71.386729
374.120110	71.162602
374.555343	71.178553
374.990565	71.197020
375.425776	70.888241
375.860976	70.858525
376.296165	70.601269
376.731343	70.658383
377.166511	70.391960
377.601667	70.613552
378.036812	70.647814
378.471946	70.696373
378.907070	70.309073
379.342182	70.362261
379.777283	70.305503
380.212373	70.112203
380.647452	70.490506
381.082520	70.090873
381.517576	69.569935
381.952622	69.725864
382.387656	70.388107
382.822679	70.327918
383.257691	70.653588
383.692692	70.675568
384.127681	70.703633
384.562659	69.725864
384.997626	69.535898
385.432581	68.947161
385.867525	69.192168
386.302458	69.376163
386.737379	69.190831
387.172289	68.986103
387.607188	68.958819
388.042075	68.929961
388.476951	68.506083
388.911815	68.887376
389.346668	69.025601
389.781509	69.203713
390.216338	69.069745
390.651157	69.406482
391.085963	69.527266
391.520758	69.211196
391.955541	69.271497
392.390313	69.004767
392.825073	69.046693
393.259821	69.086995
393.694558	69.285995
394.129283	68.863036
394.563996	69.408993
394.998698	69.554920
395.433388	69.490196
395.868066	68.764001
396.302732	68.578675
396.737386	68.628977
397.172029	68.416966
397.606659	68.237229
398.041278	67.890527
398.475885	67.895089
398.910480	68.115735
399.345063	67.658590
399.779634	67.150278
400.214194	66.276983
400.648741	65.402241
401.083276	64.282859
401.517799	62.983235
401.952310	61.575139
402.386809	59.839276
402.821296	57.979321
403.255771	56.040827
403.690234	53.964796
404.124684	51.614827
404.559123	49.103285
404.993549	47.011464
405.427963	44.578215
405.862365	42.690578
406.296754	41.058286
406.731131	39.365651
407.165496	37.895294
407.599849	36.466784
408.034190	35.121147
408.468518	33.743814
408.902833	32.615394
409.337137	31.623372
409.771428	30.703399
410.205706	29.748679
410.639973	28.971557
411.074226	28.351965
411.508467	27.732619
411.942696	27.196215
412.376912	26.753238
412.811116	26.443686
413.245307	26.120660
413.679486	25.978627
414.113652	25.723551
414.547805	25.503744
414.981946	25.309439
415.416074	25.191360
415.850190	25.082211
416.284293	25.015721
416.718383	24.999499
417.152460	24.992321
417.586525	25.003456
418.020577	25.080389
418.454616	25.130510
418.888643	25.202523
419.322656	25.172627
419.756657	25.122730
420.190645	25.135419
420.624620	25.122004
421.058582	25.116269
421.492531	25.099470
421.926468	25.171658
422.360391	25.221172
422.794301	25.346092
423.228199	25.507124
423.662083	25.683263
424.095955	25.906077
424.529813	26.092473
424.963658	26.323265
425.397491	26.517793
425.831310	26.658674
426.265116	26.805745
426.698909	26.905788
427.132689	27.021606
427.566455	27.218053
428.000209	27.366125
428.433949	27.600010
428.867676	27.785548
429.301389	27.991737
429.735090	28.165870
430.168777	28.293388
430.602451	28.365024
431.036111	28.401071
431.469759	28.459858
431.903392	28.462275
432.337013	28.478308
432.770620	28.540560
433.204213	28.600057
433.637794	28.691377
434.071360	28.835391
434.504914	29.014598
434.938453	29.249482
435.371979	29.465174
435.805492	29.689973
436.238991	29.866675
436.672477	30.030315
437.105949	30.160989
437.539407	30.209788
437.972852	30.263302
438.406283	30.288121
438.839700	30.333267
439.273104	30.397777
439.706494	30.463052
440.139871	30.593677
440.573233	30.717058
441.006582	30.784886
441.439917	30.863872
441.873238	30.857512
442.306546	30.863198
442.739839	30.807970
443.173119	30.740489
443.606385	30.677654
444.039636	30.625889
444.472874	30.600772
444.906099	30.551451
445.339309	30.559598
445.772505	30.590640
446.205687	30.641714
446.638855	30.726162
447.072009	30.797612
447.505149	30.864860
447.938275	30.914831
448.371387	30.941255
448.804485	30.941834
449.237569	30.889335
449.670638	30.819895
450.103694	30.739557
450.536735	30.647334
450.969762	30.566498
451.402774	30.486738
451.835773	30.467980
452.268757	30.443887
452.701727	30.440265
453.134683	30.443695
453.567624	30.425313
454.000551	30.411928
454.433464	30.417982
454.866362	30.388272
455.299246	30.380258
455.732116	30.325321
456.164971	30.288764
456.597811	30.251753
457.030638	30.228191
457.463449	30.206307
457.896246	30.201438
458.329029	30.206398
458.761797	30.231167
459.194551	30.269957
459.627290	30.295539
460.060014	30.345298
460.492724	30.397759
460.925419	30.447258
461.358099	30.519441
461.790765	30.584137
462.223416	30.663901
462.656052	30.742922
463.088674	30.837807
463.521281	30.907075
463.953873	31.003052
464.386450	31.100202
464.819012	31.251249
465.251560	31.409272
465.684093	31.606693
466.116611	31.795308
466.549114	32.020418
466.981602	32.270657
467.414075	32.518381
467.846533	32.754100
468.278977	33.022378
468.711405	33.237150
469.143818	33.462305
469.576216	33.669318
470.008600	33.874245
470.440968	34.044825
470.873321	34.232365
471.305659	34.381053
471.737982	34.559041
472.170289	34.707916
472.602582	34.845308
473.034859	35.020173
473.467122	35.192904
473.899369	35.389178
474.331600	35.602191
474.763817	35.826871
475.196018	36.077094
475.628204	36.347468
476.060375	36.642817
476.492530	36.947392
476.924670	37.236468
477.356795	37.501026
477.788904	37.755133
478.220998	37.948574
478.653076	38.112971
479.085139	38.252541
479.517186	38.390810
479.949219	38.505920
480.381235	38.625926
480.813236	38.753658
481.245221	38.918887
481.677191	39.105333
482.109146	39.299823
482.541084	39.498874
482.973008	39.681439
483.404915	39.841376
483.836807	39.984912
484.268683	40.081187
484.700544	40.148204
485.132388	40.168577
485.564217	40.168774
485.996031	40.152651
486.427828	40.103589
486.859610	40.030538
487.291376	39.937063
487.723126	39.853394
488.154860	39.780103
488.586579	39.718207
489.018281	39.688829
489.449968	39.687704
489.881639	39.726608
490.313293	39.802674
490.744932	39.923727
491.176555	40.042958
491.608162	40.170063
492.039753	40.262309
492.471328	40.326432
492.902886	40.343279
493.334429	40.313233
493.765956	40.255318
494.197466	40.164956
494.628960	40.066661
495.060439	39.958859
495.491901	39.903020
495.923347	39.902174
496.354776	39.941261
496.786190	40.051940
497.217587	40.192692
497.648968	40.384446
498.080332	40.592632
498.511681	40.817674
498.943013	41.037068
499.374328	41.234494
499.805628	41.396897
500.236911	41.554265
500.668177	41.674784
501.099427	41.758587
501.530661	41.821950
501.961878	41.851022
502.393079	41.860013
502.824264	41.872986
503.255431	41.861643
503.686583	41.866477
504.117717	41.899747
504.548835	41.984267
504.979937	42.131819
505.411022	42.332754
505.842090	42.573986
506.273142	42.884388
506.704177	43.245833
507.135195	43.620612
507.566197	44.002303
507.997182	44.361519
508.428150	44.679075
508.859102	44.947823
509.290036	45.150387
509.720954	45.317017
510.151855	45.422624
510.582739	45.530302
511.013607	45.613247
511.444457	45.730703
511.875291	45.870301
512.306107	46.070533
512.736907	46.316130
513.167690	46.637503
513.598456	46.994375
514.029205	47.409167
514.459936	47.852124
514.890651	48.279114
515.321349	48.698646
515.752030	49.063955
516.182693	49.377313
516.613340	49.643948
517.043969	49.853295
517.474582	49.998700
517.905177	50.083640
518.335755	50.091750
518.766315	50.053644
519.196859	49.979766
519.627385	49.884649
520.057894	49.764998
520.488386	49.661271
520.918860	49.569404
521.349318	49.520279
521.779757	49.526931
522.210180	49.587063
522.640585	49.707246
523.070973	49.890343
523.501343	50.108903
523.931696	50.342947
524.362031	50.609929
524.792349	50.853114
525.222650	51.074967
525.652933	51.241829
526.083198	51.374242
526.513446	51.420234
526.943677	51.419333
527.373890	51.373548
527.804085	51.286597
528.234262	51.210902
528.664422	51.162275
529.094565	51.161545
529.524689	51.213264
529.954796	51.337496
530.384885	51.533368
530.814957	51.798060
531.245011	52.139712
531.675047	52.542907
532.105065	52.988954
532.535065	53.480193
532.965048	53.957247
533.395013	54.429393
533.824959	54.875292
534.254888	55.284863
534.684799	55.607270
535.114693	55.878411
535.544568	56.091420
535.974425	56.244439
536.404264	56.329954
536.834086	56.375415
537.263889	56.383671
537.693674	56.369027
538.123441	56.375287
538.553190	56.378888
538.982921	56.430802
539.412634	56.509652
539.842329	56.673761
540.272006	56.883559
540.701664	57.151233
541.131304	57.506605
541.560926	57.909181
541.990530	58.339386
542.420116	58.807947
542.849683	59.283790
543.279232	59.753705
543.708763	60.208127
544.138275	60.629965
544.567769	60.991306
544.997245	61.289859
545.426702	61.548360
545.856141	61.747329
546.285562	61.917356
546.714964	62.057955
547.144347	62.175937
547.573713	62.322538
548.003059	62.509376
548.432387	62.746340
548.861697	63.025615
549.290988	63.382361
549.720260	63.811525
550.149514	64.303347
550.578750	64.875439
551.007966	65.490206
551.437164	66.148072
551.866344	66.836129
552.295504	67.509281
552.724646	68.189030
553.153769	68.826828
553.582874	69.406612
554.011960	69.905129
554.441027	70.304603
554.870075	70.604896
555.299104	70.817092
555.728115	70.915916
556.157106	70.945123
556.586079	70.890773
557.015033	70.787713
557.443968	70.648093
557.872884	70.488833
558.301781	70.338996
558.730659	70.206073
559.159518	70.090907
559.588358	70.026220
560.017180	70.006880
560.445982	70.022040
560.874765	70.073615
561.303528	70.167275
561.732273	70.290314
562.160999	70.424544
562.589705	70.582914
563.018393	70.734037
563.447061	70.886151
563.875710	71.006759
564.304340	71.134247
564.732950	71.222330
565.161542	71.300538
565.590114	71.345956
566.018666	71.372898
566.447200	71.373821
566.875714	71.368441
567.304208	71.370143
567.732684	71.370044
568.161140	71.380070
568.589576	71.426099
569.017993	71.503255
569.446391	71.614561
569.874769	71.785103
570.303128	71.991890
570.731467	72.249053
571.159787	72.568176
571.588087	72.929855
572.016368	73.324736
572.444629	73.748657
572.872870	74.184238
573.301092	74.611911
573.729294	75.040497
574.157476	75.423310
574.585639	75.746463
575.013782	75.981238
575.441906	76.166908
575.870009	76.220647
576.298093	76.196063
576.726157	76.085108
577.154202	75.893826
577.582226	75.634495
578.010231	75.321155
578.438216	74.961282
578.866181	74.587384
579.294126	74.209589
579.722051	73.844849
580.149957	73.510165
580.577842	73.200261
581.005707	72.929136
581.433553	72.699305
581.861378	72.500984
582.289184	72.330012
582.716969	72.169406
583.144734	72.021936
583.572479	71.902312
584.000205	71.793073
584.427910	71.683993
584.855594	71.588209
585.283259	71.507921
585.710904	71.445405
586.138528	71.373079
586.566132	71.317754
586.993716	71.263606
587.421280	71.221318
587.848823	71.199818
588.276346	71.199994
588.703849	71.184474
589.131332	71.199383
589.558794	71.217866
589.986236	71.227716
590.413657	71.253614
590.841058	71.275330
591.268438	71.301819
591.695799	71.346105
592.123138	71.403834
592.550458	71.484433
592.977756	71.586497
593.405034	71.709758
593.832292	71.870643
594.259529	72.053144
594.686746	72.250154
595.113942	72.469946
595.541117	72.703086
595.968272	72.950085
596.395406	73.179555
596.822519	73.379370
597.249612	73.551413
597.676684	73.674682
598.103735	73.741673
598.530766	73.745288
598.957775	73.670344
599.384764	73.541913
599.811733	73.349394
600.238680	73.112562
600.665606	72.838700
601.092512	72.541187
601.519397	72.219264
601.946261	71.906260
602.373104	71.584771
602.799926	71.281815
603.226727	71.013676
603.653507	70.778796
604.080266	70.571211
604.507004	70.395799
604.933721	70.229623
605.360417	70.093678
605.787092	69.954267
606.213746	69.818521
606.640379	69.685011
607.066991	69.531654
607.493581	69.381602
607.920150	69.236790
608.346699	69.088048
608.773226	68.943875
609.199731	68.812566
609.626216	68.707874
610.052679	68.627515
610.479121	68.559478
610.905542	68.530043
611.331941	68.522408
611.758319	68.541390
612.184676	68.599354
612.611011	68.677093
613.037325	68.775196
613.463617	68.890390
613.889888	69.000191
614.316138	69.103496
614.742366	69.203605
615.168573	69.284298
615.594758	69.364934
616.020921	69.437086
616.447063	69.489258
616.873184	69.523202
617.299283	69.552407
617.725360	69.585432
618.151416	69.639310
618.577450	69.679883
619.003462	69.726619
619.429453	69.788225
619.855422	69.857742
620.281369	69.945252
620.707295	70.027249
621.133199	70.093508
621.559081	70.133825
621.984941	70.147019
622.410779	70.120254
622.836596	70.043781
623.262391	69.920672
623.688163	69.737368
624.113914	69.499548
624.539644	69.216926
624.965351	68.872559
625.391036	68.485158
625.816699	68.067971
626.242340	67.627273
626.667960	67.151611
627.093557	66.674307
627.519132	66.198153
627.944685	65.728381
628.370216	65.269328
628.795725	64.813112
629.221212	64.361374
629.646677	63.924032
630.072119	63.487943
630.497540	63.051664
630.922938	62.607280
631.348314	62.153326
631.773668	61.694726
632.198999	61.225427
632.624308	60.747237
633.049595	60.254636
633.474860	59.749710
633.900102	59.236755
634.325322	58.733718
634.750520	58.251471
635.175695	57.796364
635.600848	57.370207
636.025978	56.994907
636.451086	56.659180
636.876171	56.389544
637.301234	56.152200
637.726275	55.975300
638.151293	55.860185
638.576288	55.783464
639.001261	55.756354
639.426211	55.762013
639.851139	55.791903
640.276044	55.838795
640.700927	55.901110
641.125787	55.961732
641.550624	56.026031
641.975438	56.086503
642.400230	56.136344
642.824999	56.175806
643.249745	56.209793
643.674469	56.239909
644.099169	56.257963
644.523847	56.270199
644.948502	56.292773
645.373135	56.314371
645.797744	56.342255
646.222330	56.376499
646.646894	56.431428
647.071435	56.496958
647.495953	56.574856
647.920447	56.641981
648.344919	56.718235
648.769368	56.784691
649.193794	56.830222
649.618197	56.862534
650.042576	56.868425
650.466933	56.872100
650.891267	56.833707
651.315577	56.767412
651.739864	56.672735
652.164129	56.543452
652.588370	56.390629
653.012587	56.235130
653.436782	56.058815
653.860953	55.864085
654.285102	55.655627
654.709226	55.440390
655.133328	55.224538
655.557406	55.004285
655.981461	54.780528
656.405493	54.556805
656.829501	54.316112
657.253486	54.083862
657.677448	53.830391
658.101386	53.572046
658.525301	53.302939
658.949192	53.020137
659.373060	52.722757
659.796904	52.404709
660.220725	52.080508
660.644522	51.734768
661.068296	51.389570
661.492046	51.029386
661.915772	50.677534
662.339475	50.333978
662.763154	50.007087
663.186810	49.701178
663.610442	49.415803
664.034050	49.164173
664.457635	48.952762
664.881196	48.792295
665.304733	48.669206
665.728247	48.594961
666.151736	48.563540
666.575202	48.581893
666.998644	48.651243
667.422062	48.765415
667.845457	48.908058
668.268827	49.082648
668.692174	49.283476
669.115496	49.504943
669.538795	49.733502
669.962070	49.976659
670.385321	50.206459
670.808547	50.425784
671.231750	50.631744
671.654929	50.824051
672.078084	50.988642
672.501214	51.128467
672.924321	51.237100
673.347404	51.325588
673.770462	51.397675
674.193496	51.442060
674.616506	51.467386
675.039492	51.483796
675.462454	51.483276
675.885391	51.462924
676.308305	51.434054
676.731194	51.403175
677.154058	51.361441
677.576899	51.303736
677.999715	51.248481
678.422507	51.196677
678.845274	51.133091
679.268017	51.064017
679.690736	50.986077
680.113430	50.892001
680.536100	50.799991
680.958746	50.699179
681.381367	50.596841
681.803963	50.474630
682.226535	50.360121
682.649083	50.252888
683.071605	50.141579
683.494104	50.037768
683.916578	49.951801
684.339027	49.871397
684.761451	49.803198
685.183851	49.742691
685.606227	49.703655
686.028577	49.671477
686.450903	49.639288
686.873204	49.609551
687.295481	49.590099
687.717733	49.575373
688.139959	49.539478
688.562162	49.487349
688.984339	49.423001
689.406492	49.334678
689.828619	49.225300
690.250722	49.096506
690.672800	48.954221
691.094853	48.780293
691.516881	48.575209
691.938884	48.354683
692.360863	48.109513
692.782816	47.855455
693.204744	47.599717
693.626647	47.340442
694.048526	47.085126
694.470379	46.835884
694.892207	46.617211
695.314010	46.408894
695.735788	46.217361
696.157540	46.057020
696.579268	45.924504
697.000970	45.828693
697.422648	45.760837
697.844300	45.716775
698.265926	45.713796
698.687528	45.722393
699.109104	45.759471
699.530655	45.805983
699.952181	45.874562
700.373681	45.935580
700.795156	46.003244
701.216606	46.086560
701.638030	46.168741
702.059429	46.245728
702.480803	46.311310
702.902151	46.349603
703.323473	46.369484
703.744770	46.359862
704.166042	46.320448
704.587288	46.261672
705.008509	46.175193
705.429704	46.062643
705.850873	45.923984
706.272017	45.753502
706.693135	45.568002
707.114228	45.362236
707.535295	45.136846
707.956336	44.896651
708.377352	44.643080
708.798342	44.379994
709.219306	44.109245
709.640245	43.837229
710.061157	43.555699
710.482044	43.272757
710.902905	42.989610
711.323741	42.703621
711.744550	42.436985
712.165334	42.171123
712.586092	41.919283
713.006823	41.673009
713.427529	41.449599
713.848209	41.236008
714.268863	41.026412
714.689492	40.843959
715.110094	40.685091
715.530670	40.551154
715.951220	40.440879
716.371744	40.354487
716.792242	40.297023
717.212714	40.269697
717.633159	40.264004
718.053579	40.286158
718.473973	40.331321
718.894340	40.393764
719.314681	40.471231
719.734996	40.547909
720.155285	40.620591
720.575547	40.684203
720.995784	40.732102
721.415994	40.768781
721.836177	40.779146
722.256335	40.765717
722.676466	40.721836
723.096570	40.647338
723.516649	40.544117
723.936701	40.406932
724.356726	40.237837
724.776725	40.033933
725.196698	39.806105
725.616644	39.556944
726.036564	39.288569
726.456457	39.010218
726.876324	38.720870
727.296164	38.427716
727.715977	38.128820
728.135764	37.828734
728.555525	37.537298
728.975258	37.251501
729.394966	36.985910
729.814646	36.729739
730.234300	36.490083
730.653927	36.268654
731.073527	36.066340
731.493101	35.889485
731.912648	35.743257
732.332168	35.623666
732.751661	35.534075
733.171128	35.487107
733.590568	35.482370
734.009980	35.521538
734.429366	35.590007
734.848726	35.710281
735.268058	35.865080
735.687363	36.057700
736.106641	36.285857
736.525893	36.546065
736.945117	36.844781
737.364314	37.173427
737.783485	37.526421
738.202628	37.912934
738.621744	38.317228
739.040834	38.742062
739.459896	39.178043
739.878931	39.621508
740.297939	40.077704
740.716919	40.533421
741.135873	40.983170
741.554799	41.422980
741.973698	41.879976
742.392570	42.308557
742.811415	42.726317
743.230232	43.122050
743.649022	43.512732
744.067785	43.871704
744.486521	44.208207
744.905229	44.538389
745.323909	44.849226
745.742563	45.144721
746.161189	45.428620
746.579787	45.700323
746.998358	45.957439
747.416902	46.204059
747.835418	46.438994
748.253907	46.672529
748.672368	46.904095
749.090802	47.138845
749.509208	47.375346
749.927586	47.609383
750.345937	47.843967
750.764261	48.080457
751.182556	48.295821
751.600824	48.527715
752.019065	48.747077
752.437277	48.965256
752.855462	49.174555
753.273620	49.369459
753.691749	49.552762
754.109851	49.730694
754.527925	49.893416
754.945971	50.017283
755.363989	50.127168
755.781980	50.222860
756.199943	50.292754
756.617877	50.327992
757.035784	50.347748
757.453663	50.340156
757.871514	50.278361
758.289337	50.175635
758.707132	50.018580
759.124899	49.817216
759.542639	49.555868
759.960350	49.239410
760.378033	48.878827
760.795688	48.447370
761.213314	47.961649
761.630913	47.422234
762.048484	46.821582
762.466026	46.165257
762.883541	45.465298
763.301027	44.719010
763.718485	43.935844
764.135914	43.136975
764.553316	42.310322
764.970689	41.477777
765.388034	40.636229
765.805351	39.804007
766.222639	38.984543
766.639899	38.171075
767.057131	37.364467
767.474334	36.577671
767.891509	35.829092
768.308655	35.127496
768.725773	34.453504
769.142863	33.834585
769.559924	33.246287
769.976957	32.710613
770.393961	32.213456
770.810936	31.766209
771.227883	31.369458
771.644802	31.026818
772.061692	30.734328
772.478553	30.485445
772.895386	30.285751
773.312190	30.132993
773.728965	30.045825
774.145712	30.007624
774.562430	30.016784
774.979119	30.084295
775.395780	30.197045
775.812411	30.356565
776.229014	30.561424
776.645589	30.813448
777.062134	31.101768
777.478651	31.415649
777.895138	31.767466
778.311597	32.147631
778.728027	32.555811
779.144428	32.970879
779.560800	33.412744
779.977143	33.873023
780.393458	34.337323
780.809743	34.803742
781.225999	35.261294
781.642226	35.721460
782.058425	36.151021
782.474594	36.586502
782.890734	36.991029
783.306845	37.392146
783.722926	37.763186
784.138979	38.111762
784.555003	38.426468
784.970997	38.710699
785.386962	38.979861
785.802898	39.225012
786.218805	39.442320
786.634682	39.638809
787.050531	39.800323
787.466349	39.945841
787.882139	40.061813
788.297899	40.167515
788.713630	40.255705
789.129332	40.342639
789.545004	40.420285
789.960647	40.484594
790.376260	40.555504
790.791844	40.624709
791.207399	40.681343
791.622924	40.739328
792.038419	40.810563
792.453885	40.888110
792.869321	40.968157
793.284728	41.068387
793.700106	41.176951
794.115453	41.300453
794.530771	41.430688
794.946060	41.590355
795.361319	41.754629
795.776548	41.934981
796.191747	42.119064
796.606917	42.299631
797.022057	42.493869
797.437167	42.683450
797.852248	42.868605
798.267298	43.050937
798.682319	43.201639
799.097310	43.333759
799.512271	43.419336
799.927203	43.485371
800.342104	43.503914
800.756976	43.496075
801.171818	43.436681
801.586629	43.334751
802.001411	43.179052
802.416163	42.976037
802.830885	42.750418
803.245577	42.468168
803.660238	42.142426
804.074870	41.806314
804.489472	41.441255
804.904043	41.040959
805.318585	40.608776
805.733096	40.156879
806.147577	39.703310
806.562028	39.229823
806.976449	38.744134
807.390840	38.239549
807.805200	37.729217
808.219530	37.204742
808.633830	36.687346
809.048100	36.158550
809.462339	35.642522
809.876548	35.117908
810.290727	34.613726
810.704875	34.114019
811.118993	33.614626
811.533080	33.143978
811.947137	32.695976
812.361164	32.276794
812.775160	31.871604
813.189126	31.506769
813.603061	31.161819
814.016966	30.854513
814.430840	30.578772
814.844684	30.342373
815.258497	30.141608
815.672280	29.970985
816.086032	29.848387
816.499753	29.770673
816.913444	29.730344
817.327104	29.722318
817.740733	29.756839
818.154331	29.831891
818.567899	29.952829
818.981436	30.105492
819.394943	30.289149
819.808418	30.514216
820.221863	30.781388
820.635277	31.083194
821.048660	31.429579
821.462013	31.804274
821.875334	32.226685
822.288625	32.680394
822.701884	33.177264
823.115113	33.695219
823.528311	34.239843
823.941478	34.824521
824.354614	35.426724
824.767718	36.041084
825.180792	36.675176
825.593835	37.320309
826.006847	37.963434
826.419827	38.605619
826.832777	39.233790
827.245695	39.855508
827.658582	40.431958
828.071438	40.992502
828.484263	41.521388
828.897057	42.009211
829.309819	42.449995
829.722551	42.845408
830.135251	43.196430
830.547919	43.498880
830.960557	43.755249
831.373163	43.954168
831.785738	44.106248
832.198281	44.242278
832.610793	44.332131
833.023274	44.383080
833.435723	44.415733
833.848141	44.426002
834.260528	44.412397
834.672883	44.372024
835.085206	44.329288
835.497498	44.267992
835.909758	44.212176
836.321987	44.156385
836.734185	44.087185
837.146350	44.018894
837.558485	43.987484
837.970587	43.939853
838.382658	43.915748
838.794697	43.900435
839.206705	43.909424
839.618681	43.948963
840.030625	44.005542
840.442538	44.095369
840.854418	44.199451
841.266267	44.319620
841.678084	44.468429
842.089870	44.653905
842.501623	44.847644
842.913345	45.063366
843.325035	45.287115
843.736693	45.523686
844.148319	45.785829
844.559913	46.041269
844.971475	46.292167
845.383005	46.538679
845.794504	46.783438
846.205970	47.008176
846.617404	47.208076
847.028806	47.390449
847.440176	47.559227
847.851514	47.691313
848.262820	47.791691
848.674094	47.853120
849.085336	47.882613
849.496546	47.861333
849.907723	47.810638
850.318868	47.687948
850.729981	47.544616
851.141062	47.363149
851.552110	47.133741
851.963127	46.862109
852.374111	46.560612
852.785062	46.209085
853.195982	45.821956
853.606869	45.398580
854.017723	44.962947
854.428546	44.489893
854.839336	43.986152
855.250093	43.461239
855.660818	42.935705
856.071511	42.388621
856.482171	41.832198
856.892799	41.250165
857.303394	40.687080
857.713956	40.111784
858.124486	39.551978
858.534984	39.001227
858.945449	38.437618
859.355881	37.892439
859.766280	37.364349
860.176647	36.841270
860.586982	36.326685
860.997283	35.839071
861.407552	35.378227
861.817789	34.920549
862.227992	34.507731
862.638163	34.131207
863.048301	33.780924
863.458406	33.458475
863.868478	33.158365
864.278518	32.883456
864.688524	32.657971
865.098498	32.431893
865.508439	32.244760
865.918347	32.111570
866.328222	32.005135
866.738064	31.932937
867.147873	31.903524
867.557649	31.890530
867.967392	31.914527
868.377102	31.958162
868.786779	32.032215
869.196423	32.129855
869.606034	32.277856
870.015612	32.421862
870.425156	32.586161
870.834668	32.768375
871.244146	32.975629
871.653591	33.209195
872.063003	33.467300
872.472382	33.713078
872.881728	33.981765
873.291040	34.267324
873.700319	34.548050
874.109564	34.831732
874.518777	35.124700
874.927956	35.389703
875.337102	35.646248
875.746214	35.875904
876.155293	36.104582
876.564338	36.304037
876.973350	36.506642
877.382329	36.655702
877.791274	36.799713
878.200186	36.928645
878.609064	37.014059
879.017909	37.048383
879.426720	37.056123
879.835497	37.030614
880.244241	36.966894
880.652952	36.880794
881.061629	36.781874
881.470272	36.654055
881.878881	36.509052
882.287457	36.327047
882.695999	36.126358
883.104507	35.923094
883.512982	35.698208
883.921423	35.457361
884.329830	35.202182
884.738203	34.923845
885.146543	34.656600
885.554849	34.369557
885.963120	34.095165
886.371358	33.817245
886.779563	33.547328
887.187733	33.278692
887.595869	33.030925
888.003971	32.784735
888.412040	32.565361
888.820074	32.348659
889.228074	32.169790
889.636041	31.980489
890.043973	31.809380
890.451871	31.677158
890.859736	31.557021
891.267566	31.436662
891.675362	31.386346
892.083124	31.323153
892.490851	31.274151
892.898545	31.255499
893.306204	31.247528
893.713829	31.224540
894.121420	31.226230
894.528977	31.230143
894.936499	31.242030
895.343987	31.271564
895.751441	31.287159
896.158860	31.318070
896.566246	31.353847
896.973596	31.390337
897.380913	31.445876
897.788195	31.497248
898.195442	31.547620
898.602655	31.563629
899.009834	31.592134
899.416978	31.592463
899.824088	31.608711
900.231163	31.620161
900.638204	31.616046
901.045210	31.604689
901.452181	31.578974
901.859118	31.535512
902.266021	31.490545
902.672888	31.447978
903.079721	31.363114
903.486520	31.242074
903.893283	31.131901
904.300012	31.009482
904.706707	30.882314
905.113366	30.750755
905.519991	30.592206
905.926581	30.437565
906.333136	30.280763
906.739656	30.096110
907.146142	29.919475
907.552592	29.739087
907.959008	29.551473
908.365389	29.381924
908.771735	29.180894
909.178046	29.002700
909.584322	28.828740
909.990563	28.624034
910.396769	28.428868
910.802940	28.216634
911.209076	28.027251
911.615177	27.818620
912.021243	27.637554
912.427274	27.451407
912.833270	27.253044
913.239231	27.061754
913.645156	26.861658
914.051046	26.660093
914.456902	26.462924
914.862721	26.270307
915.268506	26.063538
915.674256	25.854874
916.079970	25.689995
916.485649	25.511794
916.891292	25.315730
917.296901	25.131938
917.702474	24.935027
918.108011	24.756204
918.513514	24.590154
918.918980	24.423135
919.324412	24.277035
919.729808	24.123097
920.135169	23.953830
920.540494	23.830099
920.945783	23.688287
921.351037	23.562801
921.756256	23.431232
922.161439	23.314492
922.566586	23.193998
922.971698	23.084165
923.376775	22.983922
923.781815	22.896093
924.186820	22.820244
924.591790	22.726482
924.996723	22.626173
925.401621	22.557317
925.806484	22.471756
926.211310	22.424531
926.616101	22.380050
927.020856	22.319648
927.425575	22.283629
927.830259	22.270292
928.234906	22.244773
928.639518	22.217125
929.044094	22.206808
929.448634	22.195323
929.853138	22.184394
930.257606	22.185902
930.662038	22.196976
931.066434	22.193615
931.470795	22.179177
931.875119	22.189302
932.279407	22.196168
932.683659	22.225171
933.087875	22.205087
933.492055	22.194271
933.896199	22.179488
934.300307	22.174539
934.704379	22.158253
935.108414	22.142927
935.512414	22.141226
935.916377	22.143065
936.320304	22.108938
936.724195	22.074560
937.128049	22.052394
937.531867	22.054694
937.935649	22.014065
938.339395	21.985793
938.743104	21.929930
939.146777	21.867715
939.550414	21.823151
939.954014	21.747856
940.357578	21.648974
940.761105	21.591319
941.164596	21.490557
941.568050	21.408507
941.971468	21.314804
942.374850	21.220385
942.778195	21.120003
943.181503	20.968393
943.584775	20.838506
943.988010	20.744632
944.391209	20.612720
944.794371	20.458262
945.197496	20.304554
945.600585	20.157038
946.003637	20.003569
946.406653	19.866313
946.809632	19.702946
947.212574	19.529080
947.615479	19.381302
948.018347	19.211274
948.421179	19.039445
948.823974	18.874449
949.226732	18.729810
949.629453	18.566626
950.032138	18.390805
950.434785	18.242375
950.837396	18.099106
951.239969	17.936041
951.642506	17.794708
952.045006	17.646912
952.447469	17.518024
952.849895	17.379030
953.252283	17.223619
953.654635	17.101054
954.056950	16.950813
954.459227	16.817695
954.861468	16.683650
955.263671	16.585835
955.665838	16.514709
956.067967	16.430364
956.470059	16.298164
956.872114	16.200731
957.274131	16.122133
957.676112	16.065800
958.078055	15.992810
958.479961	15.967619
958.881829	15.889752
959.283661	15.819859
959.685455	15.764904
960.087211	15.714389
960.488931	15.662462
960.890613	15.629881
961.292257	15.632417
961.693864	15.598027
962.095434	15.579716
962.496966	15.520785
962.898461	15.505291
963.299918	15.455860
963.701338	15.434398
964.102720	15.414781
964.504065	15.419846
964.905372	15.386559
965.306641	15.379177
965.707873	15.378703
966.109068	15.386016
966.510224	15.405691
966.911343	15.443008
967.312425	15.454083
967.713468	15.423482
968.114474	15.403145
968.515442	15.370717
968.916373	15.398021
969.317265	15.377805
969.718120	15.377626
970.118937	15.359110
970.519716	15.357374
970.920458	15.368625
971.321161	15.406525
971.721827	15.414850
972.122454	15.462147
972.523044	15.470294
972.923596	15.451882
973.324110	15.478244
973.724585	15.483635
974.125023	15.475803
974.525423	15.472320
974.925785	15.518135
975.326108	15.472782
975.726394	15.534674
976.126642	15.560553
976.526851	15.568346
976.927022	15.619961
977.327155	15.621079
977.727250	15.646644
978.127307	15.697690
978.527325	15.712259
978.927306	15.690612
979.327248	15.661045
979.727151	15.682747
980.127017	15.710091
980.526844	15.728380
980.926633	15.793262
981.326383	15.805772
981.726095	15.842686
982.125769	15.857560
982.525404	15.901318
982.925001	15.992363
983.324560	15.966691
983.724079	16.024984
984.123561	16.077469
984.523004	16.106788
984.922408	16.164032
985.321774	16.246063
985.721102	16.281789
986.120390	16.324387
986.519641	16.365103
986.918852	16.423791
987.318025	16.468046
987.717159	16.581374
988.116255	16.599986
988.515312	16.684000
988.914330	16.763750
989.313310	16.715156
989.712250	16.890802
990.111152	17.034892
990.510015	17.058034
990.908840	17.234918
991.307625	17.359803
991.706372	17.455513
992.105080	17.612854
992.503749	17.663859
992.902379	17.817835
993.300970	17.969856
993.699522	18.096263
994.098035	18.235506
994.496510	18.398477
994.894945	18.415197
995.293341	18.443247
995.691698	18.531707
996.090016	18.543344
996.488296	18.759211
996.886535	18.910938
997.284736	18.968229
997.682898	19.248966
998.081021	19.386718
998.479104	19.450295
998.877148	19.697898
999.275153	19.808594
999.673119	19.973164
1000.071046	20.111460
1000.468933	20.350353
1000.866781	20.503522
1001.264590	20.828221
1001.662359	21.096372
1002.060089	21.315426
1002.457780	21.453435
1002.855431	21.798704
1003.253043	21.742416
1003.650615	22.026633
1004.048148	22.304284
1004.445642	22.502769
1004.843096	23.007848
1005.240511	23.238891
1005.637886	23.338363
1006.035221	23.513833
1006.432517	23.827863
1006.829774	24.320255
1007.226991	25.017637
1007.624168	25.355751
1008.021306	25.936733
1008.418404	26.338860
1008.815462	26.392560
1009.212481	26.630134
1009.609460	27.161004
1010.006399	27.213777
1010.403298	27.620141
1010.800158	28.201797
1011.196978	28.476628
1011.593758	29.370377
1011.990498	29.914530
1012.387199	30.720542
1012.783860	31.251650
1013.180480	31.919399
1013.577061	32.341144
1013.973602	32.850804
1014.370103	33.216024
1014.766564	33.739130
1015.162985	34.076114
1015.559366	34.897490
1015.955708	35.319985
1016.352009	35.751039
1016.748270	36.107030
1017.144491	36.290503
1017.540671	36.732274
1017.936812	37.289850
1018.332913	38.075370
1018.728973	38.652431
1019.124994	38.577586
1019.520974	38.682376
1019.916914	39.341328
1020.312814	39.596395
