Time1=100ms:Average1=5:Objective=10X:Aperture=1: (11/21/2018 11:37:37 AM)
11/21/2018 11:37:37 AM
Reflectance
10X
Ap#: 1
Avg1: 5.000000
Avg2: 0.000000
Int.Time1:100.000000

350.166136	73.463095
350.601937	74.158869
351.037728	74.407727
351.473509	74.648742
351.909281	74.687786
352.345042	75.040833
352.780794	74.411945
353.216536	74.466565
353.652267	74.710997
354.087989	74.323082
354.523701	74.076342
354.959403	74.081238
355.395095	74.277545
355.830777	74.406279
356.266449	74.384890
356.702110	74.348840
357.137762	74.182707
357.573404	73.895665
358.009035	73.389987
358.444656	73.654478
358.880268	73.559671
359.315869	73.755796
359.751459	73.677724
360.187040	73.614830
360.622610	73.898690
361.058170	74.033605
361.493720	74.155911
361.929260	74.085555
362.364789	73.504010
362.800308	73.520953
363.235816	73.344320
363.671314	73.383952
364.106802	73.360025
364.542279	73.813672
364.977746	74.004949
365.413203	74.064503
365.848649	73.701064
366.284084	73.967831
366.719509	73.923298
367.154924	74.196529
367.590328	74.245061
368.025721	74.324324
368.461104	74.377115
368.896477	74.544337
369.331838	74.395987
369.767189	73.557156
370.202530	73.511692
370.637859	73.544278
371.073178	73.939026
371.508486	74.041777
371.943784	74.033093
372.379071	74.330900
372.814347	74.616089
373.249612	75.259516
373.684866	75.022725
374.120110	74.886168
374.555343	75.053111
374.990565	74.760898
375.425776	74.761090
375.860976	74.959694
376.296165	74.509014
376.731343	74.767011
377.166511	74.763819
377.601667	74.467020
378.036812	73.866827
378.471946	73.623739
378.907070	73.888335
379.342182	74.183917
379.777283	74.475072
380.212373	74.054215
380.647452	73.615506
381.082520	73.389964
381.517576	73.032156
381.952622	73.083035
382.387656	73.391200
382.822679	73.397787
383.257691	74.216795
383.692692	74.451973
384.127681	74.376939
384.562659	73.659118
384.997626	73.790163
385.432581	73.619874
385.867525	73.541277
386.302458	73.616688
386.737379	73.168103
387.172289	72.832257
387.607188	72.503885
388.042075	72.480545
388.476951	72.866180
388.911815	72.904104
389.346668	72.987443
389.781509	73.121641
390.216338	73.080309
390.651157	72.842640
391.085963	73.224794
391.520758	73.311803
391.955541	73.713109
392.390313	73.324253
392.825073	73.083658
393.259821	72.844701
393.694558	73.347758
394.129283	73.066771
394.563996	73.335951
394.998698	73.877430
395.433388	73.725490
395.868066	72.747638
396.302732	72.978246
396.737386	72.676851
397.172029	72.347860
397.606659	72.571594
398.041278	72.371591
398.475885	72.221690
398.910480	71.971972
399.345063	71.224789
399.779634	70.178312
400.214194	69.310075
400.648741	68.519443
401.083276	67.441034
401.517799	65.909581
401.952310	64.047012
402.386809	62.613577
402.821296	60.399644
403.255771	58.699752
403.690234	56.610336
404.124684	54.281361
404.559123	51.624033
404.993549	49.429713
405.427963	46.917985
405.862365	44.486499
406.296754	42.314883
406.731131	40.474883
407.165496	38.711845
407.599849	36.994384
408.034190	35.638718
408.468518	34.193234
408.902833	32.878421
409.337137	31.761265
409.771428	30.601270
410.205706	29.464639
410.639973	28.482458
411.074226	27.611871
411.508467	26.978023
411.942696	26.390974
412.376912	25.911478
412.811116	25.595027
413.245307	25.389481
413.679486	25.172488
414.113652	24.897217
414.547805	24.633028
414.981946	24.454218
415.416074	24.268668
415.850190	24.102282
416.284293	23.984447
416.718383	23.898539
417.152460	23.853951
417.586525	23.870914
418.020577	23.931473
418.454616	23.980654
418.888643	24.050300
419.322656	24.049558
419.756657	24.039794
420.190645	24.045406
420.624620	24.065116
421.058582	24.082841
421.492531	24.066457
421.926468	24.087539
422.360391	24.208923
422.794301	24.340290
423.228199	24.542985
423.662083	24.766341
424.095955	25.008238
424.529813	25.266640
424.963658	25.487694
425.397491	25.703082
425.831310	25.860507
426.265116	25.998548
426.698909	26.105185
427.132689	26.269568
427.566455	26.453684
428.000209	26.660319
428.433949	26.909926
428.867676	27.178495
429.301389	27.423054
429.735090	27.664052
430.168777	27.850171
430.602451	27.970899
431.036111	28.044717
431.469759	28.119998
431.903392	28.176644
432.337013	28.230598
432.770620	28.305278
433.204213	28.424204
433.637794	28.577097
434.071360	28.769205
434.504914	29.005699
434.938453	29.267836
435.371979	29.547612
435.805492	29.804077
436.238991	30.022461
436.672477	30.208982
437.105949	30.387715
437.539407	30.514087
437.972852	30.636063
438.406283	30.752899
438.839700	30.863887
439.273104	31.023102
439.706494	31.170134
440.139871	31.365724
440.573233	31.549714
441.006582	31.750730
441.439917	31.920466
441.873238	32.011200
442.306546	32.076928
442.739839	32.108002
443.173119	32.097405
443.606385	32.068973
444.039636	32.086287
444.472874	32.111867
444.906099	32.151569
445.339309	32.230141
445.772505	32.334667
446.205687	32.488205
446.638855	32.650227
447.072009	32.785664
447.505149	32.913677
447.938275	33.042984
448.371387	33.141280
448.804485	33.190695
449.237569	33.214400
449.670638	33.219520
450.103694	33.200250
450.536735	33.149972
450.969762	33.121893
451.402774	33.053354
451.835773	33.029890
452.268757	33.021388
452.701727	33.021889
453.134683	33.060646
453.567624	33.040374
454.000551	33.013407
454.433464	32.959091
454.866362	32.863946
455.299246	32.797883
455.732116	32.694665
456.164971	32.591112
456.597811	32.496016
457.030638	32.436269
457.463449	32.352071
457.896246	32.291007
458.329029	32.232981
458.761797	32.172445
459.194551	32.122275
459.627290	32.071160
460.060014	32.032550
460.492724	32.011440
460.925419	31.982750
461.358099	31.933525
461.790765	31.900300
462.223416	31.868815
462.656052	31.835083
463.088674	31.801843
463.521281	31.746265
463.953873	31.720682
464.386450	31.706128
464.819012	31.727091
465.251560	31.748915
465.684093	31.788992
466.116611	31.845443
466.549114	31.931724
466.981602	32.056543
467.414075	32.192807
467.846533	32.330191
468.278977	32.488224
468.711405	32.628384
469.143818	32.795678
469.576216	32.960105
470.008600	33.126565
470.440968	33.259311
470.873321	33.402030
471.305659	33.533039
471.737982	33.679360
472.170289	33.829486
472.602582	33.975858
473.034859	34.130253
473.467122	34.291798
473.899369	34.483490
474.331600	34.694902
474.763817	34.944138
475.196018	35.194090
475.628204	35.485621
476.060375	35.785244
476.492530	36.114187
476.924670	36.437408
477.356795	36.754076
477.788904	37.059152
478.220998	37.336462
478.653076	37.594694
479.085139	37.836729
479.517186	38.084407
479.949219	38.307153
480.381235	38.552492
480.813236	38.822401
481.245221	39.124053
481.677191	39.455649
482.109146	39.788066
482.541084	40.123696
482.973008	40.439839
483.404915	40.735507
483.836807	41.021158
484.268683	41.253523
484.700544	41.449530
485.132388	41.621954
485.564217	41.758298
485.996031	41.860863
486.427828	41.939202
486.859610	42.006103
487.291376	42.040236
487.723126	42.066236
488.154860	42.113675
488.586579	42.186166
489.018281	42.269103
489.449968	42.377936
489.881639	42.526853
490.313293	42.729281
490.744932	42.930194
491.176555	43.135837
491.608162	43.338398
492.039753	43.514330
492.471328	43.653941
492.902886	43.714640
493.334429	43.737824
493.765956	43.701090
494.197466	43.618132
494.628960	43.521352
495.060439	43.418311
495.491901	43.343348
495.923347	43.319814
496.354776	43.341503
496.786190	43.412398
497.217587	43.495665
497.648968	43.623239
498.080332	43.748553
498.511681	43.874776
498.943013	43.974722
499.374328	44.073230
499.805628	44.120189
500.236911	44.138095
500.668177	44.116856
501.099427	44.070451
501.530661	43.984643
501.961878	43.859093
502.393079	43.718695
502.824264	43.579394
503.255431	43.414564
503.686583	43.244600
504.117717	43.136018
504.548835	43.069246
504.979937	43.065259
505.411022	43.115173
505.842090	43.220262
506.273142	43.404438
506.704177	43.642787
507.135195	43.901147
507.566197	44.178948
507.997182	44.437877
508.428150	44.672502
508.859102	44.871917
509.290036	45.014387
509.720954	45.122613
510.151855	45.193506
510.582739	45.281026
511.013607	45.369695
511.444457	45.489441
511.875291	45.639359
512.306107	45.865723
512.736907	46.141624
513.167690	46.504440
513.598456	46.918135
514.029205	47.379354
514.459936	47.879885
514.890651	48.378299
515.321349	48.877101
515.752030	49.333082
516.182693	49.743420
516.613340	50.112137
517.043969	50.450649
517.474582	50.704665
517.905177	50.888004
518.335755	51.026262
518.766315	51.117208
519.196859	51.171777
519.627385	51.192127
520.057894	51.192431
520.488386	51.207241
520.918860	51.231035
521.349318	51.304728
521.779757	51.425689
522.210180	51.615250
522.640585	51.844169
523.070973	52.133889
523.501343	52.475681
523.931696	52.845169
524.362031	53.224747
524.792349	53.615414
525.222650	53.969915
525.652933	54.271223
526.083198	54.507398
526.513446	54.669392
526.943677	54.746958
527.373890	54.775799
527.804085	54.765884
528.234262	54.736154
528.664422	54.715932
529.094565	54.734281
529.524689	54.802925
529.954796	54.919380
530.384885	55.084790
530.814957	55.320261
531.245011	55.646770
531.675047	56.001086
532.105065	56.407497
532.535065	56.837673
532.965048	57.263414
533.395013	57.660621
533.824959	58.038185
534.254888	58.382718
534.684799	58.640482
535.114693	58.846820
535.544568	58.979026
535.974425	59.059174
536.404264	59.062523
536.834086	59.021472
537.263889	58.944056
537.693674	58.852198
538.123441	58.742594
538.553190	58.644635
538.982921	58.575974
539.412634	58.565468
539.842329	58.615931
540.272006	58.739060
540.701664	58.935018
541.131304	59.189480
541.560926	59.506591
541.990530	59.880918
542.420116	60.299391
542.849683	60.733191
543.279232	61.190787
543.708763	61.642753
544.138275	62.065714
544.567769	62.430608
544.997245	62.758509
545.426702	63.045905
545.856141	63.289240
546.285562	63.510777
546.714964	63.717915
547.144347	63.908695
547.573713	64.109862
548.003059	64.351377
548.432387	64.642325
548.861697	64.982918
549.290988	65.386604
549.720260	65.871836
550.149514	66.432057
550.578750	67.047288
551.007966	67.707671
551.437164	68.419407
551.866344	69.165655
552.295504	69.903360
552.724646	70.636360
553.153769	71.322568
553.582874	71.973454
554.011960	72.535045
554.441027	72.994895
554.870075	73.361282
555.299104	73.624619
555.728115	73.775349
556.157106	73.873655
556.586079	73.880028
557.015033	73.827118
557.443968	73.748834
557.872884	73.639627
558.301781	73.536886
558.730659	73.449900
559.159518	73.384883
559.588358	73.360156
560.017180	73.384812
560.445982	73.448987
560.874765	73.548628
561.303528	73.694055
561.732273	73.870268
562.160999	74.061117
562.589705	74.254347
563.018393	74.461101
563.447061	74.637708
563.875710	74.808175
564.304340	74.977834
564.732950	75.108377
565.161542	75.207891
565.590114	75.279634
566.018666	75.315461
566.447200	75.332313
566.875714	75.310933
567.304208	75.288627
567.732684	75.291140
568.161140	75.295300
568.589576	75.317747
569.017993	75.360373
569.446391	75.426421
569.874769	75.545368
570.303128	75.707789
570.731467	75.927392
571.159787	76.208826
571.588087	76.538103
572.016368	76.899751
572.444629	77.295762
572.872870	77.705607
573.301092	78.115600
573.729294	78.513129
574.157476	78.888211
574.585639	79.191845
575.013782	79.405828
575.441906	79.553641
575.870009	79.620567
576.298093	79.583317
576.726157	79.470064
577.154202	79.274194
577.582226	79.012325
578.010231	78.704291
578.438216	78.368264
578.866181	78.025408
579.294126	77.689355
579.722051	77.375054
580.149957	77.109677
580.577842	76.870020
581.005707	76.658468
581.433553	76.505054
581.861378	76.388300
582.289184	76.311655
582.716969	76.243238
583.144734	76.192367
583.572479	76.156025
584.000205	76.117176
584.427910	76.082299
584.855594	76.048024
585.283259	76.017497
585.710904	75.986827
586.138528	75.959069
586.566132	75.925562
586.993716	75.893439
587.421280	75.842473
587.848823	75.807161
588.276346	75.789721
588.703849	75.755790
589.131332	75.730673
589.558794	75.701749
589.986236	75.659640
590.413657	75.619722
590.841058	75.571504
591.268438	75.529164
591.695799	75.492166
592.123138	75.466037
592.550458	75.472814
592.977756	75.489259
593.405034	75.542061
593.832292	75.639598
594.259529	75.769842
594.686746	75.923498
595.113942	76.090660
595.541117	76.285264
595.968272	76.498892
596.395406	76.705608
596.822519	76.901939
597.249612	77.076473
597.676684	77.211472
598.103735	77.288579
598.530766	77.311965
598.957775	77.278319
599.384764	77.171946
599.811733	77.020448
600.238680	76.823158
600.665606	76.601201
601.092512	76.364154
601.519397	76.100555
601.946261	75.852553
602.373104	75.597776
602.799926	75.367691
603.226727	75.177155
603.653507	75.018191
604.080266	74.889975
604.507004	74.792467
604.933721	74.710816
605.360417	74.645880
605.787092	74.565128
606.213746	74.488549
606.640379	74.379869
607.066991	74.262948
607.493581	74.134732
607.920150	73.996743
608.346699	73.860699
608.773226	73.720962
609.199731	73.580617
609.626216	73.440874
610.052679	73.328249
610.479121	73.215140
610.905542	73.129562
611.331941	73.064355
611.758319	73.008284
612.184676	72.968698
612.611011	72.960779
613.037325	72.949218
613.463617	72.940244
613.889888	72.931466
614.316138	72.898882
614.742366	72.867475
615.168573	72.812143
615.594758	72.768517
616.020921	72.703152
616.447063	72.634379
616.873184	72.553844
617.299283	72.475759
617.725360	72.407590
618.151416	72.364120
618.577450	72.339971
619.003462	72.347042
619.429453	72.388388
619.855422	72.462960
620.281369	72.551660
620.707295	72.656138
621.133199	72.762693
621.559081	72.873687
621.984941	72.968316
622.410779	73.037009
622.836596	73.080295
623.262391	73.077059
623.688163	73.041409
624.113914	72.962970
624.539644	72.847568
624.965351	72.687297
625.391036	72.501563
625.816699	72.268601
626.242340	72.022352
626.667960	71.763452
627.093557	71.490898
627.519132	71.231305
627.944685	70.967148
628.370216	70.714311
628.795725	70.457749
629.221212	70.203116
629.646677	69.944468
630.072119	69.683147
630.497540	69.408938
630.922938	69.111586
631.348314	68.778347
631.773668	68.429893
632.198999	68.043148
632.624308	67.631202
633.049595	67.197642
633.474860	66.745307
633.900102	66.268207
634.325322	65.781866
634.750520	65.304060
635.175695	64.834973
635.600848	64.391595
636.025978	63.990098
636.451086	63.616614
636.876171	63.287064
637.301234	62.980564
637.726275	62.724761
638.151293	62.519897
638.576288	62.340303
639.001261	62.210986
639.426211	62.108450
639.851139	62.015539
640.276044	61.941442
640.700927	61.878175
641.125787	61.817822
641.550624	61.751324
641.975438	61.677337
642.400230	61.605107
642.824999	61.518926
643.249745	61.421832
643.674469	61.323493
644.099169	61.225137
644.523847	61.133618
644.948502	61.046754
645.373135	60.961914
645.797744	60.888761
646.222330	60.815014
646.646894	60.761780
647.071435	60.726241
647.495953	60.711668
647.920447	60.693545
648.344919	60.686813
648.769368	60.684623
649.193794	60.675866
649.618197	60.659642
650.042576	60.639836
650.466933	60.619808
650.891267	60.574103
651.315577	60.515970
651.739864	60.443518
652.164129	60.345740
652.588370	60.233973
653.012587	60.117626
653.436782	59.996889
653.860953	59.857740
654.285102	59.711277
654.709226	59.559670
655.133328	59.400204
655.557406	59.241550
655.981461	59.083052
656.405493	58.924876
656.829501	58.755078
657.253486	58.578721
657.677448	58.388914
658.101386	58.181039
658.525301	57.969859
658.949192	57.741433
659.373060	57.493929
659.796904	57.216005
660.220725	56.921878
660.644522	56.586172
661.068296	56.239336
661.492046	55.878657
661.915772	55.504657
662.339475	55.128588
662.763154	54.777120
663.186810	54.431746
663.610442	54.111429
664.034050	53.827292
664.457635	53.577512
664.881196	53.382038
665.304733	53.241548
665.728247	53.157392
666.151736	53.139049
666.575202	53.167960
666.998644	53.261023
667.422062	53.412252
667.845457	53.599003
668.268827	53.838332
668.692174	54.106883
669.115496	54.394700
669.538795	54.701690
669.962070	55.010217
670.385321	55.323139
670.808547	55.620072
671.231750	55.907484
671.654929	56.171435
672.078084	56.408328
672.501214	56.617400
672.924321	56.801191
673.347404	56.954061
673.770462	57.095481
674.193496	57.197057
674.616506	57.271842
675.039492	57.332711
675.462454	57.366296
675.885391	57.360171
676.308305	57.337881
676.731194	57.300434
677.154058	57.253212
677.576899	57.179283
677.999715	57.084327
678.422507	56.984830
678.845274	56.859666
679.268017	56.715990
679.690736	56.563748
680.113430	56.381878
680.536100	56.194726
680.958746	56.004138
681.381367	55.802971
681.803963	55.587282
682.226535	55.383564
682.649083	55.177826
683.071605	54.985607
683.494104	54.791271
683.916578	54.618155
684.339027	54.455909
684.761451	54.308159
685.183851	54.162361
685.606227	54.037261
686.028577	53.926383
686.450903	53.816118
686.873204	53.703541
687.295481	53.601426
687.717733	53.489789
688.139959	53.367246
688.562162	53.230779
688.984339	53.095144
689.406492	52.942249
689.828619	52.771417
690.250722	52.565170
690.672800	52.360572
691.094853	52.144907
691.516881	51.880984
691.938884	51.613689
692.360863	51.325212
692.782816	51.035149
693.204744	50.750364
693.626647	50.451446
694.048526	50.170788
694.470379	49.895060
694.892207	49.648298
695.314010	49.420859
695.735788	49.226685
696.157540	49.065196
696.579268	48.942370
697.000970	48.858689
697.422648	48.822828
697.844300	48.826169
698.265926	48.881934
698.687528	48.972653
699.109104	49.097696
699.530655	49.269247
699.952181	49.471334
700.373681	49.699279
700.795156	49.968348
701.216606	50.253227
701.638030	50.550500
702.059429	50.848882
702.480803	51.147170
702.902151	51.428758
703.323473	51.704931
703.744770	51.943628
704.166042	52.147270
704.587288	52.340232
705.008509	52.493729
705.429704	52.613194
705.850873	52.690058
706.272017	52.732556
706.693135	52.739729
707.114228	52.706332
707.535295	52.643864
707.956336	52.537959
708.377352	52.395115
708.798342	52.220785
709.219306	52.016271
709.640245	51.789795
710.061157	51.538750
710.482044	51.257672
710.902905	50.965138
711.323741	50.659618
711.744550	50.346538
712.165334	50.032228
712.586092	49.702133
713.006823	49.389872
713.427529	49.084164
713.848209	48.776142
714.268863	48.473743
714.689492	48.200710
715.110094	47.944481
715.530670	47.709713
715.951220	47.495754
716.371744	47.305786
716.792242	47.145654
717.212714	47.020486
717.633159	46.919436
718.053579	46.845410
718.473973	46.798984
718.894340	46.768654
719.314681	46.745184
719.734996	46.739504
720.155285	46.725826
720.575547	46.708602
720.995784	46.686612
721.415994	46.656649
721.836177	46.606271
722.256335	46.540486
722.676466	46.447572
723.096570	46.332434
723.516649	46.185579
723.936701	46.005971
724.356726	45.789972
724.776725	45.550571
725.196698	45.278406
725.616644	44.991556
726.036564	44.665924
726.456457	44.325267
726.876324	43.967336
727.296164	43.596785
727.715977	43.219694
728.135764	42.832799
728.555525	42.452654
728.975258	42.079461
729.394966	41.719990
729.814646	41.379823
730.234300	41.048173
730.653927	40.746808
731.073527	40.473893
731.493101	40.232624
731.912648	40.025960
732.332168	39.871958
732.751661	39.755527
733.171128	39.696122
733.590568	39.678581
734.009980	39.719628
734.429366	39.810046
734.848726	39.948795
735.268058	40.134874
735.687363	40.364742
736.106641	40.637337
736.525893	40.946251
736.945117	41.287062
737.364314	41.658989
737.783485	42.049663
738.202628	42.462791
738.621744	42.886936
739.040834	43.322831
739.459896	43.756297
739.878931	44.182046
740.297939	44.612175
740.716919	45.022495
741.135873	45.409530
741.554799	45.779892
741.973698	46.128925
742.392570	46.447022
742.811415	46.752522
743.230232	47.023717
743.649022	47.269015
744.067785	47.484767
744.486521	47.674981
744.905229	47.840277
745.323909	47.979846
745.742563	48.099677
746.161189	48.203901
746.579787	48.301907
746.998358	48.383059
747.416902	48.451101
747.835418	48.516792
748.253907	48.579251
748.672368	48.655921
749.090802	48.736100
749.509208	48.828542
749.927586	48.920602
750.345937	49.029344
750.764261	49.152666
751.182556	49.276943
751.600824	49.423883
752.019065	49.579951
752.437277	49.755760
752.855462	49.957098
753.273620	50.157016
753.691749	50.369216
754.109851	50.606170
754.527925	50.830676
754.945971	51.066034
755.363989	51.301207
755.781980	51.513782
756.199943	51.721204
756.617877	51.907496
757.035784	52.069866
757.453663	52.209776
757.871514	52.314925
758.289337	52.363754
758.707132	52.367325
759.124899	52.307154
759.542639	52.188090
759.960350	52.010389
760.378033	51.770458
760.795688	51.459335
761.213314	51.077001
761.630913	50.621591
762.048484	50.106337
762.466026	49.523782
762.883541	48.900313
763.301027	48.213276
763.718485	47.491803
764.135914	46.743996
764.553316	45.955201
764.970689	45.161498
765.388034	44.356009
765.805351	43.547120
766.222639	42.747678
766.639899	41.953908
767.057131	41.160936
767.474334	40.389861
767.891509	39.649131
768.308655	38.935313
768.725773	38.258779
769.142863	37.632641
769.559924	37.042549
769.976957	36.500453
770.393961	35.987346
770.810936	35.522647
771.227883	35.112347
771.644802	34.745322
772.061692	34.434311
772.478553	34.171029
772.895386	33.943773
773.312190	33.760852
773.728965	33.628956
774.145712	33.544462
774.562430	33.503325
774.979119	33.502336
775.395780	33.540951
775.812411	33.616197
776.229014	33.733853
776.645589	33.868311
777.062134	34.037605
777.478651	34.242390
777.895138	34.460197
778.311597	34.686059
778.728027	34.920232
779.144428	35.173335
779.560800	35.435306
779.977143	35.710937
780.393458	35.993027
780.809743	36.270662
781.225999	36.555677
781.642226	36.832433
782.058425	37.089124
782.474594	37.343146
782.890734	37.590934
783.306845	37.834411
783.722926	38.056245
784.138979	38.270898
784.555003	38.467054
784.970997	38.652491
785.386962	38.817239
785.802898	38.976548
786.218805	39.127242
786.634682	39.259659
787.050531	39.383543
787.466349	39.491252
787.882139	39.590869
788.297899	39.698356
788.713630	39.802224
789.129332	39.907317
789.545004	40.026023
789.960647	40.143886
790.376260	40.260668
790.791844	40.400891
791.207399	40.557571
791.622924	40.726462
792.038419	40.911460
792.453885	41.113518
792.869321	41.338489
793.284728	41.589321
793.700106	41.863007
794.115453	42.156056
794.530771	42.481931
794.946060	42.842123
795.361319	43.208911
795.776548	43.575512
796.191747	43.967955
796.606917	44.348085
797.022057	44.738342
797.437167	45.128932
797.852248	45.502496
798.267298	45.863483
798.682319	46.208222
799.097310	46.529324
799.512271	46.814477
799.927203	47.073630
800.342104	47.291201
800.756976	47.479244
801.171818	47.614867
801.586629	47.704963
802.001411	47.758357
802.416163	47.768028
802.830885	47.713874
803.245577	47.625108
803.660238	47.482365
804.074870	47.307884
804.489472	47.100886
804.904043	46.843928
805.318585	46.540889
805.733096	46.194669
806.147577	45.815931
806.562028	45.402455
806.976449	44.952760
807.390840	44.457563
807.805200	43.932780
808.219530	43.392572
808.633830	42.850920
809.048100	42.277079
809.462339	41.709067
809.876548	41.118471
810.290727	40.526388
810.704875	39.949972
811.118993	39.370337
811.533080	38.801039
811.947137	38.242402
812.361164	37.726299
812.775160	37.219569
813.189126	36.742392
813.603061	36.280253
814.016966	35.847408
814.430840	35.451812
814.844684	35.082481
815.258497	34.742124
815.672280	34.450560
816.086032	34.189674
816.499753	33.973799
816.913444	33.800160
817.327104	33.663175
817.740733	33.560599
818.154331	33.495711
818.567899	33.482927
818.981436	33.508032
819.394943	33.567734
819.808418	33.673733
820.221863	33.824059
820.635277	34.012395
821.048660	34.240363
821.462013	34.502111
821.875334	34.794717
822.288625	35.136522
822.701884	35.517090
823.115113	35.920016
823.528311	36.337868
823.941478	36.791006
824.354614	37.259866
824.767718	37.742636
825.180792	38.214834
825.593835	38.698789
826.006847	39.186647
826.419827	39.667845
826.832777	40.135427
827.245695	40.593719
827.658582	41.024812
828.071438	41.440047
828.484263	41.831103
828.897057	42.193597
829.309819	42.521723
829.722551	42.814066
830.135251	43.067806
830.547919	43.297867
830.960557	43.502903
831.373163	43.659705
831.785738	43.793626
832.198281	43.910569
832.610793	44.005109
833.023274	44.069301
833.435723	44.129346
833.848141	44.180997
834.260528	44.224006
834.672883	44.258142
835.085206	44.291470
835.497498	44.328532
835.909758	44.364796
836.321987	44.416899
836.734185	44.486909
837.146350	44.573088
837.558485	44.695288
837.970587	44.823171
838.382658	44.980636
838.794697	45.162722
839.206705	45.356909
839.618681	45.589292
840.030625	45.850691
840.442538	46.140267
840.854418	46.443437
841.266267	46.756594
841.678084	47.096437
842.089870	47.460471
842.501623	47.838000
842.913345	48.211863
843.325035	48.592723
843.736693	48.966078
844.148319	49.349347
844.559913	49.718287
844.971475	50.079652
845.383005	50.432135
845.794504	50.792804
846.205970	51.096339
846.617404	51.374594
847.028806	51.623245
847.440176	51.865864
847.851514	52.072454
848.262820	52.225053
848.674094	52.365290
849.085336	52.460942
849.496546	52.482824
849.907723	52.478568
850.318868	52.398570
850.729981	52.298721
851.141062	52.152990
851.552110	51.951430
851.963127	51.739549
852.374111	51.475974
852.785062	51.148733
853.195982	50.780687
853.606869	50.373812
854.017723	49.965039
854.428546	49.508760
854.839336	49.023930
855.250093	48.502846
855.660818	48.002600
856.071511	47.464367
856.482171	46.918207
856.892799	46.363890
857.303394	45.803044
857.713956	45.227278
858.124486	44.651533
858.534984	44.063866
858.945449	43.491923
859.355881	42.910588
859.766280	42.345162
860.176647	41.774562
860.586982	41.209294
860.997283	40.670413
861.407552	40.145411
861.817789	39.619146
862.227992	39.132062
862.638163	38.660266
863.048301	38.234404
863.458406	37.821968
863.868478	37.427886
864.278518	37.069683
864.688524	36.741928
865.098498	36.441009
865.508439	36.180098
865.918347	35.968925
866.328222	35.786400
866.738064	35.633898
867.147873	35.513782
867.557649	35.433743
867.967392	35.392678
868.377102	35.382099
868.786779	35.412328
869.196423	35.482747
869.606034	35.583501
870.015612	35.726052
870.425156	35.913211
870.834668	36.107995
871.244146	36.337214
871.653591	36.596657
872.063003	36.882386
872.472382	37.188328
872.881728	37.502048
873.291040	37.826952
873.700319	38.152925
874.109564	38.474566
874.518777	38.825197
874.927956	39.172499
875.337102	39.504071
875.746214	39.798164
876.155293	40.097419
876.564338	40.368985
876.973350	40.628699
877.382329	40.836911
877.791274	41.025379
878.200186	41.186612
878.609064	41.306942
879.017909	41.403870
879.426720	41.446160
879.835497	41.461500
880.244241	41.443180
880.652952	41.424607
881.061629	41.349977
881.470272	41.233922
881.878881	41.098707
882.287457	40.948637
882.695999	40.760568
883.104507	40.539643
883.512982	40.305788
883.921423	40.042049
884.329830	39.794380
884.738203	39.525996
885.146543	39.243213
885.554849	38.982589
885.963120	38.720940
886.371358	38.454486
886.779563	38.194068
887.187733	37.929389
887.595869	37.671109
888.003971	37.424975
888.412040	37.221687
888.820074	37.006770
889.228074	36.836774
889.636041	36.668247
890.043973	36.524283
890.451871	36.417001
890.859736	36.308326
891.267566	36.212991
891.675362	36.159895
892.083124	36.119481
892.490851	36.099917
892.898545	36.092416
893.306204	36.068294
893.713829	36.085967
894.121420	36.099194
894.528977	36.119463
894.936499	36.147741
895.343987	36.194643
895.751441	36.240916
896.158860	36.296416
896.566246	36.362205
896.973596	36.412095
897.380913	36.466791
897.788195	36.528907
898.195442	36.568833
898.602655	36.600512
899.009834	36.627945
899.416978	36.672131
899.824088	36.704132
900.231163	36.716130
900.638204	36.724232
901.045210	36.708859
901.452181	36.688118
901.859118	36.653546
902.266021	36.611714
902.672888	36.548957
903.079721	36.457216
903.486520	36.360027
903.893283	36.260901
904.300012	36.127869
904.706707	36.006946
905.113366	35.871685
905.519991	35.708113
905.926581	35.553188
906.333136	35.387329
906.739656	35.215366
907.146142	35.032049
907.552592	34.846525
907.959008	34.635389
908.365389	34.405953
908.771735	34.167382
909.178046	33.942577
909.584322	33.708831
909.990563	33.464585
910.396769	33.214199
910.802940	32.947921
911.209076	32.703312
911.615177	32.438098
912.021243	32.170988
912.427274	31.902295
912.833270	31.643705
913.239231	31.370724
913.645156	31.119285
914.051046	30.864977
914.456902	30.607946
914.862721	30.356243
915.268506	30.134300
915.674256	29.885131
916.079970	29.661275
916.485649	29.433741
916.891292	29.223918
917.296901	29.008636
917.702474	28.802129
918.108011	28.612154
918.513514	28.414795
918.918980	28.210121
919.324412	28.035707
919.729808	27.851984
920.135169	27.642960
920.540494	27.497287
920.945783	27.363523
921.351037	27.228417
921.756256	27.106809
922.161439	26.976556
922.566586	26.851139
922.971698	26.731090
923.376775	26.637828
923.781815	26.533442
924.186820	26.451593
924.591790	26.366306
924.996723	26.284659
925.401621	26.208439
925.806484	26.152429
926.211310	26.079081
926.616101	26.045545
927.020856	25.981192
927.425575	25.934453
927.830259	25.878671
928.234906	25.845583
928.639518	25.821172
929.044094	25.802275
929.448634	25.771218
929.853138	25.742125
930.257606	25.713674
930.662038	25.709788
931.066434	25.705308
931.470795	25.680483
931.875119	25.672646
932.279407	25.684095
932.683659	25.701133
933.087875	25.701267
933.492055	25.696868
933.896199	25.704631
934.300307	25.687635
934.704379	25.696037
935.108414	25.714650
935.512414	25.736149
935.916377	25.727695
936.320304	25.721066
936.724195	25.723149
937.128049	25.711966
937.531867	25.706271
937.935649	25.700806
938.339395	25.673063
938.743104	25.642805
939.146777	25.589348
939.550414	25.546488
939.954014	25.485921
940.357578	25.407680
940.761105	25.343696
941.164596	25.242548
941.568050	25.148783
941.971468	25.041142
942.374850	24.929794
942.778195	24.825163
943.181503	24.659135
943.584775	24.492623
943.988010	24.367323
944.391209	24.216835
944.794371	24.033160
945.197496	23.847087
945.600585	23.645701
946.003637	23.430753
946.406653	23.225076
946.809632	23.030416
947.212574	22.804036
947.615479	22.565819
948.018347	22.325358
948.421179	22.117389
948.823974	21.899507
949.226732	21.695212
949.629453	21.484580
950.032138	21.258838
950.434785	21.046162
950.837396	20.839500
951.239969	20.643668
951.642506	20.436528
952.045006	20.231529
952.447469	20.024565
952.849895	19.847536
953.252283	19.657359
953.654635	19.494384
954.056950	19.318137
954.459227	19.164598
954.861468	19.007196
955.263671	18.833669
955.665838	18.712355
956.067967	18.576338
956.470059	18.465598
956.872114	18.340531
957.274131	18.222273
957.676112	18.162306
958.078055	18.094736
958.479961	18.074882
958.881829	18.009516
959.283661	17.908770
959.685455	17.845973
960.087211	17.795980
960.488931	17.739587
960.890613	17.689207
961.292257	17.638337
961.693864	17.564763
962.095434	17.508379
962.496966	17.452412
962.898461	17.392515
963.299918	17.360552
963.701338	17.332704
964.102720	17.261703
964.504065	17.263486
964.905372	17.205489
965.306641	17.178217
965.707873	17.177649
966.109068	17.123225
966.510224	17.114090
966.911343	17.068686
967.312425	17.048602
967.713468	17.028164
968.114474	16.994270
968.515442	16.985130
968.916373	16.959853
969.317265	16.940815
969.718120	16.938475
970.118937	16.891004
970.519716	16.847639
970.920458	16.776300
971.321161	16.753597
971.721827	16.762244
972.122454	16.775839
972.523044	16.765355
972.923596	16.746479
973.324110	16.733074
973.724585	16.727364
974.125023	16.745645
974.525423	16.738909
974.925785	16.765355
975.326108	16.776672
975.726394	16.754206
976.126642	16.705814
976.526851	16.761750
976.927022	16.744433
977.327155	16.809564
977.727250	16.807787
978.127307	16.789195
978.527325	16.810507
978.927306	16.761313
979.327248	16.782324
979.727151	16.821702
980.127017	16.866008
980.526844	16.889168
980.926633	16.852702
981.326383	16.815310
981.726095	16.818024
982.125769	16.876210
982.525404	16.979632
982.925001	16.979122
983.324560	16.964609
983.724079	16.991830
984.123561	16.973598
984.523004	16.946007
984.922408	16.998841
985.321774	17.037885
985.721102	17.058323
986.120390	17.086737
986.519641	17.078010
986.918852	17.067411
987.318025	17.107943
987.717159	17.150770
988.116255	17.265362
988.515312	17.376847
988.914330	17.398661
989.313310	17.454751
989.712250	17.560861
990.111152	17.636425
990.510015	17.642628
990.908840	17.833841
991.307625	17.919907
991.706372	17.978688
992.105080	18.072677
992.503749	18.114244
992.902379	18.137916
993.300970	18.344746
993.699522	18.397574
994.098035	18.519779
994.496510	18.656457
994.894945	18.589421
995.293341	18.707213
995.691698	18.942741
996.090016	19.078681
996.488296	19.337233
996.886535	19.567682
997.284736	19.662690
997.682898	19.954918
998.081021	20.100605
998.479104	20.204384
998.877148	20.475797
999.275153	20.716545
999.673119	20.920806
1000.071046	21.188911
1000.468933	21.322905
1000.866781	21.405665
1001.264590	21.573620
1001.662359	21.736131
1002.060089	21.787745
1002.457780	21.890188
1002.855431	22.359539
1003.253043	22.322993
1003.650615	22.760971
1004.048148	22.985193
1004.445642	23.266888
1004.843096	23.637941
1005.240511	24.206534
1005.637886	24.346859
1006.035221	24.862486
1006.432517	25.180007
1006.829774	25.499054
1007.226991	25.943563
1007.624168	26.253059
1008.021306	26.580520
1008.418404	26.891557
1008.815462	27.053353
1009.212481	27.308833
1009.609460	27.811629
1010.006399	27.989795
1010.403298	28.456618
1010.800158	29.043557
1011.196978	29.640841
1011.593758	30.248361
1011.990498	30.794005
1012.387199	31.065789
1012.783860	31.608133
1013.180480	32.479508
1013.577061	33.284076
1013.973602	33.898305
1014.370103	34.676151
1014.766564	35.399209
1015.162985	35.595059
1015.559366	36.249558
1015.955708	36.470808
1016.352009	37.086879
1016.748270	37.387198
1017.144491	37.731844
1017.540671	37.597818
1017.936812	38.275818
1018.332913	38.479139
1018.728973	39.316116
1019.124994	39.331897
1019.520974	39.761036
1019.916914	40.451047
1020.312814	41.124608
