Time1=100ms:Average1=5:Objective=10X:Aperture=1: (11/21/2018 2:33:43 PM)
11/21/2018 2:33:43 PM
Reflectance
10X
Ap#: 1
Avg1: 5.000000
Avg2: 0.000000
Int.Time1:100.000000

350.166136	90.209205
350.601937	90.821628
351.037728	90.618567
351.473509	90.833333
351.909281	91.193795
352.345042	91.221487
352.780794	91.057151
353.216536	90.642002
353.652267	90.839770
354.087989	90.664291
354.523701	90.843540
354.959403	90.612970
355.395095	90.828139
355.830777	90.746239
356.266449	90.327998
356.702110	90.253987
357.137762	90.242228
357.573404	90.603567
358.009035	90.927775
358.444656	90.557898
358.880268	90.385554
359.315869	90.877124
359.751459	90.770434
360.187040	90.717423
360.622610	90.794897
361.058170	90.807087
361.493720	90.873251
361.929260	90.780421
362.364789	91.426314
362.800308	91.489362
363.235816	91.549990
363.671314	91.628136
364.106802	91.432225
364.542279	91.573864
364.977746	91.834926
365.413203	92.583424
365.848649	92.029272
366.284084	92.074500
366.719509	92.654754
367.154924	92.396564
367.590328	92.189501
368.025721	91.839148
368.461104	92.165580
368.896477	92.429490
369.331838	91.947566
369.767189	92.393559
370.202530	92.486867
370.637859	92.709163
371.073178	92.477832
371.508486	92.324540
371.943784	92.302344
372.379071	92.222884
372.814347	91.893497
373.249612	92.151623
373.684866	92.139954
374.120110	92.543210
374.555343	93.170345
374.990565	93.202537
375.425776	93.303616
375.860976	93.281296
376.296165	93.606315
376.731343	93.595572
377.166511	93.642765
377.601667	93.681617
378.036812	93.833727
378.471946	93.762318
378.907070	92.895639
379.342182	93.001662
379.777283	93.386891
380.212373	92.899873
380.647452	93.269325
381.082520	93.135527
381.517576	93.263590
381.952622	92.605123
382.387656	92.499520
382.822679	93.255413
383.257691	93.214354
383.692692	93.398743
384.127681	94.043887
384.562659	93.924746
384.997626	93.764761
385.432581	93.742900
385.867525	94.134981
386.302458	93.635588
386.737379	94.025307
387.172289	93.923281
387.607188	93.465478
388.042075	92.992728
388.476951	93.113857
388.911815	92.531979
389.346668	91.678381
389.781509	91.716698
390.216338	91.901507
390.651157	91.937143
391.085963	91.841514
391.520758	91.500328
391.955541	91.336749
392.390313	91.537600
392.825073	91.672876
393.259821	91.280957
393.694558	91.422749
394.129283	91.285846
394.563996	91.504720
394.998698	91.640408
395.433388	91.882177
395.868066	91.153882
396.302732	90.287501
396.737386	90.045607
397.172029	89.664623
397.606659	88.672885
398.041278	88.009735
398.475885	87.552492
398.910480	87.112635
399.345063	86.631349
399.779634	86.083630
400.214194	84.560059
400.648741	83.182716
401.083276	81.618402
401.517799	80.039960
401.952310	77.649064
402.386809	75.568714
402.821296	73.890951
403.255771	71.548189
403.690234	68.661799
404.124684	66.054078
404.559123	63.363671
404.993549	60.858828
405.427963	57.985586
405.862365	55.329645
406.296754	52.646122
406.731131	50.301436
407.165496	48.044607
407.599849	46.052655
408.034190	44.010577
408.468518	42.353595
408.902833	40.805329
409.337137	39.625095
409.771428	38.267046
410.205706	37.013633
410.639973	35.950681
411.074226	34.937708
411.508467	34.165702
411.942696	33.501509
412.376912	32.797228
412.811116	32.288078
413.245307	31.817786
413.679486	31.387372
414.113652	30.956185
414.547805	30.637297
414.981946	30.327515
415.416074	30.138551
415.850190	30.082339
416.284293	29.950709
416.718383	29.857660
417.152460	29.798952
417.586525	29.785974
418.020577	29.793510
418.454616	29.757335
418.888643	29.792591
419.322656	29.864921
419.756657	29.971268
420.190645	30.008943
420.624620	30.119787
421.058582	30.147567
421.492531	30.266289
421.926468	30.393366
422.360391	30.479579
422.794301	30.532053
423.228199	30.658466
423.662083	30.749705
424.095955	30.922512
424.529813	31.081037
424.963658	31.225196
425.397491	31.331579
425.831310	31.474549
426.265116	31.594180
426.698909	31.692969
427.132689	31.842208
427.566455	32.000568
428.000209	32.159080
428.433949	32.299727
428.867676	32.405749
429.301389	32.487506
429.735090	32.542138
430.168777	32.608236
430.602451	32.675084
431.036111	32.726338
431.469759	32.791526
431.903392	32.851059
432.337013	32.917869
432.770620	32.943830
433.204213	32.983247
433.637794	33.064181
434.071360	33.081597
434.504914	33.166430
434.938453	33.232704
435.371979	33.271292
435.805492	33.338119
436.238991	33.394402
436.672477	33.435280
437.105949	33.519165
437.539407	33.495034
437.972852	33.488985
438.406283	33.502800
438.839700	33.489282
439.273104	33.473489
439.706494	33.415288
440.139871	33.399043
440.573233	33.363977
441.006582	33.317506
441.439917	33.245991
441.873238	33.176465
442.306546	33.141170
442.739839	33.057459
443.173119	32.975528
443.606385	32.895238
444.039636	32.812153
444.472874	32.739355
444.906099	32.635998
445.339309	32.556441
445.772505	32.438171
446.205687	32.359728
446.638855	32.249144
447.072009	32.136699
447.505149	32.038665
447.938275	31.913944
448.371387	31.763687
448.804485	31.615799
449.237569	31.450844
449.670638	31.284973
450.103694	31.096998
450.536735	30.906371
450.969762	30.724327
451.402774	30.540582
451.835773	30.306807
452.268757	30.124429
452.701727	29.935196
453.134683	29.757249
453.567624	29.555694
454.000551	29.352628
454.433464	29.148365
454.866362	28.951401
455.299246	28.744097
455.732116	28.515727
456.164971	28.312249
456.597811	28.108906
457.030638	27.883934
457.463449	27.674121
457.896246	27.427694
458.329029	27.187370
458.761797	26.942270
459.194551	26.726499
459.627290	26.500196
460.060014	26.271589
460.492724	26.051705
460.925419	25.833213
461.358099	25.642984
461.790765	25.437158
462.223416	25.225267
462.656052	25.025163
463.088674	24.839435
463.521281	24.655796
463.953873	24.471062
464.386450	24.305098
464.819012	24.146517
465.251560	24.018638
465.684093	23.876846
466.116611	23.759102
466.549114	23.650469
466.981602	23.554493
467.414075	23.465012
467.846533	23.382591
468.278977	23.305314
468.711405	23.241779
469.143818	23.210878
469.576216	23.181177
470.008600	23.159693
470.440968	23.143113
470.873321	23.124786
471.305659	23.131217
471.737982	23.155152
472.170289	23.191650
472.602582	23.218050
473.034859	23.251649
473.467122	23.305954
473.899369	23.366634
474.331600	23.444447
474.763817	23.509458
475.196018	23.603251
475.628204	23.701415
476.060375	23.811906
476.492530	23.903316
476.924670	24.026182
477.356795	24.141622
477.788904	24.274131
478.220998	24.391690
478.653076	24.512849
479.085139	24.640191
479.517186	24.757003
479.949219	24.869748
480.381235	24.976053
480.813236	25.070035
481.245221	25.154747
481.677191	25.251018
482.109146	25.326356
482.541084	25.388753
482.973008	25.451613
483.404915	25.515756
483.836807	25.575903
484.268683	25.637892
484.700544	25.676123
485.132388	25.705498
485.564217	25.729203
485.996031	25.761514
486.427828	25.770426
486.859610	25.775297
487.291376	25.777454
487.723126	25.771963
488.154860	25.770972
488.586579	25.754376
489.018281	25.754846
489.449968	25.749607
489.881639	25.757007
490.313293	25.744509
490.744932	25.733110
491.176555	25.719739
491.608162	25.723323
492.039753	25.738207
492.471328	25.762610
492.902886	25.797941
493.334429	25.846373
493.765956	25.901995
494.197466	25.978647
494.628960	26.059526
495.060439	26.155761
495.491901	26.270864
495.923347	26.380779
496.354776	26.505644
496.786190	26.655778
497.217587	26.830420
497.648968	27.031547
498.080332	27.275129
498.511681	27.550011
498.943013	27.866369
499.374328	28.201478
499.805628	28.582873
500.236911	28.985321
500.668177	29.406271
501.099427	29.850221
501.530661	30.311822
501.961878	30.799193
502.393079	31.294411
502.824264	31.824926
503.255431	32.388494
503.686583	32.969454
504.117717	33.589579
504.548835	34.233949
504.979937	34.886149
505.411022	35.550331
505.842090	36.238076
506.273142	36.938305
506.704177	37.642490
507.135195	38.385963
507.566197	39.128484
507.997182	39.892753
508.428150	40.660938
508.859102	41.462461
509.290036	42.274646
509.720954	43.115187
510.151855	43.974755
510.582739	44.830781
511.013607	45.700516
511.444457	46.565643
511.875291	47.453147
512.306107	48.324460
512.736907	49.203151
513.167690	50.074279
513.598456	50.953295
514.029205	51.838294
514.459936	52.714543
514.890651	53.613758
515.321349	54.517894
515.752030	55.425564
516.182693	56.318506
516.613340	57.186110
517.043969	58.079704
517.474582	58.970591
517.905177	59.867205
518.335755	60.753577
518.766315	61.633438
519.196859	62.495734
519.627385	63.320779
520.057894	64.143144
520.488386	64.936454
520.918860	65.733646
521.349318	66.523955
521.779757	67.307240
522.210180	68.065557
522.640585	68.840033
523.070973	69.575791
523.501343	70.281367
523.931696	70.991262
524.362031	71.665487
524.792349	72.344533
525.222650	72.988394
525.652933	73.634487
526.083198	74.272336
526.513446	74.896718
526.943677	75.501540
527.373890	76.091575
527.804085	76.696089
528.234262	77.264718
528.664422	77.822553
529.094565	78.352631
529.524689	78.872245
529.954796	79.393828
530.384885	79.859738
530.814957	80.296418
531.245011	80.706832
531.675047	81.111287
532.105065	81.505950
532.535065	81.878086
532.965048	82.271238
533.395013	82.660158
533.824959	83.023245
534.254888	83.376124
534.684799	83.741310
535.114693	84.099352
535.544568	84.457893
535.974425	84.785997
536.404264	85.125904
536.834086	85.443458
537.263889	85.741457
537.693674	86.034458
538.123441	86.314903
538.553190	86.569705
538.982921	86.798461
539.412634	87.005109
539.842329	87.193809
540.272006	87.385683
540.701664	87.568638
541.131304	87.724544
541.560926	87.873515
541.990530	88.018958
542.420116	88.193013
542.849683	88.342912
543.279232	88.490489
543.708763	88.654008
544.138275	88.806374
544.567769	88.959681
544.997245	89.090161
545.426702	89.220652
545.856141	89.341257
546.285562	89.454393
546.714964	89.544846
547.144347	89.648295
547.573713	89.742804
548.003059	89.836849
548.432387	89.917331
548.861697	90.014305
549.290988	90.085905
549.720260	90.167036
550.149514	90.252574
550.578750	90.335973
551.007966	90.434870
551.437164	90.514310
551.866344	90.616224
552.295504	90.715574
552.724646	90.811558
553.153769	90.924698
553.582874	91.025268
554.011960	91.122880
554.441027	91.218843
554.870075	91.313041
555.299104	91.395249
555.728115	91.452848
556.157106	91.533206
556.586079	91.583807
557.015033	91.625885
557.443968	91.645513
557.872884	91.664270
558.301781	91.711717
558.730659	91.716784
559.159518	91.738360
559.588358	91.755853
560.017180	91.764053
560.445982	91.771658
560.874765	91.776350
561.303528	91.787982
561.732273	91.790894
562.160999	91.788093
562.589705	91.815262
563.018393	91.821641
563.447061	91.836422
563.875710	91.861718
564.304340	91.886014
564.732950	91.918094
565.161542	91.936176
565.590114	91.979645
566.018666	92.033966
566.447200	92.086358
566.875714	92.139857
567.304208	92.201169
567.732684	92.261750
568.161140	92.329915
568.589576	92.389440
569.017993	92.449212
569.446391	92.474912
569.874769	92.512791
570.303128	92.548608
570.731467	92.589995
571.159787	92.622271
571.588087	92.619986
572.016368	92.643606
572.444629	92.636229
572.872870	92.622650
573.301092	92.611258
573.729294	92.577855
574.157476	92.547419
574.585639	92.475047
575.013782	92.404574
575.441906	92.328361
575.870009	92.246136
576.298093	92.166341
576.726157	92.064965
577.154202	91.934291
577.582226	91.788487
578.010231	91.637531
578.438216	91.483937
578.866181	91.311128
579.294126	91.122238
579.722051	90.918848
580.149957	90.709142
580.577842	90.487723
581.005707	90.240327
581.433553	89.988688
581.861378	89.740368
582.289184	89.471432
582.716969	89.214978
583.144734	88.932248
583.572479	88.657584
584.000205	88.378431
584.427910	88.074240
584.855594	87.782748
585.283259	87.471315
585.710904	87.166192
586.138528	86.848396
586.566132	86.518867
586.993716	86.193356
587.421280	85.836221
587.848823	85.496673
588.276346	85.128324
588.703849	84.735544
589.131332	84.313544
589.558794	83.861486
589.986236	83.379403
590.413657	82.893215
590.841058	82.369608
591.268438	81.816320
591.695799	81.242450
592.123138	80.647227
592.550458	80.030181
592.977756	79.391489
593.405034	78.731876
593.832292	78.056316
594.259529	77.376519
594.686746	76.669172
595.113942	75.948777
595.541117	75.224649
595.968272	74.491193
596.395406	73.759652
596.822519	73.005329
597.249612	72.239849
597.676684	71.481993
598.103735	70.691219
598.530766	69.898541
598.957775	69.087916
599.384764	68.278368
599.811733	67.467522
600.238680	66.647708
600.665606	65.834204
601.092512	65.000304
601.519397	64.174023
601.946261	63.340958
602.373104	62.496969
602.799926	61.656792
603.226727	60.831756
603.653507	60.003121
604.080266	59.184020
604.507004	58.374348
604.933721	57.573182
605.360417	56.782641
605.787092	55.999593
606.213746	55.246866
606.640379	54.505828
607.066991	53.780753
607.493581	53.086287
607.920150	52.416177
608.346699	51.761737
608.773226	51.140245
609.199731	50.527816
609.626216	49.949171
610.052679	49.392368
610.479121	48.865953
610.905542	48.359954
611.331941	47.899585
611.758319	47.464328
612.184676	47.072820
612.611011	46.698669
613.037325	46.358992
613.463617	46.036706
613.889888	45.744121
614.316138	45.487878
614.742366	45.265747
615.168573	45.071428
615.594758	44.920150
616.020921	44.812250
616.447063	44.730225
616.873184	44.682743
617.299283	44.674122
617.725360	44.700664
618.151416	44.762580
618.577450	44.850653
619.003462	44.977991
619.429453	45.130769
619.855422	45.334669
620.281369	45.572454
620.707295	45.831371
621.133199	46.121772
621.559081	46.442546
621.984941	46.795171
622.410779	47.182489
622.836596	47.589614
623.262391	48.023219
623.688163	48.477747
624.113914	48.950337
624.539644	49.442879
624.965351	49.949879
625.391036	50.460669
625.816699	50.996311
626.242340	51.533468
626.667960	52.082004
627.093557	52.639468
627.519132	53.200034
627.944685	53.760802
628.370216	54.330371
628.795725	54.914110
629.221212	55.475665
629.646677	56.041074
630.072119	56.605165
630.497540	57.146785
630.922938	57.680108
631.348314	58.197272
631.773668	58.701756
632.198999	59.196022
632.624308	59.654957
633.049595	60.086055
633.474860	60.482593
633.900102	60.867568
634.325322	61.231128
634.750520	61.581154
635.175695	61.888221
635.600848	62.189100
636.025978	62.456170
636.451086	62.724064
636.876171	62.950839
637.301234	63.161726
637.726275	63.351366
638.151293	63.531693
638.576288	63.695050
639.001261	63.842426
639.426211	63.981127
639.851139	64.110947
640.276044	64.224463
640.700927	64.327873
641.125787	64.420755
641.550624	64.499102
641.975438	64.564150
642.400230	64.625862
642.824999	64.672955
643.249745	64.696829
643.674469	64.726261
644.099169	64.750054
644.523847	64.765801
644.948502	64.781739
645.373135	64.775743
645.797744	64.770331
646.222330	64.770886
646.646894	64.769448
647.071435	64.752762
647.495953	64.725638
647.920447	64.687299
648.344919	64.646676
648.769368	64.581260
649.193794	64.534762
649.618197	64.448521
650.042576	64.390178
650.466933	64.329114
650.891267	64.272480
651.315577	64.207965
651.739864	64.141766
652.164129	64.073763
652.588370	64.006074
653.012587	63.940922
653.436782	63.874025
653.860953	63.806479
654.285102	63.733133
654.709226	63.661898
655.133328	63.584922
655.557406	63.518284
655.981461	63.449382
656.405493	63.394365
656.829501	63.347367
657.253486	63.305072
657.677448	63.262291
658.101386	63.224820
658.525301	63.199038
658.949192	63.189179
659.373060	63.171348
659.796904	63.165892
660.220725	63.172697
660.644522	63.189517
661.068296	63.223487
661.492046	63.268829
661.915772	63.339433
662.339475	63.416157
662.763154	63.511181
663.186810	63.619975
663.610442	63.740531
664.034050	63.870961
664.457635	64.014656
664.881196	64.180877
665.304733	64.362961
665.728247	64.549926
666.151736	64.756027
666.575202	64.971486
666.998644	65.199589
667.422062	65.441923
667.845457	65.691788
668.268827	65.950095
668.692174	66.215615
669.115496	66.498613
669.538795	66.787927
669.962070	67.087526
670.385321	67.387865
670.808547	67.714813
671.231750	68.041702
671.654929	68.378649
672.078084	68.735189
672.501214	69.083453
672.924321	69.447675
673.347404	69.819072
673.770462	70.194878
674.193496	70.563363
674.616506	70.943948
675.039492	71.311030
675.462454	71.682005
675.885391	72.052927
676.308305	72.409120
676.731194	72.762200
677.154058	73.107590
677.576899	73.450938
677.999715	73.776835
678.422507	74.081588
678.845274	74.384426
679.268017	74.676446
679.690736	74.965970
680.113430	75.242435
680.536100	75.532418
680.958746	75.824577
681.381367	76.106575
681.803963	76.394255
682.226535	76.676167
682.649083	76.968678
683.071605	77.264149
683.494104	77.568931
683.916578	77.863254
684.339027	78.176728
684.761451	78.486884
685.183851	78.784173
685.606227	79.109152
686.028577	79.427312
686.450903	79.754425
686.873204	80.077047
687.295481	80.420036
687.717733	80.749463
688.139959	81.083451
688.562162	81.425360
688.984339	81.778393
689.406492	82.134951
689.828619	82.488323
690.250722	82.852782
690.672800	83.206417
691.094853	83.573502
691.516881	83.958025
691.938884	84.346950
692.360863	84.734382
692.782816	85.127701
693.204744	85.522449
693.626647	85.910772
694.048526	86.322161
694.470379	86.731925
694.892207	87.136158
695.314010	87.544088
695.735788	87.953114
696.157540	88.346743
696.579268	88.744762
697.000970	89.142568
697.422648	89.536180
697.844300	89.919900
698.265926	90.310819
698.687528	90.696284
699.109104	91.073287
699.530655	91.447155
699.952181	91.819975
700.373681	92.182873
700.795156	92.556193
701.216606	92.943407
701.638030	93.308020
702.059429	93.663616
702.480803	94.027225
702.902151	94.390502
703.323473	94.749168
703.744770	95.098565
704.166042	95.437879
704.587288	95.775259
705.008509	96.104597
705.429704	96.425130
705.850873	96.730915
706.272017	97.024659
706.693135	97.317955
707.114228	97.563614
707.535295	97.822518
707.956336	98.069707
708.377352	98.301453
708.798342	98.522465
709.219306	98.737282
709.640245	98.942045
710.061157	99.145517
710.482044	99.316351
710.902905	99.495417
711.323741	99.660382
711.744550	99.820055
712.165334	99.992902
712.586092	100.159275
713.006823	100.344509
713.427529	100.527593
713.848209	100.701078
714.268863	100.867773
714.689492	101.047320
715.110094	101.224896
715.530670	101.404602
715.951220	101.608460
716.371744	101.807216
716.792242	102.024307
717.212714	102.246088
717.633159	102.476475
718.053579	102.729360
718.473973	102.985039
718.894340	103.260883
719.314681	103.556728
719.734996	103.852959
720.155285	104.174331
720.575547	104.502363
720.995784	104.837514
721.415994	105.187469
721.836177	105.535344
722.256335	105.899245
722.676466	106.257624
723.096570	106.614340
723.516649	106.998639
723.936701	107.387870
724.356726	107.759190
724.776725	108.127623
725.196698	108.486783
725.616644	108.845041
726.036564	109.179322
726.456457	109.504821
726.876324	109.826146
727.296164	110.141243
727.715977	110.447257
728.135764	110.750404
728.555525	111.037122
728.975258	111.291042
729.394966	111.531757
729.814646	111.764462
730.234300	111.981204
730.653927	112.181962
731.073527	112.354558
731.493101	112.518948
731.912648	112.667462
732.332168	112.799159
732.751661	112.905671
733.171128	113.002739
733.590568	113.067925
734.009980	113.118735
734.429366	113.166531
734.848726	113.203655
735.268058	113.223534
735.687363	113.239524
736.106641	113.236473
736.525893	113.205242
736.945117	113.162988
737.364314	113.137828
737.783485	113.091232
738.202628	113.036713
738.621744	112.974770
739.040834	112.902556
739.459896	112.832138
739.878931	112.759887
740.297939	112.662025
740.716919	112.557076
741.135873	112.464339
741.554799	112.357663
741.973698	112.258854
742.392570	112.162709
742.811415	112.066089
743.230232	111.961210
743.649022	111.857199
744.067785	111.751673
744.486521	111.651489
744.905229	111.556397
745.323909	111.453675
745.742563	111.368163
746.161189	111.282544
746.579787	111.218256
746.998358	111.154546
747.416902	111.089094
747.835418	111.032717
748.253907	110.988710
748.672368	110.937709
749.090802	110.900221
749.509208	110.871108
749.927586	110.835982
750.345937	110.822885
750.764261	110.809195
751.182556	110.791937
751.600824	110.770674
752.019065	110.760812
752.437277	110.748333
752.855462	110.733787
753.273620	110.742432
753.691749	110.751942
754.109851	110.736416
754.527925	110.737903
754.945971	110.732588
755.363989	110.710625
755.781980	110.706226
756.199943	110.698790
756.617877	110.682001
757.035784	110.672745
757.453663	110.662412
757.871514	110.636805
758.289337	110.615233
758.707132	110.589450
759.124899	110.552087
759.542639	110.512463
759.960350	110.463934
760.378033	110.416759
760.795688	110.341445
761.213314	110.264444
761.630913	110.192418
762.048484	110.110595
762.466026	110.037350
762.883541	109.955314
763.301027	109.832481
763.718485	109.733621
764.135914	109.630900
764.553316	109.528316
764.970689	109.443007
765.388034	109.326943
765.805351	109.226816
766.222639	109.111045
766.639899	108.978883
767.057131	108.869945
767.474334	108.761496
767.891509	108.651099
768.308655	108.553352
768.725773	108.437166
769.142863	108.350771
769.559924	108.266813
769.976957	108.172157
770.393961	108.088413
770.810936	108.014003
771.227883	107.936631
771.644802	107.871381
772.061692	107.804729
772.478553	107.734328
772.895386	107.687453
773.312190	107.632521
773.728965	107.616920
774.145712	107.599010
774.562430	107.592541
774.979119	107.588450
775.395780	107.597586
775.812411	107.632150
776.229014	107.668168
776.645589	107.715894
777.062134	107.796535
777.478651	107.868813
777.895138	107.930940
778.311597	108.037263
778.728027	108.140362
779.144428	108.270692
779.560800	108.404555
779.977143	108.546489
780.393458	108.665853
780.809743	108.801611
781.225999	108.949860
781.642226	109.098907
782.058425	109.240727
782.474594	109.376228
782.890734	109.516380
783.306845	109.641442
783.722926	109.771886
784.138979	109.898832
784.555003	110.005816
784.970997	110.121135
785.386962	110.215946
785.802898	110.289747
786.218805	110.353959
786.634682	110.385970
787.050531	110.412896
787.466349	110.397006
787.882139	110.363044
788.297899	110.297885
788.713630	110.205559
789.129332	110.107385
789.545004	109.967127
789.960647	109.792215
790.376260	109.620957
790.791844	109.413320
791.207399	109.182562
791.622924	108.933713
792.038419	108.657422
792.453885	108.365752
792.869321	108.052851
793.284728	107.736584
793.700106	107.389290
794.115453	107.031274
794.530771	106.641741
794.946060	106.235789
795.361319	105.811964
795.776548	105.369495
796.191747	104.913273
796.606917	104.429953
797.022057	103.948159
797.437167	103.431572
797.852248	102.905656
798.267298	102.365716
798.682319	101.827072
799.097310	101.289554
799.512271	100.736525
799.927203	100.167025
800.342104	99.605184
800.756976	99.051713
801.171818	98.492951
801.586629	97.944333
802.001411	97.393456
802.416163	96.857548
802.830885	96.339392
803.245577	95.817130
803.660238	95.324452
804.074870	94.824005
804.489472	94.321377
804.904043	93.837283
805.318585	93.373169
805.733096	92.918156
806.147577	92.487149
806.562028	92.058587
806.976449	91.647184
807.390840	91.258893
807.805200	90.884796
808.219530	90.513636
808.633830	90.183525
809.048100	89.843911
809.462339	89.512520
809.876548	89.214509
810.290727	88.926285
810.704875	88.651015
811.118993	88.373500
811.533080	88.120702
811.947137	87.856079
812.361164	87.605467
812.775160	87.354095
813.189126	87.114142
813.603061	86.898651
814.016966	86.690120
814.430840	86.472112
814.844684	86.273760
815.258497	86.080320
815.672280	85.867470
816.086032	85.665489
816.499753	85.471759
816.913444	85.282348
817.327104	85.104950
817.740733	84.916256
818.154331	84.742154
818.567899	84.558866
818.981436	84.350239
819.394943	84.173174
819.808418	83.974241
820.221863	83.775095
820.635277	83.551864
821.048660	83.339629
821.462013	83.080055
821.875334	82.833392
822.288625	82.580251
822.701884	82.288387
823.115113	82.019330
823.528311	81.711035
823.941478	81.410416
824.354614	81.079472
824.767718	80.757780
825.180792	80.401083
825.593835	80.052529
826.006847	79.705881
826.419827	79.300223
826.832777	78.898563
827.245695	78.494689
827.658582	78.047554
828.071438	77.613993
828.484263	77.168153
828.897057	76.707612
829.309819	76.253773
829.722551	75.786916
830.135251	75.320949
830.547919	74.840122
830.960557	74.350077
831.373163	73.868389
831.785738	73.407112
832.198281	72.919296
832.610793	72.450299
833.023274	71.985788
833.435723	71.536129
833.848141	71.102055
834.260528	70.684517
834.672883	70.281227
835.085206	69.878488
835.497498	69.490380
835.909758	69.110112
836.321987	68.758582
836.734185	68.428814
837.146350	68.090485
837.558485	67.756489
837.970587	67.458841
838.382658	67.163551
838.794697	66.854365
839.206705	66.567074
839.618681	66.270634
840.030625	65.997721
840.442538	65.739268
840.854418	65.457844
841.266267	65.204271
841.678084	64.966795
842.089870	64.690129
842.501623	64.447078
842.913345	64.197298
843.325035	63.963355
843.736693	63.753982
844.148319	63.528126
844.559913	63.310126
844.971475	63.119181
845.383005	62.936869
845.794504	62.751807
846.205970	62.597112
846.617404	62.453113
847.028806	62.321431
847.440176	62.205398
847.851514	62.115702
848.262820	62.050917
848.674094	61.978357
849.085336	61.908546
849.496546	61.869069
849.907723	61.857401
850.318868	61.844570
850.729981	61.833800
851.141062	61.839326
851.552110	61.866032
851.963127	61.899635
852.374111	61.940251
852.785062	61.953825
853.195982	61.994786
853.606869	62.054306
854.017723	62.082324
854.428546	62.100677
854.839336	62.136631
855.250093	62.141961
855.660818	62.143729
856.071511	62.159002
856.482171	62.134601
856.892799	62.120719
857.303394	62.092263
857.713956	62.049198
858.124486	61.976334
858.534984	61.891643
858.945449	61.791882
859.355881	61.669153
859.766280	61.556677
860.176647	61.420554
860.586982	61.290251
860.997283	61.148992
861.407552	60.990948
861.817789	60.846855
862.227992	60.686521
862.638163	60.501719
863.048301	60.328397
863.458406	60.146225
863.868478	59.950089
864.278518	59.743068
864.688524	59.540240
865.098498	59.327926
865.508439	59.119519
865.918347	58.912325
866.328222	58.681264
866.738064	58.463673
867.147873	58.230621
867.557649	58.002479
867.967392	57.778347
868.377102	57.556966
868.786779	57.322978
869.196423	57.086758
869.606034	56.856368
870.015612	56.618041
870.425156	56.376650
870.834668	56.140362
871.244146	55.942750
871.653591	55.718329
872.063003	55.488105
872.472382	55.261430
872.881728	55.063937
873.291040	54.832277
873.700319	54.602182
874.109564	54.399325
874.518777	54.186116
874.927956	53.965013
875.337102	53.772690
875.746214	53.557505
876.155293	53.343795
876.564338	53.141296
876.973350	52.938171
877.382329	52.747429
877.791274	52.550113
878.200186	52.354322
878.609064	52.167220
879.017909	51.964428
879.426720	51.779201
879.835497	51.624479
880.244241	51.456547
880.652952	51.298544
881.061629	51.151830
881.470272	50.980013
881.878881	50.844959
882.287457	50.694289
882.695999	50.538669
883.104507	50.391557
883.512982	50.253438
883.921423	50.111737
884.329830	49.996852
884.738203	49.868930
885.146543	49.735305
885.554849	49.591911
885.963120	49.471796
886.371358	49.348159
886.779563	49.218952
887.187733	49.077450
887.595869	48.953380
888.003971	48.806529
888.412040	48.685651
888.820074	48.565299
889.228074	48.446804
889.636041	48.335420
890.043973	48.230153
890.451871	48.147641
890.859736	48.069341
891.267566	47.981386
891.675362	47.924461
892.083124	47.859828
892.490851	47.796414
892.898545	47.730800
893.306204	47.675699
893.713829	47.628257
894.121420	47.601233
894.528977	47.541684
894.936499	47.503941
895.343987	47.477291
895.751441	47.442505
896.158860	47.421611
896.566246	47.378044
896.973596	47.344112
897.380913	47.310553
897.788195	47.280206
898.195442	47.255133
898.602655	47.205426
899.009834	47.143853
899.416978	47.104410
899.824088	47.079297
900.231163	47.032544
900.638204	47.010131
901.045210	46.954311
901.452181	46.904039
901.859118	46.847385
902.266021	46.799471
902.672888	46.741054
903.079721	46.675681
903.486520	46.622191
903.893283	46.558122
904.300012	46.480866
904.706707	46.410260
905.113366	46.323631
905.519991	46.261723
905.926581	46.175013
906.333136	46.058651
906.739656	45.948517
907.146142	45.870313
907.552592	45.760056
907.959008	45.668153
908.365389	45.571386
908.771735	45.449513
909.178046	45.340328
909.584322	45.203528
909.990563	45.065196
910.396769	44.937228
910.802940	44.783795
911.209076	44.658306
911.615177	44.527367
912.021243	44.368611
912.427274	44.219675
912.833270	44.066760
913.239231	43.883723
913.645156	43.741369
914.051046	43.591229
914.456902	43.436020
914.862721	43.287507
915.268506	43.142491
915.674256	42.977046
916.079970	42.812431
916.485649	42.666610
916.891292	42.523058
917.296901	42.367655
917.702474	42.203355
918.108011	42.053101
918.513514	41.907601
918.918980	41.788283
919.324412	41.671526
919.729808	41.555720
920.135169	41.447720
920.540494	41.353671
920.945783	41.250395
921.351037	41.167244
921.756256	41.083722
922.161439	41.017190
922.566586	40.967685
922.971698	40.906020
923.376775	40.865664
923.781815	40.826149
924.186820	40.818726
924.591790	40.823437
924.996723	40.819800
925.401621	40.807040
925.806484	40.867536
926.211310	40.892115
926.616101	40.929452
927.020856	40.972498
927.425575	40.997896
927.830259	41.043220
928.234906	41.112843
928.639518	41.159545
929.044094	41.205222
929.448634	41.279174
929.853138	41.339663
930.257606	41.411473
930.662038	41.447923
931.066434	41.504566
931.470795	41.550804
931.875119	41.581710
932.279407	41.614830
932.683659	41.642306
933.087875	41.637851
933.492055	41.634898
933.896199	41.630174
934.300307	41.590253
934.704379	41.551239
935.108414	41.518187
935.512414	41.479885
935.916377	41.424793
936.320304	41.350324
936.724195	41.283102
937.128049	41.185766
937.531867	41.076327
937.935649	40.996301
938.339395	40.852594
938.743104	40.707399
939.146777	40.600458
939.550414	40.462118
939.954014	40.355187
940.357578	40.200324
940.761105	40.054177
941.164596	39.911417
941.568050	39.759436
941.971468	39.596325
942.374850	39.452327
942.778195	39.308468
943.181503	39.178957
943.584775	39.043601
943.988010	38.899957
944.391209	38.781252
944.794371	38.648471
945.197496	38.540254
945.600585	38.443186
946.003637	38.370382
946.406653	38.259819
946.809632	38.223731
947.212574	38.151832
947.615479	38.081168
948.018347	38.028109
948.421179	37.983933
948.823974	37.922576
949.226732	37.836531
949.629453	37.774743
950.032138	37.736997
950.434785	37.701765
950.837396	37.659592
951.239969	37.642323
951.642506	37.589512
952.045006	37.516390
952.447469	37.436354
952.849895	37.406975
953.252283	37.332654
953.654635	37.267507
954.056950	37.189669
954.459227	37.062189
954.861468	36.946369
955.263671	36.834320
955.665838	36.730704
956.067967	36.622503
956.470059	36.538759
956.872114	36.393059
957.274131	36.230391
957.676112	36.074510
958.078055	35.906192
958.479961	35.723884
958.881829	35.571091
959.283661	35.367746
959.685455	35.184890
960.087211	35.015660
960.488931	34.833498
960.890613	34.631952
961.292257	34.477444
961.693864	34.288679
962.095434	34.084367
962.496966	33.909724
962.898461	33.665838
963.299918	33.464294
963.701338	33.253618
964.102720	33.034559
964.504065	32.865809
964.905372	32.711136
965.306641	32.521018
965.707873	32.339884
966.109068	32.159467
966.510224	31.969509
966.911343	31.838075
967.312425	31.689069
967.713468	31.507735
968.114474	31.364441
968.515442	31.228959
968.916373	31.050691
969.317265	30.961525
969.718120	30.869485
970.118937	30.699561
970.519716	30.595479
970.920458	30.453590
971.321161	30.300691
971.721827	30.180309
972.122454	30.089525
972.523044	29.940404
972.923596	29.829915
973.324110	29.746881
973.724585	29.617543
974.125023	29.552618
974.525423	29.510665
974.925785	29.399761
975.326108	29.381538
975.726394	29.293016
976.126642	29.207968
976.526851	29.143324
976.927022	29.109826
977.327155	29.058820
977.727250	28.911399
978.127307	28.806472
978.527325	28.770727
978.927306	28.750440
979.327248	28.709611
979.727151	28.618679
980.127017	28.623705
980.526844	28.552178
980.926633	28.460757
981.326383	28.383704
981.726095	28.302879
982.125769	28.186222
982.525404	28.168942
982.925001	28.085539
983.324560	28.067286
983.724079	28.015967
984.123561	28.008719
984.523004	27.978282
984.922408	27.970914
985.321774	27.926146
985.721102	27.829668
986.120390	27.837563
986.519641	27.769448
986.918852	27.707892
987.318025	27.744761
987.717159	27.709914
988.116255	27.726136
988.515312	27.783332
988.914330	27.792815
989.313310	27.775927
989.712250	27.672304
990.111152	27.831862
990.510015	27.919340
990.908840	27.927358
991.307625	27.962246
991.706372	27.952158
992.105080	28.001754
992.503749	28.033964
992.902379	28.045291
993.300970	28.103844
993.699522	28.212946
994.098035	28.124468
994.496510	28.243538
994.894945	28.220919
995.293341	28.255290
995.691698	28.390645
996.090016	28.547565
996.488296	28.638498
996.886535	28.614418
997.284736	28.573374
997.682898	28.755345
998.081021	28.845971
998.479104	28.887537
998.877148	29.074056
999.275153	29.392589
999.673119	29.475248
1000.071046	29.587236
1000.468933	29.761254
1000.866781	29.825887
1001.264590	29.971925
1001.662359	29.959823
1002.060089	30.114694
1002.457780	30.088713
1002.855431	30.141554
1003.253043	30.220845
1003.650615	30.378785
1004.048148	30.624216
1004.445642	30.618564
1004.843096	30.696135
1005.240511	30.940196
1005.637886	30.856414
1006.035221	31.027173
1006.432517	31.403814
1006.829774	31.665243
1007.226991	31.977811
1007.624168	32.477865
1008.021306	32.721619
1008.418404	33.005814
1008.815462	33.167973
1009.212481	33.617062
1009.609460	34.202258
1010.006399	34.518818
1010.403298	34.956006
1010.800158	35.531881
1011.196978	35.851550
1011.593758	36.056818
1011.990498	36.398759
1012.387199	36.710471
1012.783860	37.022925
1013.180480	37.430708
1013.577061	37.948787
1013.973602	38.692531
1014.370103	39.598514
1014.766564	40.039077
1015.162985	40.660908
1015.559366	41.171058
1015.955708	41.364964
1016.352009	41.504649
1016.748270	42.399522
1017.144491	42.913260
1017.540671	43.389220
1017.936812	44.345738
1018.332913	44.646284
1018.728973	45.096695
1019.124994	45.322367
1019.520974	46.345726
1019.916914	46.388029
1020.312814	46.794510
