Time1=100ms:Average1=5:Objective=10X:Aperture=1: (11/21/2018 2:08:16 PM)
11/21/2018 2:08:16 PM
Reflectance
10X
Ap#: 1
Avg1: 5.000000
Avg2: 0.000000
Int.Time1:100.000000

350.166136	72.375639
350.601937	72.310949
351.037728	72.257622
351.473509	72.656863
351.909281	72.825447
352.345042	72.607880
352.780794	72.460764
353.216536	72.737165
353.652267	72.895623
354.087989	72.567073
354.523701	72.925721
354.959403	72.589083
355.395095	72.850500
355.830777	72.891924
356.266449	72.821577
356.702110	72.868675
357.137762	73.139159
357.573404	73.280423
358.009035	72.832257
358.444656	72.713011
358.880268	72.571986
359.315869	72.983004
359.751459	72.751271
360.187040	73.411420
360.622610	74.210010
361.058170	74.114173
361.493720	73.960181
361.929260	74.248083
362.364789	74.595022
362.800308	74.606630
363.235816	73.989351
363.671314	73.821938
364.106802	74.326185
364.542279	74.012023
364.977746	74.037230
365.413203	74.225171
365.848649	74.446203
366.284084	74.361007
366.719509	74.400237
367.154924	74.128567
367.590328	74.145573
368.025721	74.019318
368.461104	74.175064
368.896477	74.438397
369.331838	74.167159
369.767189	74.543120
370.202530	74.506889
370.637859	74.691235
371.073178	74.713560
371.508486	74.813340
371.943784	74.791418
372.379071	74.433850
372.814347	74.205681
373.249612	74.218131
373.684866	74.269006
374.120110	74.113580
374.555343	74.334356
374.990565	74.425287
375.425776	74.016840
375.860976	74.103349
376.296165	74.000987
376.731343	74.510773
377.166511	74.769414
377.601667	74.332183
378.036812	74.793144
378.471946	75.098542
378.907070	74.581088
379.342182	74.430652
379.777283	74.674243
380.212373	74.737668
380.647452	74.684040
381.082520	74.872699
381.517576	74.726242
381.952622	74.364427
382.387656	73.719547
382.822679	74.018011
383.257691	73.544570
383.692692	73.423509
384.127681	73.468225
384.562659	73.282153
384.997626	73.264053
385.432581	73.400227
385.867525	74.068441
386.302458	73.707673
386.737379	73.627628
387.172289	73.661223
387.607188	73.482549
388.042075	73.500803
388.476951	73.210075
388.911815	72.968397
389.346668	72.411208
389.781509	72.645403
390.216338	72.558749
390.651157	72.200917
391.085963	71.993256
391.520758	71.998875
391.955541	71.793200
392.390313	72.177645
392.825073	71.823770
393.259821	71.607458
393.694558	71.545017
394.129283	71.517114
394.563996	71.460300
394.998698	71.779425
395.433388	72.126786
395.868066	72.403297
396.302732	71.777280
396.737386	71.849404
397.172029	71.715905
397.606659	71.559845
398.041278	71.340007
398.475885	71.120139
398.910480	70.684289
399.345063	69.803677
399.779634	69.726949
400.214194	68.719583
400.648741	67.588584
401.083276	66.444855
401.517799	64.711289
401.952310	63.019643
402.386809	61.170033
402.821296	59.742693
403.255771	57.537645
403.690234	55.047313
404.124684	53.003446
404.559123	50.516520
404.993549	48.132803
405.427963	45.366642
405.862365	42.857485
406.296754	40.738017
406.731131	38.637635
407.165496	36.487816
407.599849	34.586089
408.034190	32.805042
408.468518	31.107474
408.902833	29.615918
409.337137	28.216081
409.771428	26.851065
410.205706	25.419662
410.639973	24.293581
411.074226	23.223527
411.508467	22.300746
411.942696	21.415461
412.376912	20.708705
412.811116	20.114112
413.245307	19.502394
413.679486	18.939165
414.113652	18.339114
414.547805	17.855648
414.981946	17.371709
415.416074	16.919032
415.850190	16.590309
416.284293	16.209637
416.718383	15.906273
417.152460	15.627964
417.586525	15.345870
418.020577	15.142009
418.454616	14.872529
418.888643	14.693069
419.322656	14.497165
419.756657	14.280571
420.190645	14.021066
420.624620	13.842458
421.058582	13.663254
421.492531	13.440219
421.926468	13.280893
422.360391	13.090792
422.794301	12.967944
423.228199	12.881216
423.662083	12.820687
424.095955	12.752340
424.529813	12.673853
424.963658	12.600415
425.397491	12.523252
425.831310	12.383496
426.265116	12.281062
426.698909	12.159840
427.132689	12.079657
427.566455	12.015242
428.000209	11.951969
428.433949	11.917165
428.867676	11.889087
429.301389	11.841286
429.735090	11.761432
430.168777	11.692033
430.602451	11.612796
431.036111	11.509784
431.469759	11.396441
431.903392	11.305089
432.337013	11.181747
432.770620	11.068732
433.204213	10.990686
433.637794	10.954899
434.071360	10.890434
434.504914	10.851951
434.938453	10.843784
435.371979	10.830050
435.805492	10.832008
436.238991	10.798902
436.672477	10.762354
437.105949	10.725438
437.539407	10.667771
437.972852	10.597063
438.406283	10.572847
438.839700	10.520552
439.273104	10.508712
439.706494	10.479129
440.139871	10.466116
440.573233	10.442848
441.006582	10.424411
441.439917	10.386652
441.873238	10.345700
442.306546	10.316617
442.739839	10.256837
443.173119	10.197881
443.606385	10.142978
444.039636	10.082990
444.472874	10.048435
444.906099	10.025463
445.339309	9.999478
445.772505	9.986803
446.205687	9.996266
446.638855	9.997022
447.072009	9.999500
447.505149	10.011676
447.938275	10.006941
448.371387	10.012333
448.804485	9.999065
449.237569	9.971585
449.670638	9.949027
450.103694	9.920023
450.536735	9.877217
450.969762	9.846421
451.402774	9.824040
451.835773	9.791408
452.268757	9.793504
452.701727	9.791992
453.134683	9.799046
453.567624	9.798289
454.000551	9.812300
454.433464	9.814500
454.866362	9.819102
455.299246	9.798270
455.732116	9.781270
456.164971	9.786684
456.597811	9.798546
457.030638	9.802911
457.463449	9.823419
457.896246	9.841276
458.329029	9.863307
458.761797	9.885286
459.194551	9.928909
459.627290	9.957015
460.060014	9.987906
460.492724	10.024391
460.925419	10.078477
461.358099	10.133704
461.790765	10.173742
462.223416	10.230229
462.656052	10.292242
463.088674	10.347548
463.521281	10.399060
463.953873	10.476370
464.386450	10.561662
464.819012	10.651135
465.251560	10.746118
465.684093	10.839181
466.116611	10.947872
466.549114	11.070987
466.981602	11.198390
467.414075	11.320219
467.846533	11.449488
468.278977	11.577381
468.711405	11.717942
469.143818	11.858449
469.576216	11.983532
470.008600	12.114420
470.440968	12.235092
470.873321	12.354213
471.305659	12.466281
471.737982	12.581712
472.170289	12.709655
472.602582	12.826083
473.034859	12.961828
473.467122	13.096088
473.899369	13.233793
474.331600	13.376534
474.763817	13.547156
475.196018	13.721031
475.628204	13.902426
476.060375	14.087937
476.492530	14.283524
476.924670	14.478699
477.356795	14.659531
477.788904	14.838393
478.220998	15.001650
478.653076	15.158965
479.085139	15.311191
479.517186	15.458647
479.949219	15.584154
480.381235	15.733516
480.813236	15.902166
481.245221	16.078100
481.677191	16.263515
482.109146	16.452018
482.541084	16.625402
482.973008	16.807075
483.404915	16.975181
483.836807	17.129517
484.268683	17.276538
484.700544	17.411586
485.132388	17.533370
485.564217	17.628251
485.996031	17.726626
486.427828	17.803167
486.859610	17.882606
487.291376	17.960470
487.723126	18.040364
488.154860	18.113843
488.586579	18.206484
489.018281	18.308832
489.449968	18.436603
489.881639	18.579202
490.313293	18.732578
490.744932	18.899474
491.176555	19.064222
491.608162	19.241141
492.039753	19.402944
492.471328	19.546418
492.902886	19.665465
493.334429	19.775331
493.765956	19.851908
494.197466	19.913979
494.628960	19.982800
495.060439	20.057714
495.491901	20.138621
495.923347	20.245829
496.354776	20.377695
496.786190	20.537455
497.217587	20.720455
497.648968	20.912381
498.080332	21.124586
498.511681	21.338258
498.943013	21.558469
499.374328	21.760772
499.805628	21.959159
500.236911	22.132135
500.668177	22.285031
501.099427	22.430584
501.530661	22.558659
501.961878	22.671081
502.393079	22.779852
502.824264	22.871824
503.255431	22.976931
503.686583	23.095503
504.117717	23.229890
504.548835	23.385712
504.979937	23.565788
505.411022	23.790147
505.842090	24.054077
506.273142	24.345226
506.704177	24.649771
507.135195	24.985328
507.566197	25.309496
507.997182	25.622651
508.428150	25.918267
508.859102	26.189843
509.290036	26.426336
509.720954	26.632699
510.151855	26.812641
510.582739	26.969378
511.013607	27.138883
511.444457	27.309835
511.875291	27.508805
512.306107	27.734869
512.736907	28.006233
513.167690	28.304662
513.598456	28.638801
514.029205	28.997308
514.459936	29.355538
514.890651	29.725165
515.321349	30.072069
515.752030	30.396591
516.182693	30.684507
516.613340	30.922896
517.043969	31.128436
517.474582	31.295116
517.905177	31.434286
518.335755	31.532834
518.766315	31.594287
519.196859	31.635462
519.627385	31.653369
520.057894	31.676971
520.488386	31.698249
520.918860	31.739003
521.349318	31.808301
521.779757	31.888455
522.210180	32.002333
522.640585	32.154061
523.070973	32.342699
523.501343	32.554109
523.931696	32.795656
524.362031	33.026101
524.792349	33.265319
525.222650	33.477576
525.652933	33.674487
526.083198	33.824928
526.513446	33.948087
526.943677	34.030347
527.373890	34.092865
527.804085	34.148640
528.234262	34.176865
528.664422	34.223972
529.094565	34.294120
529.524689	34.395190
529.954796	34.547818
530.384885	34.729129
530.814957	34.944148
531.245011	35.172044
531.675047	35.436802
532.105065	35.722807
532.535065	36.019520
532.965048	36.323738
533.395013	36.616424
533.824959	36.896699
534.254888	37.154306
534.684799	37.375823
535.114693	37.586713
535.544568	37.774792
535.974425	37.923543
536.404264	38.041941
536.834086	38.135311
537.263889	38.199589
537.693674	38.249378
538.123441	38.276472
538.553190	38.298258
538.982921	38.314348
539.412634	38.346599
539.842329	38.391991
540.272006	38.473287
540.701664	38.578969
541.131304	38.705176
541.560926	38.893398
541.990530	39.129291
542.420116	39.389916
542.849683	39.677406
543.279232	39.969000
543.708763	40.280325
544.138275	40.592627
544.567769	40.905269
544.997245	41.184951
545.426702	41.438270
545.856141	41.654777
546.285562	41.854889
546.714964	42.021271
547.144347	42.167507
547.573713	42.296561
548.003059	42.420110
548.432387	42.552455
548.861697	42.694689
549.290988	42.866493
549.720260	43.074573
550.149514	43.319449
550.578750	43.606728
551.007966	43.949371
551.437164	44.329025
551.866344	44.757074
552.295504	45.211920
552.724646	45.672674
553.153769	46.129306
553.582874	46.560840
554.011960	46.958246
554.441027	47.307433
554.870075	47.587065
555.299104	47.789916
555.728115	47.913963
556.157106	47.984091
556.586079	47.975292
557.015033	47.909390
557.443968	47.791556
557.872884	47.653004
558.301781	47.506085
558.730659	47.358002
559.159518	47.243754
559.588358	47.156498
560.017180	47.123672
560.445982	47.132971
560.874765	47.197428
561.303528	47.319689
561.732273	47.483326
562.160999	47.703276
562.589705	47.962266
563.018393	48.247998
563.447061	48.550812
563.875710	48.869602
564.304340	49.168705
564.732950	49.476412
565.161542	49.748311
565.590114	49.999522
566.018666	50.216033
566.447200	50.407433
566.875714	50.577893
567.304208	50.711307
567.732684	50.821809
568.161140	50.935812
568.589576	51.030128
569.017993	51.142675
569.446391	51.270975
569.874769	51.427486
570.303128	51.631559
570.731467	51.886730
571.159787	52.181293
571.588087	52.529989
572.016368	52.935825
572.444629	53.371460
572.872870	53.825366
573.301092	54.299932
573.729294	54.771818
574.157476	55.227849
574.585639	55.656163
575.013782	56.029293
575.441906	56.331604
575.870009	56.558440
576.298093	56.716776
576.726157	56.794040
577.154202	56.787678
577.582226	56.730295
578.010231	56.598358
578.438216	56.442404
578.866181	56.252278
579.294126	56.068814
579.722051	55.904569
580.149957	55.760640
580.577842	55.673545
581.005707	55.626490
581.433553	55.613404
581.861378	55.654041
582.289184	55.745376
582.716969	55.872833
583.144734	56.045026
583.572479	56.243849
584.000205	56.463948
584.427910	56.703864
584.855594	56.962232
585.283259	57.226100
585.710904	57.493638
586.138528	57.781012
586.566132	58.036330
586.993716	58.294954
587.421280	58.549660
587.848823	58.785859
588.276346	59.012424
588.703849	59.226625
589.131332	59.406186
589.558794	59.568820
589.986236	59.713003
590.413657	59.868778
590.841058	60.006244
591.268438	60.148000
591.695799	60.288337
592.123138	60.458047
592.550458	60.657979
592.977756	60.873760
593.405034	61.129421
593.832292	61.407662
594.259529	61.732396
594.686746	62.083606
595.113942	62.468804
595.541117	62.865908
595.968272	63.283682
596.395406	63.716801
596.822519	64.122512
597.249612	64.510740
597.676684	64.872053
598.103735	65.179261
598.530766	65.435956
598.957775	65.626725
599.384764	65.746087
599.811733	65.829826
600.238680	65.861975
600.665606	65.844556
601.092512	65.782684
601.519397	65.713734
601.946261	65.635796
602.373104	65.568692
602.799926	65.512232
603.226727	65.469714
603.653507	65.428716
604.080266	65.407997
604.507004	65.417094
604.933721	65.441781
605.360417	65.465495
605.787092	65.471277
606.213746	65.471268
606.640379	65.437442
607.066991	65.391417
607.493581	65.322843
607.920150	65.244461
608.346699	65.144570
608.773226	65.037291
609.199731	64.897849
609.626216	64.740675
610.052679	64.594353
610.479121	64.445825
610.905542	64.300221
611.331941	64.165823
611.758319	64.046235
612.184676	63.959057
612.611011	63.900844
613.037325	63.844976
613.463617	63.804485
613.889888	63.778354
614.316138	63.775520
614.742366	63.782679
615.168573	63.784121
615.594758	63.787908
616.020921	63.802380
616.447063	63.825361
616.873184	63.868891
617.299283	63.929240
617.725360	63.995440
618.151416	64.087202
618.577450	64.191422
619.003462	64.331989
619.429453	64.503615
619.855422	64.707596
620.281369	64.943864
620.707295	65.188401
621.133199	65.435563
621.559081	65.709693
621.984941	65.956201
622.410779	66.216267
622.836596	66.456463
623.262391	66.658079
623.688163	66.830200
624.113914	66.977747
624.539644	67.091607
624.965351	67.164536
625.391036	67.199691
625.816699	67.189405
626.242340	67.163389
626.667960	67.110482
627.093557	67.033335
627.519132	66.958176
627.944685	66.862169
628.370216	66.769055
628.795725	66.695522
629.221212	66.592304
629.646677	66.510123
630.072119	66.417850
630.497540	66.314541
630.922938	66.215313
631.348314	66.099973
631.773668	65.977340
632.198999	65.850618
632.624308	65.700503
633.049595	65.539382
633.474860	65.366033
633.900102	65.208644
634.325322	65.055286
634.750520	64.905857
635.175695	64.794946
635.600848	64.718965
636.025978	64.688818
636.451086	64.722614
636.876171	64.807706
637.301234	64.948774
637.726275	65.145336
638.151293	65.402655
638.576288	65.707920
639.001261	66.063891
639.426211	66.467454
639.851139	66.897931
640.276044	67.372046
640.700927	67.855454
641.125787	68.343513
641.550624	68.847880
641.975438	69.340671
642.400230	69.836692
642.824999	70.315293
643.249745	70.775688
643.674469	71.232100
644.099169	71.661839
644.523847	72.094531
644.948502	72.520911
645.373135	72.923300
645.797744	73.326014
646.222330	73.734626
646.646894	74.114597
647.071435	74.480492
647.495953	74.839539
647.920447	75.170741
648.344919	75.472970
648.769368	75.712325
649.193794	75.915124
649.618197	76.052302
650.042576	76.145472
650.466933	76.178013
650.891267	76.154223
651.315577	76.066632
651.739864	75.933173
652.164129	75.741410
652.588370	75.499549
653.012587	75.225996
653.436782	74.913150
653.860953	74.583964
654.285102	74.244879
654.709226	73.894340
655.133328	73.544181
655.557406	73.196541
655.981461	72.856640
656.405493	72.528882
656.829501	72.205198
657.253486	71.904169
657.677448	71.596706
658.101386	71.303919
658.525301	71.030600
658.949192	70.750180
659.373060	70.458752
659.796904	70.178201
660.220725	69.896248
660.644522	69.599759
661.068296	69.318696
661.492046	69.027112
661.915772	68.764841
662.339475	68.522269
662.763154	68.306920
663.186810	68.129156
663.610442	67.976394
664.034050	67.874469
664.457635	67.829370
664.881196	67.852917
665.304733	67.947463
665.728247	68.108445
666.151736	68.337664
666.575202	68.629608
666.998644	68.976453
667.422062	69.381019
667.845457	69.828457
668.268827	70.301470
668.692174	70.812513
669.115496	71.341656
669.538795	71.878741
669.962070	72.418677
670.385321	72.922937
670.808547	73.408615
671.231750	73.851493
671.654929	74.235619
672.078084	74.593899
672.501214	74.887712
672.924321	75.147930
673.347404	75.355057
673.770462	75.535845
674.193496	75.661896
674.616506	75.785725
675.039492	75.884116
675.462454	75.962196
675.885391	76.031441
676.308305	76.084530
676.731194	76.163951
677.154058	76.244247
677.576899	76.343293
677.999715	76.450191
678.422507	76.555548
678.845274	76.676893
679.268017	76.817666
679.690736	76.972549
680.113430	77.126718
680.536100	77.300892
680.958746	77.475987
681.381367	77.667449
681.803963	77.852755
682.226535	78.035969
682.649083	78.224691
683.071605	78.421754
683.494104	78.636677
683.916578	78.859851
684.339027	79.102432
684.761451	79.349525
685.183851	79.598747
685.606227	79.875027
686.028577	80.146833
686.450903	80.431777
686.873204	80.710580
687.295481	80.981898
687.717733	81.233863
688.139959	81.462727
688.562162	81.672464
688.984339	81.858231
689.406492	82.012251
689.828619	82.103517
690.250722	82.162077
690.672800	82.159149
691.094853	82.096833
691.516881	82.003612
691.938884	81.868958
692.360863	81.678335
692.782816	81.462249
693.204744	81.226738
693.626647	80.958402
694.048526	80.705906
694.470379	80.455766
694.892207	80.224115
695.314010	80.024023
695.735788	79.863622
696.157540	79.736621
696.579268	79.666051
697.000970	79.652666
697.422648	79.695714
697.844300	79.807363
698.265926	79.982451
698.687528	80.229900
699.109104	80.526312
699.530655	80.872150
699.952181	81.270946
700.373681	81.726703
700.795156	82.216377
701.216606	82.743844
701.638030	83.291434
702.059429	83.839635
702.480803	84.383992
702.902151	84.929696
703.323473	85.441450
703.744770	85.917066
704.166042	86.358770
704.587288	86.753184
705.008509	87.101824
705.429704	87.413995
705.850873	87.663464
706.272017	87.856064
706.693135	88.025015
707.114228	88.121088
707.535295	88.174842
707.956336	88.194434
708.377352	88.163438
708.798342	88.102989
709.219306	88.017431
709.640245	87.905287
710.061157	87.774729
710.482044	87.611262
710.902905	87.443299
711.323741	87.275548
711.744550	87.086450
712.165334	86.911895
712.586092	86.741122
713.006823	86.579015
713.427529	86.415910
713.848209	86.263952
714.268863	86.124793
714.689492	85.988122
715.110094	85.880857
715.530670	85.794760
715.951220	85.743980
716.371744	85.713937
716.792242	85.728827
717.212714	85.761433
717.633159	85.827725
718.053579	85.915176
718.473973	86.011440
718.894340	86.144058
719.314681	86.291006
719.734996	86.424980
720.155285	86.568308
720.575547	86.698840
720.995784	86.807243
721.415994	86.904329
721.836177	86.969910
722.256335	87.005264
722.676466	87.006626
723.096570	86.956749
723.516649	86.876537
723.936701	86.752575
724.356726	86.552980
724.776725	86.312265
725.196698	86.018521
725.616644	85.672125
726.036564	85.282697
726.456457	84.867228
726.876324	84.420936
727.296164	83.952827
727.715977	83.488461
728.135764	83.010465
728.555525	82.554481
728.975258	82.090759
729.394966	81.666473
729.814646	81.259829
730.234300	80.906540
730.653927	80.597803
731.073527	80.327678
731.493101	80.122321
731.912648	79.968157
732.332168	79.882949
732.751661	79.861453
733.171128	79.900129
733.590568	80.011839
734.009980	80.185979
734.429366	80.437145
734.848726	80.746883
735.268058	81.110337
735.687363	81.522239
736.106641	81.975482
736.525893	82.459686
736.945117	82.964664
737.364314	83.513336
737.783485	84.066553
738.202628	84.632908
738.621744	85.208266
739.040834	85.769275
739.459896	86.320188
739.878931	86.851795
740.297939	87.342174
740.716919	87.795076
741.135873	88.221109
741.554799	88.581346
741.973698	88.910050
742.392570	89.170920
742.811415	89.395842
743.230232	89.555417
743.649022	89.663800
744.067785	89.730136
744.486521	89.737941
744.905229	89.712338
745.323909	89.635860
745.742563	89.532949
746.161189	89.417859
746.579787	89.287034
746.998358	89.152679
747.416902	88.995361
747.835418	88.824200
748.253907	88.672676
748.672368	88.529133
749.090802	88.401525
749.509208	88.298864
749.927586	88.233749
750.345937	88.196931
750.764261	88.201334
751.182556	88.247544
751.600824	88.326098
752.019065	88.466746
752.437277	88.650197
752.855462	88.888290
753.273620	89.169810
753.691749	89.492533
754.109851	89.833779
754.527925	90.217071
754.945971	90.608658
755.363989	91.031229
755.781980	91.472483
756.199943	91.905874
756.617877	92.332953
757.035784	92.744749
757.453663	93.158176
757.871514	93.513287
758.289337	93.853007
758.707132	94.115512
759.124899	94.308462
759.542639	94.429767
759.960350	94.467541
760.378033	94.425319
760.795688	94.298034
761.213314	94.068616
761.630913	93.753664
762.048484	93.352764
762.466026	92.876330
762.883541	92.304275
763.301027	91.650130
763.718485	90.940139
764.135914	90.159096
764.553316	89.335167
764.970689	88.472588
765.388034	87.570270
765.805351	86.650611
766.222639	85.731579
766.639899	84.800226
767.057131	83.896075
767.474334	83.027479
767.891509	82.209483
768.308655	81.436891
768.725773	80.709500
769.142863	80.082782
769.559924	79.509995
769.976957	79.022068
770.393961	78.592758
770.810936	78.256446
771.227883	77.979041
771.644802	77.820513
772.061692	77.729024
772.478553	77.727486
772.895386	77.819397
773.312190	77.988047
773.728965	78.279238
774.145712	78.642626
774.562430	79.082877
774.979119	79.612284
775.395780	80.199479
775.812411	80.868058
776.229014	81.590454
776.645589	82.363002
777.062134	83.196984
777.478651	84.065950
777.895138	84.942035
778.311597	85.857567
778.728027	86.766405
779.144428	87.689788
779.560800	88.603142
779.977143	89.496300
780.393458	90.341247
780.809743	91.155548
781.225999	91.914961
781.642226	92.618518
782.058425	93.234271
782.474594	93.782251
782.890734	94.249206
783.306845	94.633574
783.722926	94.938834
784.138979	95.174068
784.555003	95.297103
784.970997	95.351719
785.386962	95.312565
785.802898	95.179853
786.218805	94.988277
786.634682	94.696251
787.050531	94.369629
787.466349	93.970652
787.882139	93.523400
788.297899	93.063066
788.713630	92.573181
789.129332	92.076271
789.545004	91.594717
789.960647	91.106335
790.376260	90.660083
790.791844	90.254404
791.207399	89.865396
791.622924	89.536770
792.038419	89.241172
792.453885	89.014611
792.869321	88.862993
793.284728	88.783885
793.700106	88.755967
794.115453	88.811912
794.530771	88.919635
794.946060	89.094265
795.361319	89.319851
795.776548	89.584502
796.191747	89.900092
796.606917	90.249298
797.022057	90.601524
797.437167	90.974997
797.852248	91.356968
798.267298	91.752837
798.682319	92.137587
799.097310	92.493194
799.512271	92.821859
799.927203	93.091737
800.342104	93.327956
800.756976	93.502410
801.171818	93.605500
801.586629	93.653362
802.001411	93.635389
802.416163	93.531516
802.830885	93.385587
803.245577	93.152235
803.660238	92.868965
804.074870	92.518630
804.489472	92.082115
804.904043	91.611621
805.318585	91.076594
805.733096	90.507409
806.147577	89.896124
806.562028	89.245946
806.976449	88.569051
807.390840	87.873325
807.805200	87.155083
808.219530	86.426296
808.633830	85.714316
809.048100	84.991514
809.462339	84.263176
809.876548	83.590148
810.290727	82.940479
810.704875	82.314798
811.118993	81.688474
811.533080	81.127500
811.947137	80.599671
812.361164	80.111466
812.775160	79.670825
813.189126	79.285429
813.603061	78.956918
814.016966	78.692564
814.430840	78.461727
814.844684	78.310398
815.258497	78.222312
815.672280	78.190942
816.086032	78.222282
816.499753	78.303371
816.913444	78.445909
817.327104	78.691022
817.740733	78.967940
818.154331	79.313413
818.567899	79.690101
818.981436	80.136147
819.394943	80.640963
819.808418	81.194713
820.221863	81.783256
820.635277	82.415798
821.048660	83.101609
821.462013	83.813144
821.875334	84.570030
822.288625	85.361085
822.701884	86.152640
823.115113	86.951092
823.528311	87.762365
823.941478	88.591549
824.354614	89.378108
824.767718	90.170651
825.180792	90.922243
825.593835	91.644483
826.006847	92.323357
826.419827	92.939218
826.832777	93.491250
827.245695	93.989121
827.658582	94.392318
828.071438	94.721207
828.484263	94.911163
828.897057	95.032869
829.309819	95.057098
829.722551	95.001765
830.135251	94.797475
830.547919	94.516032
830.960557	94.152982
831.373163	93.715761
831.785738	93.171949
832.198281	92.584053
832.610793	91.912483
833.023274	91.223327
833.435723	90.473418
833.848141	89.718912
834.260528	88.925670
834.672883	88.152312
835.085206	87.368150
835.497498	86.578565
835.909758	85.826894
836.321987	85.091192
836.734185	84.411932
837.146350	83.776704
837.558485	83.193214
837.970587	82.661649
838.382658	82.201749
838.794697	81.807246
839.206705	81.470182
839.618681	81.179870
840.030625	80.989276
840.442538	80.857774
840.854418	80.796366
841.266267	80.836730
841.678084	80.925086
842.089870	81.064926
842.501623	81.276669
842.913345	81.554349
843.325035	81.892036
843.736693	82.260869
844.148319	82.661696
844.559913	83.106702
844.971475	83.559555
845.383005	84.055505
845.794504	84.534268
846.205970	85.055399
846.617404	85.548105
847.028806	86.054457
847.440176	86.532766
847.851514	86.991792
848.262820	87.436524
848.674094	87.825631
849.085336	88.183608
849.496546	88.480057
849.907723	88.732536
850.318868	88.928557
850.729981	89.054188
851.141062	89.125831
851.552110	89.130687
851.963127	89.094534
852.374111	89.025609
852.785062	88.842895
853.195982	88.616553
853.606869	88.305303
854.017723	87.935694
854.428546	87.515841
854.839336	87.041306
855.250093	86.491903
855.660818	85.912538
856.071511	85.283152
856.482171	84.595593
856.892799	83.865955
857.303394	83.156915
857.713956	82.387450
858.124486	81.597137
858.534984	80.782069
858.945449	79.944048
859.355881	79.116069
859.766280	78.271616
860.176647	77.406661
860.586982	76.564837
860.997283	75.742202
861.407552	74.931445
861.817789	74.123102
862.227992	73.332916
862.638163	72.562482
863.048301	71.808507
863.458406	71.095720
863.868478	70.432711
864.278518	69.802497
864.688524	69.207979
865.098498	68.640310
865.508439	68.129539
865.918347	67.672415
866.328222	67.307388
866.738064	66.981008
867.147873	66.724542
867.557649	66.527775
867.967392	66.389379
868.377102	66.317280
868.786779	66.286200
869.196423	66.331681
869.606034	66.459999
870.015612	66.587531
870.425156	66.789169
870.834668	67.035712
871.244146	67.370167
871.653591	67.720573
872.063003	68.087430
872.472382	68.488226
872.881728	68.940609
873.291040	69.376186
873.700319	69.836218
874.109564	70.334997
874.518777	70.819215
874.927956	71.308375
875.337102	71.784356
875.746214	72.235470
876.155293	72.693524
876.564338	73.087620
876.973350	73.439191
877.382329	73.778775
877.791274	74.084004
878.200186	74.332911
878.609064	74.544409
879.017909	74.666131
879.426720	74.740549
879.835497	74.739689
880.244241	74.702858
880.652952	74.589330
881.061629	74.436024
881.470272	74.218829
881.878881	73.955692
882.287457	73.639343
882.695999	73.262946
883.104507	72.875159
883.512982	72.446861
883.921423	71.952998
884.329830	71.465042
884.738203	70.967109
885.146543	70.447136
885.554849	69.910753
885.963120	69.414284
886.371358	68.888690
886.779563	68.357740
887.187733	67.874654
887.595869	67.400381
888.003971	66.945308
888.412040	66.516899
888.820074	66.127400
889.228074	65.776354
889.636041	65.472308
890.043973	65.180067
890.451871	64.918886
890.859736	64.724403
891.267566	64.547065
891.675362	64.416925
892.083124	64.330334
892.490851	64.274987
892.898545	64.237424
893.306204	64.247241
893.713829	64.267765
894.121420	64.341768
894.528977	64.445426
894.936499	64.540735
895.343987	64.697689
895.751441	64.833333
896.158860	64.990732
896.566246	65.180686
896.973596	65.337190
897.380913	65.486898
897.788195	65.651263
898.195442	65.789285
898.602655	65.928231
899.009834	66.051076
899.416978	66.152941
899.824088	66.229430
900.231163	66.289475
900.638204	66.341469
901.045210	66.374057
901.452181	66.345914
901.859118	66.273207
902.266021	66.194142
902.672888	66.081377
903.079721	65.941730
903.486520	65.767551
903.893283	65.545699
904.300012	65.301717
904.706707	65.009165
905.113366	64.706924
905.519991	64.372199
905.926581	64.021966
906.333136	63.622029
906.739656	63.169994
907.146142	62.704519
907.552592	62.245958
907.959008	61.721713
908.365389	61.206999
908.771735	60.678364
909.178046	60.124393
909.584322	59.584822
909.990563	59.059224
910.396769	58.531607
910.802940	57.976170
911.209076	57.404533
911.615177	56.843140
912.021243	56.298876
912.427274	55.724520
912.833270	55.184303
913.239231	54.626297
913.645156	54.075047
914.051046	53.545772
914.456902	53.035823
914.862721	52.519743
915.268506	52.013082
915.674256	51.509730
916.079970	51.013579
916.485649	50.542615
916.891292	50.048824
917.296901	49.595285
917.702474	49.133973
918.108011	48.728099
918.513514	48.317763
918.918980	47.933536
919.324412	47.581483
919.729808	47.226413
920.135169	46.909238
920.540494	46.622330
920.945783	46.366493
921.351037	46.127535
921.756256	45.904740
922.161439	45.734035
922.566586	45.539666
922.971698	45.384426
923.376775	45.291312
923.781815	45.192253
924.186820	45.130404
924.591790	45.086688
924.996723	45.091595
925.401621	45.079202
925.806484	45.136040
926.211310	45.207818
926.616101	45.299977
927.020856	45.411660
927.425575	45.530697
927.830259	45.679075
928.234906	45.847726
928.639518	46.041862
929.044094	46.252266
929.448634	46.505919
929.853138	46.742424
930.257606	46.995731
930.662038	47.215499
931.066434	47.451540
931.470795	47.704591
931.875119	47.998484
932.279407	48.298907
932.683659	48.566241
933.087875	48.825316
933.492055	49.100999
933.896199	49.328731
934.300307	49.540780
934.704379	49.704005
935.108414	49.902357
935.512414	50.050964
935.916377	50.157500
936.320304	50.250436
936.724195	50.339971
937.128049	50.322433
937.531867	50.336184
937.935649	50.330740
938.339395	50.271487
938.743104	50.175599
939.146777	50.061231
939.550414	49.887863
939.954014	49.712429
940.357578	49.495708
940.761105	49.275732
941.164596	48.996104
941.568050	48.665016
941.971468	48.307033
942.374850	47.947218
942.778195	47.556314
943.181503	47.166188
943.584775	46.782441
943.988010	46.377854
944.391209	45.891314
944.794371	45.432427
945.197496	45.007075
945.600585	44.594388
946.003637	44.079708
946.406653	43.597926
946.809632	43.151734
947.212574	42.728560
947.615479	42.255742
948.018347	41.828525
948.421179	41.435044
948.823974	41.061120
949.226732	40.644352
949.629453	40.319247
950.032138	40.001039
950.434785	39.690449
950.837396	39.370875
951.239969	39.056654
951.642506	38.745326
952.045006	38.508957
952.447469	38.234328
952.849895	38.008738
953.252283	37.784438
953.654635	37.597127
954.056950	37.434006
954.459227	37.254009
954.861468	37.101062
955.263671	36.995930
955.665838	36.920136
956.067967	36.842520
956.470059	36.747097
956.872114	36.679601
957.274131	36.625732
957.676112	36.538830
958.078055	36.435500
958.479961	36.389213
958.881829	36.366469
959.283661	36.362985
959.685455	36.315914
960.087211	36.330055
960.488931	36.295949
960.890613	36.240068
961.292257	36.206243
961.693864	36.197837
962.095434	36.173137
962.496966	36.104220
962.898461	36.055650
963.299918	36.019623
963.701338	35.987865
964.102720	36.019935
964.504065	35.996622
964.905372	35.999442
965.306641	35.967387
965.707873	35.916530
966.109068	35.854174
966.510224	35.803002
966.911343	35.789337
967.312425	35.745890
967.713468	35.725115
968.114474	35.661149
968.515442	35.600581
968.916373	35.520970
969.317265	35.492341
969.718120	35.392622
970.118937	35.271519
970.519716	35.226468
970.920458	35.182544
971.321161	35.115780
971.721827	34.996467
972.122454	34.915327
972.523044	34.747151
972.923596	34.698678
973.324110	34.586767
973.724585	34.425445
974.125023	34.293880
974.525423	34.167772
974.925785	34.013030
975.326108	33.919532
975.726394	33.770012
976.126642	33.681893
976.526851	33.459963
976.927022	33.274764
977.327155	33.168431
977.727250	33.025307
978.127307	32.869491
978.527325	32.782047
978.927306	32.626716
979.327248	32.517874
979.727151	32.414579
980.127017	32.232125
980.526844	32.032266
980.926633	31.822278
981.326383	31.629368
981.726095	31.458120
982.125769	31.331735
982.525404	31.197528
982.925001	31.017955
983.324560	30.823112
983.724079	30.639022
984.123561	30.453059
984.523004	30.331437
984.922408	30.249307
985.321774	30.045688
985.721102	29.921005
986.120390	29.834356
986.519641	29.743609
986.918852	29.629252
987.318025	29.578511
987.717159	29.423819
988.116255	29.358284
988.515312	29.237135
988.914330	29.175937
989.313310	29.169504
989.712250	29.000681
990.111152	28.979771
990.510015	28.939211
990.908840	28.848040
991.307625	28.857518
991.706372	28.733562
992.105080	28.725414
992.503749	28.708753
992.902379	28.660001
993.300970	28.719467
993.699522	28.891106
994.098035	28.852298
994.496510	28.822655
994.894945	28.980873
995.293341	28.912108
995.691698	29.033726
996.090016	29.124818
996.488296	29.257264
996.886535	29.225118
997.284736	29.286233
997.682898	29.415319
998.081021	29.507183
998.479104	29.656767
998.877148	29.689525
999.275153	29.863746
999.673119	29.853236
1000.071046	29.974119
1000.468933	30.127295
1000.866781	30.279364
1001.264590	30.384461
1001.662359	30.429045
1002.060089	30.595088
1002.457780	30.564509
1002.855431	30.600818
1003.253043	30.582462
1003.650615	30.679304
1004.048148	30.966670
1004.445642	30.858614
1004.843096	30.998648
1005.240511	31.320368
1005.637886	31.299257
1006.035221	31.308537
1006.432517	31.498773
1006.829774	31.657106
1007.226991	31.452286
1007.624168	31.896146
1008.021306	31.871934
1008.418404	32.018750
1008.815462	31.999629
1009.212481	32.015111
1009.609460	32.302405
1010.006399	32.578934
1010.403298	32.696413
1010.800158	32.940736
1011.196978	33.236055
1011.593758	33.289773
1011.990498	33.747000
1012.387199	33.876340
1012.783860	33.937160
1013.180480	34.072451
1013.577061	34.211406
1013.973602	34.543697
1014.370103	34.719246
1014.766564	34.989103
1015.162985	35.303907
1015.559366	35.474697
1015.955708	35.549261
1016.352009	35.437212
1016.748270	35.893355
1017.144491	35.799979
1017.540671	35.838866
1017.936812	36.374550
1018.332913	36.548548
1018.728973	36.757646
1019.124994	37.024526
1019.520974	37.654909
1019.916914	37.375301
1020.312814	38.033465
