Time1=100ms:Average1=5:Objective=10X:Aperture=1: (11/21/2018 2:04:23 PM)
11/21/2018 2:04:23 PM
Reflectance
10X
Ap#: 1
Avg1: 5.000000
Avg2: 0.000000
Int.Time1:100.000000

350.166136	83.784286
350.601937	83.913796
351.037728	83.305558
351.473509	83.362745
351.909281	83.359513
352.345042	83.114447
352.780794	82.982924
353.216536	83.252547
353.652267	83.194692
354.087989	82.724483
354.523701	82.645200
354.959403	82.815122
355.395095	82.902939
355.830777	82.818686
356.266449	82.157676
356.702110	81.836976
357.137762	81.700500
357.573404	81.559867
358.009035	80.896457
358.444656	80.723600
358.880268	80.292826
359.315869	80.533307
359.751459	79.839656
360.187040	80.478282
360.622610	80.706575
361.058170	80.659449
361.493720	80.563769
361.929260	80.528799
362.364789	80.827736
362.800308	80.435428
363.235816	80.408204
363.671314	80.541072
364.106802	81.054495
364.542279	81.107717
364.977746	81.069635
365.413203	81.186256
365.848649	81.358782
366.284084	81.444422
366.719509	81.133379
367.154924	81.267898
367.590328	81.089333
368.025721	81.027006
368.461104	80.675756
368.896477	80.851064
369.331838	80.189237
369.767189	80.697422
370.202530	80.691843
370.637859	80.956175
371.073178	80.801036
371.508486	81.025386
371.943784	80.979340
372.379071	80.810489
372.814347	80.481045
373.249612	80.700713
373.684866	80.503519
374.120110	80.582716
374.555343	81.173909
374.990565	81.232660
375.425776	81.069837
375.860976	80.743010
376.296165	81.026147
376.731343	81.142518
377.166511	81.503521
377.601667	80.887137
378.036812	81.136722
378.471946	81.523453
378.907070	81.460069
379.342182	81.331248
379.777283	81.816401
380.212373	81.661273
380.647452	81.473499
381.082520	81.707795
381.517576	81.345327
381.952622	81.072982
382.387656	80.865145
382.822679	80.925465
383.257691	80.024814
383.692692	80.243856
384.127681	80.412273
384.562659	80.295707
384.997626	79.981105
385.432581	79.723590
385.867525	80.370722
386.302458	80.356635
386.737379	80.620303
387.172289	79.994303
387.607188	79.798938
388.042075	79.488148
388.476951	79.398170
388.911815	79.213695
389.346668	79.270921
389.781509	79.315197
390.216338	79.383953
390.651157	78.963614
391.085963	78.943425
391.520758	78.652422
391.955541	78.425710
392.390313	78.251539
392.825073	78.213487
393.259821	77.970504
393.694558	77.917747
394.129283	78.381129
394.563996	78.262077
394.998698	78.924930
395.433388	79.315657
395.868066	79.259155
396.302732	79.300849
396.737386	79.639799
397.172029	79.640468
397.606659	79.345216
398.041278	78.797759
398.475885	79.108088
398.910480	78.921016
399.345063	77.914793
399.779634	77.280922
400.214194	76.299582
400.648741	75.684082
401.083276	74.364346
401.517799	72.655345
401.952310	71.116966
402.386809	69.385002
402.821296	67.606040
403.255771	65.676579
403.690234	63.344357
404.124684	61.149225
404.559123	58.815955
404.993549	56.616820
405.427963	54.246069
405.862365	52.254712
406.296754	50.119215
406.731131	48.055688
407.165496	46.358357
407.599849	44.568704
408.034190	42.962864
408.468518	41.458105
408.902833	40.133507
409.337137	38.988312
409.771428	37.954380
410.205706	36.965639
410.639973	36.069522
411.074226	35.309776
411.508467	34.814060
411.942696	34.164354
412.376912	33.642248
412.811116	33.316929
413.245307	32.924706
413.679486	32.605713
414.113652	32.214905
414.547805	31.990445
414.981946	31.812715
415.416074	31.682696
415.850190	31.625673
416.284293	31.535057
416.718383	31.461743
417.152460	31.448412
417.586525	31.500300
418.020577	31.548970
418.454616	31.601260
418.888643	31.706470
419.322656	31.808531
419.756657	31.957498
420.190645	32.099966
420.624620	32.217608
421.058582	32.357751
421.492531	32.475154
421.926468	32.620418
422.360391	32.746172
422.794301	32.920088
423.228199	33.106483
423.662083	33.273275
424.095955	33.438706
424.529813	33.615482
424.963658	33.746874
425.397491	33.922309
425.831310	34.070957
426.265116	34.212424
426.698909	34.401976
427.132689	34.585789
427.566455	34.775282
428.000209	34.980452
428.433949	35.174215
428.867676	35.356812
429.301389	35.534530
429.735090	35.727371
430.168777	35.902028
430.602451	36.062733
431.036111	36.216596
431.469759	36.351758
431.903392	36.476397
432.337013	36.579121
432.770620	36.712509
433.204213	36.823524
433.637794	36.943851
434.071360	37.046263
434.504914	37.163208
434.938453	37.276839
435.371979	37.399409
435.805492	37.525261
436.238991	37.617744
436.672477	37.708619
437.105949	37.837753
437.539407	37.927942
437.972852	37.993593
438.406283	38.097839
438.839700	38.153171
439.273104	38.241824
439.706494	38.317718
440.139871	38.366279
440.573233	38.390166
441.006582	38.446928
441.439917	38.474501
441.873238	38.476567
442.306546	38.479406
442.739839	38.460465
443.173119	38.428663
443.606385	38.404726
444.039636	38.371696
444.472874	38.310606
444.906099	38.269473
445.339309	38.244895
445.772505	38.197982
446.205687	38.152469
446.638855	38.094301
447.072009	38.042480
447.505149	37.970352
447.938275	37.875586
448.371387	37.808369
448.804485	37.706019
449.237569	37.591948
449.670638	37.477672
450.103694	37.320003
450.536735	37.144108
450.969762	36.966437
451.402774	36.790114
451.835773	36.590496
452.268757	36.414624
452.701727	36.197856
453.134683	35.998000
453.567624	35.786492
454.000551	35.596799
454.433464	35.365054
454.866362	35.133441
455.299246	34.918236
455.732116	34.705985
456.164971	34.465237
456.597811	34.245052
457.030638	34.014787
457.463449	33.787573
457.896246	33.547853
458.329029	33.296913
458.761797	33.034675
459.194551	32.790789
459.627290	32.519827
460.060014	32.295529
460.492724	32.056680
460.925419	31.840581
461.358099	31.650260
461.790765	31.433965
462.223416	31.224999
462.656052	31.008156
463.088674	30.805056
463.521281	30.624992
463.953873	30.451712
464.386450	30.297637
464.819012	30.162411
465.251560	30.028893
465.684093	29.910863
466.116611	29.830281
466.549114	29.765522
466.981602	29.719080
467.414075	29.660052
467.846533	29.615030
468.278977	29.589031
468.711405	29.581869
469.143818	29.581881
469.576216	29.625540
470.008600	29.654709
470.440968	29.684616
470.873321	29.743386
471.305659	29.806508
471.737982	29.906377
472.170289	30.005777
472.602582	30.118645
473.034859	30.241441
473.467122	30.353187
473.899369	30.489036
474.331600	30.635564
474.763817	30.784053
475.196018	30.937900
475.628204	31.102201
476.060375	31.282356
476.492530	31.456065
476.924670	31.650114
477.356795	31.845077
477.788904	32.049069
478.220998	32.241793
478.653076	32.447089
479.085139	32.636948
479.517186	32.826135
479.949219	33.002041
480.381235	33.175035
480.813236	33.363975
481.245221	33.571078
481.677191	33.751881
482.109146	33.912394
482.541084	34.081708
482.973008	34.225199
483.404915	34.379538
483.836807	34.533692
484.268683	34.659096
484.700544	34.795797
485.132388	34.903528
485.564217	35.010071
485.996031	35.089376
486.427828	35.162704
486.859610	35.225708
487.291376	35.268470
487.723126	35.287833
488.154860	35.291168
488.586579	35.303896
489.018281	35.302787
489.449968	35.298184
489.881639	35.287509
490.313293	35.258763
490.744932	35.225656
491.176555	35.181280
491.608162	35.133939
492.039753	35.079022
492.471328	34.996063
492.902886	34.908092
493.334429	34.813599
493.765956	34.698991
494.197466	34.569545
494.628960	34.420189
495.060439	34.284755
495.491901	34.136005
495.923347	33.982382
496.354776	33.829779
496.786190	33.661095
497.217587	33.497410
497.648968	33.327315
498.080332	33.162250
498.511681	32.991201
498.943013	32.823843
499.374328	32.657954
499.805628	32.511572
500.236911	32.367115
500.668177	32.219650
501.099427	32.085639
501.530661	31.953809
501.961878	31.830182
502.393079	31.719339
502.824264	31.613680
503.255431	31.528256
503.686583	31.440603
504.117717	31.366122
504.548835	31.299524
504.979937	31.246976
505.411022	31.201007
505.842090	31.184449
506.273142	31.171513
506.704177	31.173920
507.135195	31.203216
507.566197	31.248292
507.997182	31.293071
508.428150	31.353545
508.859102	31.434394
509.290036	31.524720
509.720954	31.627596
510.151855	31.762548
510.582739	31.905799
511.013607	32.073427
511.444457	32.247671
511.875291	32.439760
512.306107	32.651777
512.736907	32.871259
513.167690	33.104444
513.598456	33.351195
514.029205	33.622985
514.459936	33.914866
514.890651	34.229851
515.321349	34.540057
515.752030	34.871193
516.182693	35.221950
516.613340	35.576575
517.043969	35.951595
517.474582	36.351221
517.905177	36.770894
518.335755	37.197605
518.766315	37.637091
519.196859	38.093527
519.627385	38.539828
520.057894	38.981554
520.488386	39.434058
520.918860	39.885624
521.349318	40.357487
521.779757	40.820867
522.210180	41.298779
522.640585	41.775869
523.070973	42.248791
523.501343	42.712322
523.931696	43.182282
524.362031	43.659425
524.792349	44.136229
525.222650	44.623044
525.652933	45.112062
526.083198	45.620803
526.513446	46.119783
526.943677	46.631904
527.373890	47.141178
527.804085	47.672570
528.234262	48.185780
528.664422	48.724798
529.094565	49.254911
529.524689	49.799293
529.954796	50.344403
530.384885	50.896936
530.814957	51.433285
531.245011	51.963539
531.675047	52.504633
532.105065	53.056109
532.535065	53.615876
532.965048	54.197768
533.395013	54.793971
533.824959	55.387685
534.254888	55.989247
534.684799	56.629394
535.114693	57.287876
535.544568	57.951509
535.974425	58.620780
536.404264	59.302668
536.834086	59.981025
537.263889	60.653496
537.693674	61.306038
538.123441	61.954585
538.553190	62.588770
538.982921	63.203680
539.412634	63.807288
539.842329	64.390189
540.272006	64.956929
540.701664	65.532101
541.131304	66.069209
541.560926	66.626995
541.990530	67.175894
542.420116	67.724552
542.849683	68.253704
543.279232	68.778377
543.708763	69.300252
544.138275	69.824500
544.567769	70.347723
544.997245	70.839884
545.426702	71.323891
545.856141	71.799771
546.285562	72.266876
546.714964	72.708072
547.144347	73.146013
547.573713	73.574602
548.003059	73.993433
548.432387	74.409921
548.861697	74.832013
549.290988	75.239503
549.720260	75.669623
550.149514	76.082115
550.578750	76.516442
551.007966	76.969757
551.437164	77.437195
551.866344	77.917539
552.295504	78.403174
552.724646	78.900109
553.153769	79.414096
553.582874	79.953073
554.011960	80.457357
554.441027	80.978728
554.870075	81.492698
555.299104	81.997210
555.728115	82.482199
556.157106	82.976921
556.586079	83.451334
557.015033	83.913239
557.443968	84.338099
557.872884	84.779793
558.301781	85.229637
558.730659	85.637759
559.159518	86.051847
559.588358	86.459121
560.017180	86.866657
560.445982	87.259930
560.874765	87.656061
561.303528	88.029383
561.732273	88.392819
562.160999	88.743174
562.589705	89.086361
563.018393	89.408792
563.447061	89.745626
563.875710	90.072036
564.304340	90.377548
564.732950	90.689453
565.161542	90.968168
565.590114	91.265095
566.018666	91.539208
566.447200	91.818965
566.875714	92.081333
567.304208	92.361974
567.732684	92.628805
568.161140	92.882643
568.589576	93.128783
569.017993	93.384526
569.446391	93.627598
569.874769	93.860907
570.303128	94.094457
570.731467	94.347193
571.159787	94.560095
571.588087	94.758236
572.016368	94.981959
572.444629	95.175964
572.872870	95.360984
573.301092	95.553232
573.729294	95.739099
574.157476	95.909330
574.585639	96.078832
575.013782	96.235094
575.441906	96.387534
575.870009	96.544016
576.298093	96.689363
576.726157	96.835279
577.154202	96.946814
577.582226	97.078010
578.010231	97.187622
578.438216	97.309329
578.866181	97.422765
579.294126	97.535014
579.722051	97.637694
580.149957	97.738721
580.577842	97.841494
581.005707	97.933624
581.433553	98.044352
581.861378	98.140389
582.289184	98.241130
582.716969	98.336779
583.144734	98.439054
583.572479	98.548849
584.000205	98.634578
584.427910	98.736642
584.855594	98.838274
585.283259	98.918048
585.710904	99.014427
586.138528	99.106256
586.566132	99.176321
586.993716	99.236359
587.421280	99.291921
587.848823	99.344419
588.276346	99.376239
588.703849	99.391053
589.131332	99.377797
589.558794	99.355725
589.986236	99.304740
590.413657	99.260586
590.841058	99.170185
591.268438	99.062835
591.695799	98.946245
592.123138	98.811302
592.550458	98.672896
592.977756	98.508983
593.405034	98.330938
593.832292	98.127381
594.259529	97.918153
594.686746	97.702181
595.113942	97.485144
595.541117	97.239070
595.968272	96.990660
596.395406	96.745554
596.822519	96.480027
597.249612	96.226228
597.676684	95.957367
598.103735	95.690559
598.530766	95.433418
598.957775	95.146410
599.384764	94.862323
599.811733	94.598583
600.238680	94.333685
600.665606	94.067935
601.092512	93.798247
601.519397	93.537885
601.946261	93.276262
602.373104	93.037488
602.799926	92.793810
603.226727	92.566247
603.653507	92.330347
604.080266	92.104398
604.507004	91.883426
604.933721	91.650589
605.360417	91.411339
605.787092	91.173261
606.213746	90.948931
606.640379	90.720852
607.066991	90.494075
607.493581	90.273349
607.920150	90.031760
608.346699	89.782255
608.773226	89.546703
609.199731	89.282742
609.626216	89.006409
610.052679	88.715842
610.479121	88.403134
610.905542	88.072511
611.331941	87.732077
611.758319	87.367963
612.184676	87.005870
612.611011	86.616026
613.037325	86.182924
613.463617	85.743195
613.889888	85.266557
614.316138	84.776432
614.742366	84.270101
615.168573	83.739681
615.594758	83.169617
616.020921	82.586937
616.447063	81.968993
616.873184	81.333379
617.299283	80.672489
617.725360	79.993582
618.151416	79.300527
618.577450	78.581975
619.003462	77.850191
619.429453	77.083354
619.855422	76.305378
620.281369	75.517211
620.707295	74.701904
621.133199	73.871019
621.559081	73.030222
621.984941	72.173761
622.410779	71.306102
622.836596	70.424508
623.262391	69.530386
623.688163	68.636117
624.113914	67.729886
624.539644	66.817090
624.965351	65.902872
625.391036	64.972328
625.816699	64.041952
626.242340	63.115716
626.667960	62.183341
627.093557	61.266908
627.519132	60.347661
627.944685	59.422120
628.370216	58.495945
628.795725	57.586865
629.221212	56.670098
629.646677	55.770261
630.072119	54.889828
630.497540	54.026771
630.922938	53.176511
631.348314	52.353914
631.773668	51.564677
632.198999	50.800869
632.624308	50.081616
633.049595	49.392483
633.474860	48.742755
633.900102	48.138178
634.325322	47.578095
634.750520	47.058490
635.175695	46.580390
635.600848	46.154615
636.025978	45.772368
636.451086	45.436301
636.876171	45.140998
637.301234	44.889492
637.726275	44.665854
638.151293	44.485655
638.576288	44.341633
639.001261	44.239098
639.426211	44.169212
639.851139	44.131190
640.276044	44.137700
640.700927	44.174412
641.125787	44.249659
641.550624	44.366037
641.975438	44.521919
642.400230	44.714553
642.824999	44.949293
643.249745	45.220905
643.674469	45.533662
644.099169	45.874167
644.523847	46.257045
644.948502	46.661507
645.373135	47.093936
645.797744	47.558491
646.222330	48.047962
646.646894	48.554775
647.071435	49.066815
647.495953	49.603338
647.920447	50.146732
648.344919	50.690131
648.769368	51.234980
649.193794	51.781552
649.618197	52.317506
650.042576	52.847948
650.466933	53.382687
650.891267	53.910372
651.315577	54.426519
651.739864	54.939864
652.164129	55.444475
652.588370	55.933671
653.012587	56.417433
653.436782	56.873047
653.860953	57.317445
654.285102	57.752466
654.709226	58.185617
655.133328	58.580860
655.557406	58.975430
655.981461	59.349865
656.405493	59.699340
656.829501	60.018009
657.253486	60.327332
657.677448	60.596366
658.101386	60.860292
658.525301	61.097757
658.949192	61.309085
659.373060	61.497852
659.796904	61.671975
660.220725	61.829453
660.644522	61.961119
661.068296	62.086046
661.492046	62.198774
661.915772	62.308891
662.339475	62.407142
662.763154	62.507301
663.186810	62.597997
663.610442	62.671594
664.034050	62.754876
664.457635	62.834365
664.881196	62.913620
665.304733	62.998432
665.728247	63.092792
666.151736	63.189447
666.575202	63.291675
666.998644	63.413312
667.422062	63.538711
667.845457	63.660364
668.268827	63.803728
668.692174	63.946861
669.115496	64.102347
669.538795	64.271208
669.962070	64.461189
670.385321	64.657814
670.808547	64.876867
671.231750	65.094052
671.654929	65.333280
672.078084	65.587827
672.501214	65.838501
672.924321	66.109230
673.347404	66.398286
673.770462	66.693510
674.193496	66.988502
674.616506	67.291404
675.039492	67.596241
675.462454	67.910391
675.885391	68.224522
676.308305	68.536454
676.731194	68.862250
677.154058	69.172254
677.576899	69.484413
677.999715	69.793422
678.422507	70.084455
678.845274	70.377817
679.268017	70.666203
679.690736	70.949026
680.113430	71.213958
680.536100	71.473178
680.958746	71.726529
681.381367	71.979053
681.803963	72.219090
682.226535	72.448364
682.649083	72.675591
683.071605	72.890532
683.494104	73.101300
683.916578	73.293751
684.339027	73.493239
684.761451	73.669310
685.183851	73.832709
685.606227	74.009594
686.028577	74.162490
686.450903	74.309066
686.873204	74.441830
687.295481	74.573627
687.717733	74.690803
688.139959	74.795876
688.562162	74.884233
688.984339	74.974049
689.406492	75.061923
689.828619	75.121570
690.250722	75.186350
690.672800	75.236063
691.094853	75.285537
691.516881	75.333093
691.938884	75.366389
692.360863	75.385193
692.782816	75.406618
693.204744	75.424146
693.626647	75.429902
694.048526	75.445704
694.470379	75.443859
694.892207	75.443094
695.314010	75.428133
695.735788	75.420245
696.157540	75.398352
696.579268	75.379785
697.000970	75.361387
697.422648	75.326950
697.844300	75.297998
698.265926	75.268971
698.687528	75.235909
699.109104	75.198168
699.530655	75.163624
699.952181	75.137141
700.373681	75.110027
700.795156	75.089146
701.216606	75.070213
701.638030	75.062481
702.059429	75.040211
702.480803	75.024826
702.902151	75.028996
703.323473	75.030041
703.744770	75.039173
704.166042	75.042536
704.587288	75.061468
705.008509	75.091528
705.429704	75.142985
705.850873	75.197602
706.272017	75.258234
706.693135	75.350766
707.114228	75.440043
707.535295	75.549925
707.956336	75.680335
708.377352	75.833109
708.798342	75.998797
709.219306	76.182003
709.640245	76.388177
710.061157	76.620788
710.482044	76.875178
710.902905	77.145581
711.323741	77.439963
711.744550	77.753977
712.165334	78.099178
712.586092	78.458426
713.006823	78.846752
713.427529	79.262998
713.848209	79.697667
714.268863	80.159463
714.689492	80.634009
715.110094	81.138070
715.530670	81.663743
715.951220	82.211696
716.371744	82.778940
716.792242	83.376954
717.212714	83.996348
717.633159	84.634763
718.053579	85.298469
718.473973	85.977296
718.894340	86.675380
719.314681	87.400326
719.734996	88.125511
720.155285	88.859704
720.575547	89.614287
720.995784	90.373411
721.415994	91.149030
721.836177	91.911920
722.256335	92.690149
722.676466	93.459433
723.096570	94.213802
723.516649	94.962907
723.936701	95.710858
724.356726	96.422597
724.776725	97.118588
725.196698	97.798196
725.616644	98.458370
726.036564	99.075780
726.456457	99.671400
726.876324	100.242863
727.296164	100.775951
727.715977	101.299816
728.135764	101.788890
728.555525	102.239549
728.975258	102.657705
729.394966	103.052862
729.814646	103.418929
730.234300	103.762478
730.653927	104.089349
731.073527	104.381010
731.493101	104.636524
731.912648	104.882252
732.332168	105.096747
732.751661	105.288177
733.171128	105.474829
733.590568	105.632921
734.009980	105.758067
734.429366	105.869338
734.848726	105.975472
735.268058	106.068843
735.687363	106.143523
736.106641	106.202022
736.525893	106.234975
736.945117	106.253695
737.364314	106.287550
737.783485	106.304691
738.202628	106.305523
738.621744	106.298328
739.040834	106.277034
739.459896	106.251896
739.878931	106.229398
740.297939	106.196717
740.716919	106.147361
741.135873	106.115582
741.554799	106.081323
741.973698	106.058889
742.392570	106.041415
742.811415	106.025700
743.230232	106.008819
743.649022	105.990805
744.067785	105.986801
744.486521	106.007441
744.905229	106.023463
745.323909	106.047704
745.742563	106.085146
746.161189	106.123981
746.579787	106.179321
746.998358	106.264966
747.416902	106.363138
747.835418	106.455928
748.253907	106.575856
748.672368	106.688176
749.090802	106.820139
749.509208	106.967586
749.927586	107.121404
750.345937	107.285584
750.764261	107.449214
751.182556	107.634567
751.600824	107.805936
752.019065	108.008311
752.437277	108.215647
752.855462	108.428979
753.273620	108.645652
753.691749	108.884977
754.109851	109.111104
754.527925	109.356520
754.945971	109.595923
755.363989	109.842385
755.781980	110.099411
756.199943	110.354312
756.617877	110.615183
757.035784	110.877856
757.453663	111.125747
757.871514	111.371496
758.289337	111.622975
758.707132	111.874035
759.124899	112.114075
759.542639	112.356189
759.960350	112.575558
760.378033	112.780513
760.795688	112.974466
761.213314	113.146952
761.630913	113.321732
762.048484	113.488706
762.466026	113.651071
762.883541	113.792984
763.301027	113.913471
763.718485	114.032409
764.135914	114.133135
764.553316	114.236041
764.970689	114.332169
765.388034	114.392562
765.805351	114.441643
766.222639	114.494445
766.639899	114.516690
767.057131	114.543633
767.474334	114.570195
767.891509	114.597334
768.308655	114.608772
768.725773	114.597306
769.142863	114.600825
769.559924	114.590658
769.976957	114.580583
770.393961	114.571034
770.810936	114.563244
771.227883	114.532882
771.644802	114.510208
772.061692	114.488813
772.478553	114.454582
772.895386	114.443608
773.312190	114.417365
773.728965	114.399581
774.145712	114.388561
774.562430	114.372978
774.979119	114.341194
775.395780	114.318175
775.812411	114.303004
776.229014	114.274173
776.645589	114.257654
777.062134	114.245483
777.478651	114.224577
777.895138	114.191079
778.311597	114.178793
778.728027	114.154639
779.144428	114.148679
779.560800	114.136305
779.977143	114.124200
780.393458	114.095518
780.809743	114.059380
781.225999	114.027476
781.642226	114.002641
782.058425	113.975121
782.474594	113.937436
782.890734	113.886297
783.306845	113.839941
783.722926	113.790169
784.138979	113.750130
784.555003	113.696975
784.970997	113.638409
785.386962	113.572314
785.802898	113.476239
786.218805	113.386525
786.634682	113.296270
787.050531	113.182625
787.466349	113.064653
787.882139	112.959434
788.297899	112.826371
788.713630	112.683582
789.129332	112.557635
789.545004	112.410232
789.960647	112.252904
790.376260	112.109588
790.791844	111.955325
791.207399	111.792240
791.622924	111.637247
792.038419	111.461941
792.453885	111.284241
792.869321	111.101548
793.284728	110.924592
793.700106	110.737101
794.115453	110.563675
794.530771	110.374663
794.946060	110.198328
795.361319	110.011110
795.776548	109.826793
796.191747	109.639449
796.606917	109.437780
797.022057	109.254140
797.437167	109.052380
797.852248	108.870331
798.267298	108.687891
798.682319	108.533029
799.097310	108.368145
799.512271	108.217301
799.927203	108.061233
800.342104	107.921175
800.756976	107.777844
801.171818	107.652913
801.586629	107.547334
802.001411	107.436368
802.416163	107.336841
802.830885	107.254127
803.245577	107.162652
803.660238	107.098878
804.074870	107.032006
804.489472	106.975661
804.904043	106.940209
805.318585	106.910289
805.733096	106.895167
806.147577	106.881625
806.562028	106.866710
806.976449	106.852426
807.390840	106.865850
807.805200	106.866138
808.219530	106.890950
808.633830	106.914269
809.048100	106.934137
809.462339	106.971274
809.876548	107.019868
810.290727	107.078816
810.704875	107.121709
811.118993	107.162298
811.533080	107.219195
811.947137	107.274936
812.361164	107.309380
812.775160	107.358376
813.189126	107.404211
813.603061	107.451662
814.016966	107.498595
814.430840	107.521624
814.844684	107.543528
815.258497	107.574957
815.672280	107.591569
816.086032	107.605715
816.499753	107.605191
816.913444	107.589779
817.327104	107.574030
817.740733	107.530360
818.154331	107.487436
818.567899	107.428119
818.981436	107.351346
819.394943	107.278790
819.808418	107.188433
820.221863	107.064002
820.635277	106.940737
821.048660	106.786821
821.462013	106.607702
821.875334	106.438239
822.288625	106.213296
822.701884	105.979364
823.115113	105.733467
823.528311	105.457335
823.941478	105.168741
824.354614	104.818010
824.767718	104.467652
825.180792	104.064226
825.593835	103.645640
826.006847	103.220492
826.419827	102.759649
826.832777	102.270797
827.245695	101.759762
827.658582	101.235921
828.071438	100.673262
828.484263	100.075907
828.897057	99.494964
829.309819	98.886210
829.722551	98.271471
830.135251	97.638629
830.547919	96.977880
830.960557	96.314558
831.373163	95.655115
831.785738	94.970077
832.198281	94.267121
832.610793	93.560593
833.023274	92.873899
833.435723	92.147618
833.848141	91.461294
834.260528	90.794370
834.672883	90.090853
835.085206	89.421138
835.497498	88.707084
835.909758	88.016337
836.321987	87.342113
836.734185	86.680616
837.146350	86.026307
837.558485	85.364677
837.970587	84.757193
838.382658	84.138404
838.794697	83.502813
839.206705	82.893479
839.618681	82.290152
840.030625	81.722135
840.442538	81.136526
840.854418	80.578030
841.266267	80.035326
841.678084	79.497388
842.089870	78.955053
842.501623	78.453236
842.913345	77.954488
843.325035	77.475251
843.736693	77.015028
844.148319	76.555131
844.559913	76.120217
844.971475	75.714367
845.383005	75.336204
845.794504	74.957695
846.205970	74.620562
846.617404	74.264881
847.028806	73.930587
847.440176	73.643638
847.851514	73.372828
848.262820	73.142863
848.674094	72.915643
849.085336	72.712576
849.496546	72.528067
849.907723	72.369151
850.318868	72.216299
850.729981	72.072957
851.141062	71.963914
851.552110	71.867531
851.963127	71.768076
852.374111	71.684764
852.785062	71.588487
853.195982	71.524599
853.606869	71.451628
854.017723	71.375992
854.428546	71.294807
854.839336	71.244872
855.250093	71.155754
855.660818	71.058367
856.071511	70.996554
856.482171	70.895946
856.892799	70.785469
857.303394	70.701828
857.713956	70.590914
858.124486	70.448393
858.534984	70.305671
858.945449	70.151310
859.355881	69.986771
859.766280	69.793464
860.176647	69.582484
860.586982	69.373220
860.997283	69.127263
861.407552	68.889229
861.817789	68.614118
862.227992	68.319282
862.638163	68.003275
863.048301	67.695225
863.458406	67.342252
863.868478	66.956225
864.278518	66.581740
864.688524	66.196434
865.098498	65.783230
865.508439	65.370626
865.918347	64.927831
866.328222	64.498032
866.738064	64.057835
867.147873	63.604266
867.557649	63.129075
867.967392	62.651916
868.377102	62.196219
868.786779	61.707641
869.196423	61.234537
869.606034	60.747726
870.015612	60.240639
870.425156	59.753549
870.834668	59.252215
871.244146	58.751967
871.653591	58.245994
872.063003	57.727186
872.472382	57.228154
872.881728	56.721728
873.291040	56.220018
873.700319	55.733805
874.109564	55.244924
874.518777	54.751122
874.927956	54.249505
875.337102	53.764318
875.746214	53.275982
876.155293	52.824882
876.564338	52.380796
876.973350	51.921359
877.382329	51.478708
877.791274	51.056686
878.200186	50.628180
878.609064	50.208510
879.017909	49.778311
879.426720	49.369384
879.835497	48.999988
880.244241	48.629421
880.652952	48.288350
881.061629	47.937057
881.470272	47.617308
881.878881	47.312041
882.287457	47.020448
882.695999	46.727235
883.104507	46.473620
883.512982	46.237208
883.921423	46.027507
884.329830	45.828141
884.738203	45.659832
885.146543	45.486965
885.554849	45.346765
885.963120	45.226823
886.371358	45.104854
886.779563	44.983306
887.187733	44.900893
887.595869	44.864579
888.003971	44.802728
888.412040	44.768787
888.820074	44.732595
889.228074	44.721204
889.636041	44.716156
890.043973	44.723490
890.451871	44.744502
890.859736	44.796038
891.267566	44.857982
891.675362	44.927431
892.083124	45.023982
892.490851	45.098667
892.898545	45.193978
893.306204	45.280411
893.713829	45.378764
894.121420	45.491984
894.528977	45.619434
894.936499	45.729882
895.343987	45.866939
895.751441	45.972794
896.158860	46.104294
896.566246	46.217429
896.973596	46.348632
897.380913	46.459192
897.788195	46.568118
898.195442	46.676105
898.602655	46.772969
899.009834	46.868875
899.416978	46.946158
899.824088	47.027311
900.231163	47.055490
900.638204	47.128696
901.045210	47.145560
901.452181	47.155511
901.859118	47.151286
902.266021	47.141906
902.672888	47.111689
903.079721	47.054059
903.486520	46.974552
903.893283	46.891694
904.300012	46.796358
904.706707	46.657997
905.113366	46.523945
905.519991	46.357614
905.926581	46.177424
906.333136	45.984398
906.739656	45.746103
907.146142	45.480270
907.552592	45.257060
907.959008	45.000414
908.365389	44.750385
908.771735	44.454873
909.178046	44.165820
909.584322	43.852208
909.990563	43.547717
910.396769	43.237280
910.802940	42.887140
911.209076	42.522277
911.615177	42.175399
912.021243	41.842872
912.427274	41.481255
912.833270	41.134166
913.239231	40.750041
913.645156	40.402219
914.051046	40.036257
914.456902	39.676339
914.862721	39.341066
915.268506	38.973940
915.674256	38.633443
916.079970	38.285975
916.485649	37.935379
916.891292	37.593089
917.296901	37.267547
917.702474	36.933947
918.108011	36.634521
918.513514	36.338745
918.918980	36.040351
919.324412	35.759699
919.729808	35.509030
920.135169	35.228597
920.540494	35.003773
920.945783	34.768477
921.351037	34.570126
921.756256	34.373730
922.161439	34.185625
922.566586	34.026005
922.971698	33.884842
923.376775	33.777812
923.781815	33.684481
924.186820	33.596814
924.591790	33.511638
924.996723	33.468816
925.401621	33.407970
925.806484	33.395023
926.211310	33.378295
926.616101	33.409087
927.020856	33.419406
927.425575	33.431620
927.830259	33.489537
928.234906	33.541779
928.639518	33.621711
929.044094	33.709107
929.448634	33.803495
929.853138	33.896602
930.257606	33.996656
930.662038	34.089748
931.066434	34.182933
931.470795	34.301614
931.875119	34.460871
932.279407	34.582709
932.683659	34.726400
933.087875	34.832919
933.492055	34.953675
933.896199	35.075568
934.300307	35.183367
934.704379	35.275892
935.108414	35.347167
935.512414	35.417495
935.916377	35.450853
936.320304	35.503606
936.724195	35.534639
937.128049	35.580167
937.531867	35.571513
937.935649	35.633466
938.339395	35.640037
938.743104	35.604179
939.146777	35.589617
939.550414	35.580046
939.954014	35.541965
940.357578	35.472137
940.761105	35.407780
941.164596	35.312782
941.568050	35.228664
941.971468	35.115617
942.374850	35.009851
942.778195	34.910419
943.181503	34.801286
943.584775	34.702378
943.988010	34.564585
944.391209	34.390272
944.794371	34.244617
945.197496	34.113151
945.600585	33.986236
946.003637	33.806876
946.406653	33.625947
946.809632	33.471789
947.212574	33.329534
947.615479	33.159378
948.018347	33.000458
948.421179	32.863504
948.823974	32.695745
949.226732	32.530528
949.629453	32.359366
950.032138	32.220482
950.434785	32.018042
950.837396	31.844943
951.239969	31.710026
951.642506	31.522841
952.045006	31.320279
952.447469	31.155421
952.849895	30.979226
953.252283	30.826478
953.654635	30.641982
954.056950	30.438773
954.459227	30.269091
954.861468	30.081108
955.263671	29.893628
955.665838	29.725194
956.067967	29.572783
956.470059	29.402632
956.872114	29.228617
957.274131	29.035188
957.676112	28.840798
958.078055	28.677237
958.479961	28.531703
958.881829	28.369263
959.283661	28.228198
959.685455	28.067456
960.087211	27.957998
960.488931	27.822134
960.890613	27.700765
961.292257	27.579428
961.693864	27.436157
962.095434	27.300774
962.496966	27.128301
962.898461	27.019966
963.299918	26.853641
963.701338	26.738932
964.102720	26.624380
964.504065	26.544569
964.905372	26.444879
965.306641	26.339220
965.707873	26.204579
966.109068	26.122030
966.510224	26.021409
966.911343	25.922995
967.312425	25.854028
967.713468	25.785700
968.114474	25.719172
968.515442	25.643512
968.916373	25.574098
969.317265	25.503793
969.718120	25.455290
970.118937	25.373492
970.519716	25.265546
970.920458	25.185264
971.321161	25.125847
971.721827	24.994565
972.122454	24.925855
972.523044	24.824870
972.923596	24.742894
973.324110	24.666609
973.724585	24.515221
974.125023	24.459417
974.525423	24.361688
974.925785	24.312620
975.326108	24.206982
975.726394	24.148554
976.126642	24.060862
976.526851	23.980348
976.927022	23.869488
977.327155	23.788011
977.727250	23.685579
978.127307	23.588674
978.527325	23.509710
978.927306	23.444210
979.327248	23.424036
979.727151	23.391344
980.127017	23.294918
980.526844	23.193049
980.926633	23.097279
981.326383	23.043529
981.726095	23.060356
982.125769	22.998655
982.525404	22.947206
982.925001	22.903469
983.324560	22.850788
983.724079	22.781856
984.123561	22.727475
984.523004	22.679150
984.922408	22.615420
985.321774	22.575479
985.721102	22.531694
986.120390	22.587872
986.519641	22.497938
986.918852	22.446480
987.318025	22.457252
987.717159	22.451098
988.116255	22.488584
988.515312	22.491599
988.914330	22.410543
989.313310	22.382698
989.712250	22.311406
990.111152	22.380432
990.510015	22.440249
990.908840	22.482361
991.307625	22.503197
991.706372	22.513712
992.105080	22.458756
992.503749	22.504487
992.902379	22.602982
993.300970	22.716687
993.699522	22.761794
994.098035	22.704501
994.496510	22.751578
994.894945	22.934802
995.293341	22.889594
995.691698	23.045429
996.090016	23.098556
996.488296	23.208066
996.886535	23.308404
997.284736	23.342717
997.682898	23.463934
998.081021	23.477785
998.479104	23.566212
998.877148	23.746636
999.275153	23.906787
999.673119	23.823675
1000.071046	24.064143
1000.468933	24.205092
1000.866781	24.305789
1001.264590	24.508680
1001.662359	24.763190
1002.060089	24.860386
1002.457780	24.974675
1002.855431	25.036175
1003.253043	25.119463
1003.650615	25.352531
1004.048148	25.511138
1004.445642	25.629697
1004.843096	25.838138
1005.240511	26.041819
1005.637886	25.917586
1006.035221	26.055117
1006.432517	26.386801
1006.829774	26.636560
1007.226991	26.547381
1007.624168	26.874546
1008.021306	27.014716
1008.418404	27.250192
1008.815462	27.437526
1009.212481	27.486611
1009.609460	27.938144
1010.006399	28.108108
1010.403298	28.354246
1010.800158	28.593608
1011.196978	28.627278
1011.593758	28.897727
1011.990498	29.719604
1012.387199	29.661479
1012.783860	29.851958
1013.180480	29.856903
1013.577061	30.166477
1013.973602	30.381058
1014.370103	30.747250
1014.766564	30.991208
1015.162985	31.373326
1015.559366	31.601840
1015.955708	31.601310
1016.352009	31.708462
1016.748270	32.172702
1017.144491	32.391974
1017.540671	32.181839
1017.936812	32.665066
1018.332913	33.132915
1018.728973	32.958442
1019.124994	33.015127
1019.520974	33.889418
1019.916914	34.038528
1020.312814	33.859748
