Time1=100ms:Average1=5:Objective=10X:Aperture=1: (11/21/2018 2:06:11 PM)
11/21/2018 2:06:11 PM
Reflectance
10X
Ap#: 1
Avg1: 5.000000
Avg2: 0.000000
Int.Time1:100.000000

350.166136	81.403998
350.601937	81.681739
351.037728	81.148907
351.473509	81.568627
351.909281	81.435303
352.345042	81.672756
352.780794	81.640509
353.216536	81.709368
353.652267	81.828085
354.087989	81.734482
354.523701	81.667325
354.959403	81.452966
355.395095	81.705748
355.830777	81.334125
356.266449	81.021537
356.702110	80.842686
357.137762	80.710013
357.573404	80.315501
358.009035	80.054805
358.444656	80.066673
358.880268	80.478282
359.315869	80.347724
359.751459	79.966758
360.187040	80.204978
360.622610	80.647694
361.058170	80.669291
361.493720	80.455352
361.929260	81.138195
362.364789	81.321612
362.800308	80.742207
363.235816	80.378624
363.671314	79.940974
364.106802	80.080661
364.542279	80.683946
364.977746	80.577169
365.413203	80.780275
365.848649	81.012658
366.284084	81.077868
366.719509	81.478922
367.154924	81.811000
367.590328	81.562100
368.025721	81.253696
368.461104	81.248765
368.896477	81.266700
369.331838	81.145279
369.767189	81.833449
370.202530	82.079493
370.637859	82.201195
371.073178	82.345322
371.508486	82.349428
371.943784	82.389750
372.379071	82.131506
372.814347	82.292388
373.249612	82.581156
373.684866	83.189612
374.120110	83.308642
374.555343	83.331684
374.990565	83.769322
375.425776	83.526498
375.860976	83.351447
376.296165	83.630982
376.731343	83.969164
377.166511	84.240801
377.601667	84.287827
378.036812	84.111505
378.471946	84.410721
378.907070	83.968643
379.342182	83.804125
379.777283	83.932595
380.212373	83.338237
380.647452	83.148819
381.082520	83.460635
381.517576	83.975362
381.952622	83.895602
382.387656	83.493190
382.822679	83.588810
383.257691	83.002481
383.692692	82.911031
384.127681	83.414078
384.562659	83.091650
384.997626	83.108172
385.432581	82.856872
385.867525	83.374525
386.302458	83.078820
386.737379	83.341262
387.172289	83.004178
387.607188	82.710546
388.042075	82.991784
388.476951	82.662013
388.911815	82.684349
389.346668	82.653922
389.781509	82.776735
390.216338	82.754424
390.651157	82.592835
391.085963	82.184339
391.520758	82.166620
391.955541	81.891011
392.390313	82.039560
392.825073	81.846125
393.259821	81.764215
393.694558	81.613561
394.129283	81.378353
394.563996	81.223394
394.998698	80.861909
395.433388	80.613388
395.868066	80.289407
396.302732	80.047606
396.737386	79.704952
397.172029	79.194537
397.606659	78.569450
398.041278	78.310985
398.475885	77.866533
398.910480	77.436962
399.345063	76.352224
399.779634	75.623269
400.214194	74.072957
400.648741	72.636711
401.083276	71.131649
401.517799	68.991009
401.952310	67.262020
402.386809	64.786568
402.821296	62.795056
403.255771	60.256366
403.690234	57.532497
404.124684	55.353429
404.559123	52.632349
404.993549	50.012347
405.427963	47.015825
405.862365	44.421295
406.296754	41.845489
406.731131	39.348236
407.165496	37.234474
407.599849	35.276090
408.034190	33.368811
408.468518	31.535148
408.902833	29.874641
409.337137	28.413749
409.771428	26.965545
410.205706	25.562501
410.639973	24.311620
411.074226	23.177019
411.508467	22.218311
411.942696	21.230178
412.376912	20.455363
412.811116	19.771161
413.245307	19.091832
413.679486	18.548144
414.113652	17.907850
414.547805	17.345909
414.981946	16.824099
415.416074	16.365492
415.850190	15.988599
416.284293	15.542702
416.718383	15.240228
417.152460	14.891187
417.586525	14.616839
418.020577	14.416023
418.454616	14.144126
418.888643	13.946459
419.322656	13.746813
419.756657	13.536194
420.190645	13.323349
420.624620	13.101081
421.058582	12.895507
421.492531	12.707585
421.926468	12.565055
422.360391	12.405939
422.794301	12.279796
423.228199	12.180955
423.662083	12.097725
424.095955	12.064644
424.529813	12.000717
424.963658	11.949779
425.397491	11.891723
425.831310	11.795678
426.265116	11.713250
426.698909	11.651625
427.132689	11.585774
427.566455	11.554683
428.000209	11.548916
428.433949	11.544682
428.867676	11.525393
429.301389	11.530492
429.735090	11.536169
430.168777	11.495691
430.602451	11.467132
431.036111	11.397357
431.469759	11.323305
431.903392	11.271555
432.337013	11.210372
432.770620	11.161539
433.204213	11.136920
433.637794	11.129258
434.071360	11.129396
434.504914	11.164477
434.938453	11.196661
435.371979	11.232413
435.805492	11.284284
436.238991	11.332545
436.672477	11.351562
437.105949	11.388527
437.539407	11.389239
437.972852	11.406087
438.406283	11.416047
438.839700	11.446646
439.273104	11.466695
439.706494	11.503295
440.139871	11.541226
440.573233	11.582033
441.006582	11.629607
441.439917	11.664383
441.873238	11.693814
442.306546	11.715414
442.739839	11.702507
443.173119	11.678766
443.606385	11.682470
444.039636	11.681277
444.472874	11.690940
444.906099	11.720948
445.339309	11.743711
445.772505	11.796587
446.205687	11.868618
446.638855	11.938140
447.072009	12.019774
447.505149	12.095585
447.938275	12.159376
448.371387	12.226231
448.804485	12.284256
449.237569	12.325405
449.670638	12.372815
450.103694	12.411905
450.536735	12.442769
450.969762	12.475440
451.402774	12.500937
451.835773	12.553248
452.268757	12.600550
452.701727	12.671244
453.134683	12.739589
453.567624	12.816304
454.000551	12.898065
454.433464	12.954202
454.866362	12.997051
455.299246	13.038255
455.732116	13.079117
456.164971	13.137785
456.597811	13.200153
457.030638	13.254560
457.463449	13.319288
457.896246	13.387996
458.329029	13.456323
458.761797	13.539563
459.194551	13.621763
459.627290	13.684994
460.060014	13.766126
460.492724	13.856401
460.925419	13.953209
461.358099	14.050357
461.790765	14.140755
462.223416	14.229335
462.656052	14.316696
463.088674	14.393387
463.521281	14.473946
463.953873	14.558733
464.386450	14.637008
464.819012	14.737131
465.251560	14.821746
465.684093	14.929509
466.116611	15.035011
466.549114	15.161522
466.981602	15.283843
467.414075	15.397474
467.846533	15.527467
468.278977	15.660271
468.711405	15.789845
469.143818	15.921652
469.576216	16.035436
470.008600	16.150472
470.440968	16.249854
470.873321	16.348436
471.305659	16.446798
471.737982	16.547630
472.170289	16.659120
472.602582	16.755719
473.034859	16.866119
473.467122	16.988527
473.899369	17.116277
474.331600	17.246631
474.763817	17.396897
475.196018	17.572667
475.628204	17.759055
476.060375	17.961619
476.492530	18.161228
476.924670	18.370520
477.356795	18.563005
477.788904	18.770086
478.220998	18.955777
478.653076	19.147497
479.085139	19.326383
479.517186	19.513812
479.949219	19.692317
480.381235	19.889052
480.813236	20.123242
481.245221	20.376474
481.677191	20.658149
482.109146	20.935776
482.541084	21.222558
482.973008	21.515296
483.404915	21.807388
483.836807	22.084645
484.268683	22.345296
484.700544	22.573967
485.132388	22.794928
485.564217	22.996863
485.996031	23.195778
486.427828	23.382122
486.859610	23.545159
487.291376	23.723543
487.723126	23.908177
488.154860	24.100965
488.586579	24.286831
489.018281	24.494289
489.449968	24.732140
489.881639	24.997346
490.313293	25.284217
490.744932	25.575934
491.176555	25.878605
491.608162	26.180098
492.039753	26.477603
492.471328	26.750531
492.902886	26.997868
493.334429	27.218235
493.765956	27.404504
494.197466	27.561530
494.628960	27.707934
495.060439	27.845956
495.491901	28.033417
495.923347	28.222200
496.354776	28.439180
496.786190	28.688602
497.217587	28.969847
497.648968	29.274754
498.080332	29.594718
498.511681	29.909124
498.943013	30.193805
499.374328	30.463099
499.805628	30.710863
500.236911	30.934944
500.668177	31.112219
501.099427	31.257643
501.530661	31.362215
501.961878	31.460423
502.393079	31.533338
502.824264	31.586860
503.255431	31.647338
503.686583	31.690516
504.117717	31.784797
504.548835	31.879291
504.979937	32.019918
505.411022	32.189142
505.842090	32.411264
506.273142	32.667165
506.704177	32.954441
507.135195	33.266321
507.566197	33.584078
507.997182	33.883577
508.428150	34.162826
508.859102	34.383762
509.290036	34.584934
509.720954	34.752798
510.151855	34.891468
510.582739	35.010293
511.013607	35.130111
511.444457	35.273566
511.875291	35.449046
512.306107	35.696215
512.736907	35.993285
513.167690	36.347152
513.598456	36.761465
514.029205	37.214135
514.459936	37.708749
514.890651	38.227747
515.321349	38.731398
515.752030	39.215492
516.182693	39.664515
516.613340	40.061381
517.043969	40.442681
517.474582	40.750083
517.905177	41.023242
518.335755	41.234607
518.766315	41.414553
519.196859	41.559903
519.627385	41.678525
520.057894	41.812111
520.488386	41.949658
520.918860	42.109451
521.349318	42.324871
521.779757	42.573540
522.210180	42.887060
522.640585	43.259221
523.070973	43.661817
523.501343	44.097876
523.931696	44.575952
524.362031	45.052695
524.792349	45.510281
525.222650	45.928890
525.652933	46.296834
526.083198	46.598960
526.513446	46.846043
526.943677	47.020627
527.373890	47.153792
527.804085	47.269108
528.234262	47.354014
528.664422	47.462853
529.094565	47.606031
529.524689	47.795618
529.954796	48.058129
530.384885	48.344155
530.814957	48.697850
531.245011	49.091350
531.675047	49.528057
532.105065	49.974570
532.535065	50.407621
532.965048	50.827104
533.395013	51.200488
533.824959	51.524316
534.254888	51.781095
534.684799	51.963614
535.114693	52.105175
535.544568	52.188492
535.974425	52.212013
536.404264	52.217084
536.834086	52.182209
537.263889	52.113063
537.693674	52.045617
538.123441	51.988681
538.553190	51.960496
538.982921	51.941692
539.412634	51.960231
539.842329	52.014735
540.272006	52.114165
540.701664	52.243794
541.131304	52.387312
541.560926	52.572779
541.990530	52.767271
542.420116	52.972368
542.849683	53.174761
543.279232	53.357237
543.708763	53.545006
544.138275	53.714768
544.567769	53.876435
544.997245	53.999498
545.426702	54.128163
545.856141	54.248461
546.285562	54.368582
546.714964	54.481764
547.144347	54.611725
547.573713	54.760612
548.003059	54.945783
548.432387	55.156430
548.861697	55.386574
549.290988	55.652973
549.720260	55.935532
550.149514	56.242578
550.578750	56.576118
551.007966	56.933321
551.437164	57.304010
551.866344	57.676439
552.295504	58.062085
552.724646	58.440669
553.153769	58.793047
553.582874	59.130929
554.011960	59.430592
554.441027	59.695128
554.870075	59.921643
555.299104	60.112151
555.728115	60.255308
556.157106	60.373679
556.586079	60.449631
557.015033	60.503686
557.443968	60.540912
557.872884	60.561941
558.301781	60.597116
558.730659	60.610571
559.159518	60.656136
559.588358	60.723935
560.017180	60.806418
560.445982	60.915404
560.874765	61.048551
561.303528	61.199853
561.732273	61.360384
562.160999	61.556522
562.589705	61.764391
563.018393	61.994211
563.447061	62.241429
563.875710	62.516955
564.304340	62.794842
564.732950	63.076992
565.161542	63.365939
565.590114	63.661249
566.018666	63.950831
566.447200	64.241696
566.875714	64.519964
567.304208	64.792981
567.732684	65.065858
568.161140	65.333340
568.589576	65.596539
569.017993	65.861876
569.446391	66.126731
569.874769	66.411986
570.303128	66.713329
570.731467	67.031926
571.159787	67.374021
571.588087	67.727230
572.016368	68.129379
572.444629	68.537886
572.872870	68.955632
573.301092	69.397902
573.729294	69.823748
574.157476	70.235637
574.585639	70.618593
575.013782	70.962225
575.441906	71.247397
575.870009	71.480557
576.298093	71.664874
576.726157	71.796479
577.154202	71.841278
577.582226	71.853532
578.010231	71.835505
578.438216	71.783050
578.866181	71.705605
579.294126	71.632415
579.722051	71.564420
580.149957	71.491502
580.577842	71.455878
581.005707	71.429830
581.433553	71.434128
581.861378	71.453768
582.289184	71.500266
582.716969	71.567433
583.144734	71.635614
583.572479	71.714738
584.000205	71.792894
584.427910	71.884061
584.855594	72.006597
585.283259	72.109672
585.710904	72.233822
586.138528	72.356979
586.566132	72.476202
586.993716	72.614784
587.421280	72.759512
587.848823	72.916144
588.276346	73.077826
588.703849	73.241976
589.131332	73.388664
589.558794	73.527222
589.986236	73.638162
590.413657	73.771067
590.841058	73.865636
591.268438	73.953542
591.695799	74.040234
592.123138	74.152497
592.550458	74.266572
592.977756	74.392307
593.405034	74.566602
593.832292	74.744488
594.259529	74.955763
594.686746	75.183352
595.113942	75.447325
595.541117	75.712500
595.968272	75.984343
596.395406	76.261238
596.822519	76.518069
597.249612	76.760002
597.676684	76.944979
598.103735	77.069675
598.530766	77.146970
598.957775	77.155061
599.384764	77.117915
599.811733	77.029763
600.238680	76.882806
600.665606	76.693162
601.092512	76.470060
601.519397	76.230601
601.946261	75.987218
602.373104	75.754972
602.799926	75.531922
603.226727	75.331547
603.653507	75.137155
604.080266	74.974391
604.507004	74.823997
604.933721	74.693795
605.360417	74.556357
605.787092	74.416776
606.213746	74.275942
606.640379	74.112788
607.066991	73.951533
607.493581	73.776850
607.920150	73.601021
608.346699	73.415028
608.773226	73.252594
609.199731	73.077079
609.626216	72.921762
610.052679	72.790974
610.479121	72.682470
610.905542	72.599495
611.331941	72.556601
611.758319	72.544972
612.184676	72.580044
612.611011	72.636982
613.037325	72.715153
613.463617	72.814624
613.889888	72.928386
614.316138	73.050065
614.742366	73.177313
615.168573	73.300729
615.594758	73.420653
616.020921	73.542847
616.447063	73.674712
616.873184	73.810345
617.299283	73.969124
617.725360	74.155147
618.151416	74.358973
618.577450	74.585599
619.003462	74.865787
619.429453	75.182564
619.855422	75.553394
620.281369	75.957468
620.707295	76.382587
621.133199	76.811533
621.559081	77.255988
621.984941	77.687443
622.410779	78.108404
622.836596	78.503594
623.262391	78.850931
623.688163	79.141458
624.113914	79.408801
624.539644	79.614775
624.965351	79.775555
625.391036	79.881281
625.816699	79.941607
626.242340	79.974272
626.667960	79.978186
627.093557	79.974178
627.519132	79.965424
627.944685	79.950011
628.370216	79.921317
628.795725	79.918137
629.221212	79.894502
629.646677	79.887702
630.072119	79.888613
630.497540	79.861694
630.922938	79.826339
631.348314	79.764510
631.773668	79.706140
632.198999	79.619223
632.624308	79.493611
633.049595	79.352435
633.474860	79.189735
633.900102	79.030163
634.325322	78.876772
634.750520	78.724315
635.175695	78.599791
635.600848	78.524803
636.025978	78.486929
636.451086	78.516758
636.876171	78.600210
637.301234	78.730236
637.726275	78.927128
638.151293	79.183757
638.576288	79.467111
639.001261	79.798754
639.426211	80.148481
639.851139	80.527295
640.276044	80.895822
640.700927	81.242646
641.125787	81.577620
641.550624	81.894897
641.975438	82.164117
642.400230	82.409113
642.824999	82.602361
643.249745	82.735637
643.674469	82.862025
644.099169	82.950066
644.523847	83.041180
644.948502	83.099136
645.373135	83.144723
645.797744	83.200664
646.222330	83.246265
646.646894	83.305652
647.071435	83.362858
647.495953	83.429092
647.920447	83.518810
648.344919	83.596673
648.769368	83.669715
649.193794	83.743287
649.618197	83.787439
650.042576	83.819315
650.466933	83.848176
650.891267	83.852449
651.315577	83.830664
651.739864	83.806051
652.164129	83.753626
652.588370	83.683573
653.012587	83.594089
653.436782	83.514928
653.860953	83.436262
654.285102	83.354686
654.709226	83.291004
655.133328	83.226932
655.557406	83.178757
655.981461	83.139664
656.405493	83.125184
656.829501	83.102791
657.253486	83.083230
657.677448	83.045517
658.101386	82.994511
658.525301	82.930911
658.949192	82.845775
659.373060	82.720117
659.796904	82.557977
660.220725	82.371951
660.644522	82.152219
661.068296	81.888383
661.492046	81.607200
661.915772	81.319350
662.339475	81.018114
662.763154	80.734645
663.186810	80.481373
663.610442	80.244984
664.034050	80.041784
664.457635	79.896921
664.881196	79.823206
665.304733	79.820871
665.728247	79.902340
666.151736	80.067089
666.575202	80.294388
666.998644	80.611863
667.422062	80.993971
667.845457	81.433703
668.268827	81.944535
668.692174	82.486933
669.115496	83.069554
669.538795	83.674916
669.962070	84.301023
670.385321	84.918413
670.808547	85.529658
671.231750	86.117831
671.654929	86.670865
672.078084	87.205409
672.501214	87.708612
672.924321	88.192114
673.347404	88.647976
673.770462	89.081025
674.193496	89.491807
674.616506	89.886323
675.039492	90.257656
675.462454	90.614013
675.885391	90.950098
676.308305	91.260732
676.731194	91.573832
677.154058	91.876783
677.576899	92.184446
677.999715	92.474197
678.422507	92.741493
678.845274	92.994004
679.268017	93.238639
679.690736	93.472914
680.113430	93.674769
680.536100	93.870442
680.958746	94.042010
681.381367	94.183265
681.803963	94.310853
682.226535	94.415919
682.649083	94.500119
683.071605	94.572943
683.494104	94.630243
683.916578	94.692336
684.339027	94.755660
684.761451	94.824213
685.183851	94.877294
685.606227	94.928901
686.028577	94.963134
686.450903	94.991207
686.873204	94.993875
687.295481	94.982883
687.717733	94.935159
688.139959	94.854717
688.562162	94.738382
688.984339	94.593579
689.406492	94.415133
689.828619	94.169400
690.250722	93.888139
690.672800	93.540359
691.094853	93.148138
691.516881	92.725417
691.938884	92.265327
692.360863	91.767762
692.782816	91.247522
693.204744	90.715146
693.626647	90.185858
694.048526	89.684204
694.470379	89.203277
694.892207	88.758353
695.314010	88.374468
695.735788	88.057717
696.157540	87.784056
696.579268	87.592490
697.000970	87.463955
697.422648	87.409576
697.844300	87.415455
698.265926	87.502508
698.687528	87.667771
699.109104	87.887975
699.530655	88.165206
699.952181	88.509717
700.373681	88.885778
700.795156	89.310083
701.216606	89.766997
701.638030	90.241298
702.059429	90.709434
702.480803	91.188291
702.902151	91.657769
703.323473	92.092592
703.744770	92.488272
704.166042	92.837447
704.587288	93.148260
705.008509	93.417107
705.429704	93.626247
705.850873	93.793231
706.272017	93.909066
706.693135	93.982385
707.114228	93.988291
707.535295	93.956443
707.956336	93.887361
708.377352	93.770015
708.798342	93.625298
709.219306	93.450752
709.640245	93.268818
710.061157	93.073762
710.482044	92.856898
710.902905	92.643288
711.323741	92.429295
711.744550	92.220788
712.165334	92.034784
712.586092	91.857666
713.006823	91.698889
713.427529	91.569237
713.848209	91.465014
714.268863	91.377837
714.689492	91.320053
715.110094	91.305415
715.530670	91.308085
715.951220	91.353345
716.371744	91.432506
716.792242	91.555482
717.212714	91.711923
717.633159	91.894262
718.053579	92.096242
718.473973	92.323620
718.894340	92.563612
719.314681	92.821828
719.734996	93.065196
720.155285	93.308118
720.575547	93.534874
720.995784	93.736197
721.415994	93.898487
721.836177	94.012856
722.256335	94.090200
722.676466	94.096883
723.096570	94.037796
723.516649	93.935967
723.936701	93.781623
724.356726	93.534140
724.776725	93.225856
725.196698	92.859784
725.616644	92.442074
726.036564	91.955011
726.456457	91.437555
726.876324	90.880056
727.296164	90.304474
727.715977	89.732931
728.135764	89.144887
728.555525	88.576195
728.975258	88.020854
729.394966	87.499773
729.814646	87.020222
730.234300	86.593946
730.653927	86.223940
731.073527	85.909303
731.493101	85.666323
731.912648	85.486866
732.332168	85.385119
732.751661	85.360151
733.171128	85.411442
733.590568	85.545658
734.009980	85.759623
734.429366	86.054326
734.848726	86.416610
735.268058	86.849241
735.687363	87.340633
736.106641	87.879258
736.525893	88.452463
736.945117	89.045918
737.364314	89.691149
737.783485	90.348019
738.202628	91.006488
738.621744	91.671339
739.040834	92.337445
739.459896	92.973652
739.878931	93.581990
740.297939	94.140652
740.716919	94.643034
741.135873	95.115461
741.554799	95.515419
741.973698	95.870972
742.392570	96.152955
742.811415	96.373571
743.230232	96.503792
743.649022	96.571870
744.067785	96.579275
744.486521	96.531052
744.905229	96.431824
745.323909	96.271632
745.742563	96.061837
746.161189	95.827718
746.579787	95.566565
746.998358	95.283863
747.416902	94.986944
747.835418	94.690948
748.253907	94.403394
748.672368	94.125484
749.090802	93.867894
749.509208	93.633617
749.927586	93.440836
750.345937	93.280735
750.764261	93.168296
751.182556	93.112469
751.600824	93.089170
752.019065	93.129550
752.437277	93.233620
752.855462	93.390049
753.273620	93.603424
753.691749	93.873776
754.109851	94.173676
754.527925	94.516223
754.945971	94.883073
755.363989	95.285962
755.781980	95.709099
756.199943	96.152555
756.617877	96.594646
757.035784	97.032259
757.453663	97.428939
757.871514	97.808708
758.289337	98.158281
758.707132	98.452015
759.124899	98.684450
759.542639	98.849647
759.960350	98.933825
760.378033	98.930802
760.795688	98.832223
761.213314	98.648272
761.630913	98.383834
762.048484	98.051636
762.466026	97.652033
762.883541	97.158679
763.301027	96.593602
763.718485	95.968647
764.135914	95.280268
764.553316	94.563639
764.970689	93.807151
765.388034	93.017825
765.805351	92.220655
766.222639	91.422794
766.639899	90.615993
767.057131	89.821395
767.474334	89.062831
767.891509	88.339981
768.308655	87.664769
768.725773	87.025597
769.142863	86.465209
769.559924	85.966615
769.976957	85.537924
770.393961	85.189778
770.810936	84.914123
771.227883	84.693891
771.644802	84.573729
772.061692	84.522013
772.478553	84.542505
772.895386	84.651611
773.312190	84.849365
773.728965	85.153299
774.145712	85.519505
774.562430	85.959376
774.979119	86.456942
775.395780	87.016128
775.812411	87.643397
776.229014	88.316372
776.645589	89.036023
777.062134	89.810164
777.478651	90.598613
777.895138	91.401779
778.311597	92.227746
778.728027	93.042588
779.144428	93.871603
779.560800	94.684500
779.977143	95.486653
780.393458	96.253605
780.809743	96.972017
781.225999	97.655074
781.642226	98.282640
782.058425	98.842342
782.474594	99.328573
782.890734	99.748207
783.306845	100.101591
783.722926	100.379177
784.138979	100.585467
784.555003	100.700899
784.970997	100.731459
785.386962	100.697354
785.802898	100.578908
786.218805	100.386033
786.634682	100.104157
787.050531	99.780305
787.466349	99.386529
787.882139	98.952826
788.297899	98.487292
788.713630	97.992512
789.129332	97.505540
789.545004	97.016636
789.960647	96.524703
790.376260	96.066794
790.791844	95.633477
791.207399	95.229577
791.622924	94.887518
792.038419	94.574699
792.453885	94.339883
792.869321	94.171474
793.284728	94.060841
793.700106	94.037242
794.115453	94.077082
794.530771	94.182518
794.946060	94.347231
795.361319	94.558890
795.776548	94.829574
796.191747	95.138621
796.606917	95.473949
797.022057	95.859865
797.437167	96.254685
797.852248	96.690243
798.267298	97.103341
798.682319	97.529125
799.097310	97.952614
799.512271	98.330645
799.927203	98.681168
800.342104	99.022615
800.756976	99.294517
801.171818	99.510407
801.586629	99.688864
802.001411	99.794321
802.416163	99.834089
802.830885	99.814024
803.245577	99.729824
803.660238	99.591765
804.074870	99.372584
804.489472	99.085563
804.904043	98.733825
805.318585	98.315051
805.733096	97.827964
806.147577	97.301089
806.562028	96.709959
806.976449	96.077174
807.390840	95.414715
807.805200	94.702372
808.219530	93.993718
808.633830	93.265879
809.048100	92.514101
809.462339	91.755173
809.876548	91.005566
810.290727	90.274217
810.704875	89.543333
811.118993	88.838048
811.533080	88.158588
811.947137	87.502241
812.361164	86.901082
812.775160	86.315669
813.189126	85.766674
813.603061	85.278514
814.016966	84.842993
814.430840	84.448134
814.844684	84.123386
815.258497	83.862423
815.672280	83.662533
816.086032	83.528758
816.499753	83.454112
816.913444	83.457739
817.327104	83.553643
817.740733	83.710448
818.154331	83.957788
818.567899	84.264363
818.981436	84.655629
819.394943	85.125228
819.808418	85.653445
820.221863	86.241078
820.635277	86.921065
821.048660	87.639513
821.462013	88.406606
821.875334	89.234132
822.288625	90.103592
822.701884	91.024287
823.115113	91.970987
823.528311	92.921247
823.941478	93.903483
824.354614	94.853255
824.767718	95.818586
825.180792	96.733155
825.593835	97.649164
826.006847	98.523365
826.419827	99.341621
826.832777	100.089281
827.245695	100.768486
827.658582	101.348465
828.071438	101.827992
828.484263	102.216836
828.897057	102.478189
829.309819	102.632424
829.722551	102.680670
830.135251	102.579766
830.547919	102.370817
830.960557	102.030691
831.373163	101.634805
831.785738	101.096420
832.198281	100.487508
832.610793	99.790731
833.023274	99.053627
833.435723	98.245863
833.848141	97.417300
834.260528	96.555793
834.672883	95.705804
835.085206	94.847702
835.497498	93.944367
835.909758	93.098267
836.321987	92.307707
836.734185	91.543680
837.146350	90.861505
837.558485	90.209316
837.970587	89.643133
838.382658	89.135920
838.794697	88.684134
839.206705	88.328131
839.618681	88.045473
840.030625	87.862904
840.442538	87.745902
840.854418	87.720206
841.266267	87.762389
841.678084	87.887367
842.089870	88.066423
842.501623	88.329372
842.913345	88.628466
843.325035	88.994395
843.736693	89.383294
844.148319	89.799623
844.559913	90.282695
844.971475	90.751270
845.383005	91.260364
845.794504	91.734650
846.205970	92.229863
846.617404	92.692876
847.028806	93.144474
847.440176	93.555242
847.851514	93.936174
848.262820	94.275130
848.674094	94.549684
849.085336	94.750983
849.496546	94.882058
849.907723	94.933936
850.318868	94.891808
850.729981	94.790234
851.141062	94.613143
851.552110	94.377556
851.963127	94.049499
852.374111	93.649198
852.785062	93.146584
853.195982	92.621644
853.606869	91.993460
854.017723	91.312962
854.428546	90.577026
854.839336	89.817256
855.250093	88.982672
855.660818	88.135860
856.071511	87.272547
856.482171	86.379930
856.892799	85.465289
857.303394	84.552638
857.713956	83.621158
858.124486	82.667867
858.534984	81.715303
858.945449	80.771908
859.355881	79.843122
859.766280	78.913352
860.176647	77.989123
860.586982	77.095230
860.997283	76.242502
861.407552	75.385602
861.817789	74.551541
862.227992	73.765937
862.638163	73.011145
863.048301	72.326002
863.458406	71.645201
863.868478	71.019796
864.278518	70.428050
864.688524	69.901437
865.098498	69.411036
865.508439	68.969904
865.918347	68.543011
866.328222	68.225495
866.738064	67.945396
867.147873	67.717381
867.557649	67.540917
867.967392	67.400886
868.377102	67.322782
868.786779	67.312506
869.196423	67.361833
869.606034	67.452778
870.015612	67.562345
870.425156	67.760366
870.834668	67.986741
871.244146	68.296436
871.653591	68.624012
872.063003	68.984071
872.472382	69.383573
872.881728	69.807474
873.291040	70.261580
873.700319	70.725241
874.109564	71.225558
874.518777	71.742846
874.927956	72.267232
875.337102	72.790846
875.746214	73.306938
876.155293	73.817029
876.564338	74.286090
876.973350	74.724573
877.382329	75.141229
877.791274	75.527941
878.200186	75.899385
878.609064	76.234017
879.017909	76.465888
879.426720	76.648413
879.835497	76.777675
880.244241	76.853361
880.652952	76.870629
881.061629	76.826137
881.470272	76.713580
881.878881	76.561032
882.287457	76.338497
882.695999	76.037619
883.104507	75.694344
883.512982	75.324726
883.921423	74.913809
884.329830	74.441624
884.738203	73.959114
885.146543	73.441418
885.554849	72.899628
885.963120	72.337134
886.371358	71.791129
886.779563	71.212600
887.187733	70.639905
887.595869	70.090040
888.003971	69.521092
888.412040	68.944106
888.820074	68.410011
889.228074	67.915028
889.636041	67.435427
890.043973	66.964650
890.451871	66.549440
890.859736	66.148151
891.267566	65.790509
891.675362	65.488280
892.083124	65.218750
892.490851	64.973775
892.898545	64.764703
893.306204	64.602823
893.713829	64.486389
894.121420	64.401241
894.528977	64.351324
894.936499	64.318995
895.343987	64.327343
895.751441	64.340824
896.158860	64.393790
896.566246	64.451417
896.973596	64.543494
897.380913	64.626670
897.788195	64.715302
898.195442	64.844110
898.602655	64.975586
899.009834	65.070439
899.416978	65.175223
899.824088	65.275377
900.231163	65.327761
900.638204	65.399642
901.045210	65.450654
901.452181	65.459972
901.859118	65.428112
902.266021	65.398252
902.672888	65.337173
903.079721	65.209455
903.486520	65.075746
903.893283	64.889896
904.300012	64.688875
904.706707	64.415441
905.113366	64.155677
905.519991	63.852849
905.926581	63.498651
906.333136	63.084954
906.739656	62.618227
907.146142	62.112206
907.552592	61.621028
907.959008	61.106639
908.365389	60.551648
908.771735	59.958376
909.178046	59.371412
909.584322	58.745290
909.990563	58.107063
910.396769	57.474188
910.802940	56.820292
911.209076	56.146603
911.615177	55.497377
912.021243	54.820417
912.427274	54.159268
912.833270	53.500240
913.239231	52.843954
913.645156	52.210786
914.051046	51.574249
914.456902	50.952646
914.862721	50.361973
915.268506	49.758511
915.674256	49.177636
916.079970	48.608635
916.485649	48.069028
916.891292	47.520644
917.296901	47.020398
917.702474	46.487246
918.108011	45.996837
918.513514	45.541606
918.918980	45.107745
919.324412	44.717986
919.729808	44.329400
920.135169	43.953453
920.540494	43.611237
920.945783	43.321382
921.351037	43.057893
921.756256	42.768091
922.161439	42.538660
922.566586	42.330359
922.971698	42.136943
923.376775	41.975434
923.781815	41.826918
924.186820	41.692092
924.591790	41.598556
924.996723	41.507789
925.401621	41.415312
925.806484	41.347297
926.211310	41.290656
926.616101	41.293851
927.020856	41.292167
927.425575	41.273572
927.830259	41.266277
928.234906	41.324258
928.639518	41.359570
929.044094	41.408287
929.448634	41.465641
929.853138	41.526564
930.257606	41.611291
930.662038	41.665322
931.066434	41.725453
931.470795	41.811223
931.875119	41.889032
932.279407	41.985532
932.683659	42.066153
933.087875	42.128486
933.492055	42.172224
933.896199	42.194952
934.300307	42.240363
934.704379	42.247420
935.108414	42.270351
935.512414	42.290208
935.916377	42.236119
936.320304	42.210189
936.724195	42.145661
937.128049	42.064742
937.531867	41.954978
937.935649	41.865854
938.339395	41.766441
938.743104	41.623184
939.146777	41.438595
939.550414	41.264109
939.954014	41.067800
940.357578	40.861980
940.761105	40.605624
941.164596	40.359370
941.568050	40.081545
941.971468	39.784130
942.374850	39.479817
942.778195	39.159141
943.181503	38.855689
943.584775	38.560613
943.988010	38.182275
944.391209	37.833415
944.794371	37.459557
945.197496	37.121349
945.600585	36.764862
946.003637	36.399465
946.406653	36.023932
946.809632	35.663494
947.212574	35.309985
947.615479	34.943348
948.018347	34.564092
948.421179	34.250213
948.823974	33.905700
949.226732	33.580826
949.629453	33.266151
950.032138	32.978502
950.434785	32.686936
950.837396	32.399964
951.239969	32.132065
951.642506	31.880501
952.045006	31.627521
952.447469	31.390818
952.849895	31.180481
953.252283	31.003228
953.654635	30.809655
954.056950	30.643834
954.459227	30.457150
954.861468	30.297087
955.263671	30.167681
955.665838	30.031399
956.067967	29.882468
956.470059	29.814884
956.872114	29.680110
957.274131	29.585050
957.676112	29.470849
958.078055	29.368061
958.479961	29.283815
958.881829	29.242054
959.283661	29.168040
959.685455	29.101894
960.087211	29.012934
960.488931	28.971344
960.890613	28.907601
961.292257	28.823598
961.693864	28.746754
962.095434	28.663487
962.496966	28.555612
962.898461	28.481403
963.299918	28.368582
963.701338	28.269894
964.102720	28.172474
964.504065	28.077961
964.905372	27.992185
965.306641	27.881284
965.707873	27.744111
966.109068	27.599220
966.510224	27.442042
966.911343	27.339897
967.312425	27.207696
967.713468	27.066861
968.114474	26.911989
968.515442	26.790005
968.916373	26.627289
969.317265	26.524982
969.718120	26.418041
970.118937	26.259767
970.519716	26.138897
970.920458	26.016546
971.321161	25.888315
971.721827	25.758873
972.122454	25.669715
972.523044	25.542118
972.923596	25.437927
973.324110	25.301912
973.724585	25.132344
974.125023	25.022961
974.525423	24.910942
974.925785	24.822014
975.326108	24.705494
975.726394	24.603644
976.126642	24.523328
976.526851	24.421950
976.927022	24.303878
977.327155	24.252160
977.727250	24.197930
978.127307	24.095380
978.527325	24.067054
978.927306	24.038191
979.327248	23.985075
979.727151	23.969020
980.127017	23.930444
980.526844	23.887559
980.926633	23.781856
981.326383	23.755683
981.726095	23.679692
982.125769	23.615620
982.525404	23.608550
982.925001	23.532743
983.324560	23.496701
983.724079	23.443891
984.123561	23.399168
984.523004	23.310512
984.922408	23.339104
985.321774	23.256088
985.721102	23.207597
986.120390	23.226944
986.519641	23.221381
986.918852	23.197928
987.318025	23.197529
987.717159	23.174983
988.116255	23.184388
988.515312	23.215030
988.914330	23.199887
989.313310	23.248975
989.712250	23.192548
990.111152	23.212932
990.510015	23.303574
990.908840	23.369823
991.307625	23.409801
991.706372	23.466927
992.105080	23.432070
992.503749	23.434696
992.902379	23.420830
993.300970	23.534509
993.699522	23.600717
994.098035	23.638392
994.496510	23.649210
994.894945	23.692781
995.293341	23.762656
995.691698	23.895288
996.090016	23.825936
996.488296	23.924190
996.886535	24.029738
997.284736	24.048765
997.682898	24.177356
998.081021	24.250785
998.479104	24.396300
998.877148	24.486694
999.275153	24.673373
999.673119	24.782983
1000.071046	24.840577
1000.468933	25.002732
1000.866781	25.111970
1001.264590	25.313700
1001.662359	25.370245
1002.060089	25.463880
1002.457780	25.564048
1002.855431	25.530041
1003.253043	25.519824
1003.650615	25.639840
1004.048148	25.860374
1004.445642	25.981074
1004.843096	26.158445
1005.240511	26.425647
1005.637886	26.427982
1006.035221	26.579302
1006.432517	26.893250
1006.829774	27.226494
1007.226991	27.318986
1007.624168	27.490483
1008.021306	27.570953
1008.418404	27.881192
1008.815462	28.086606
1009.212481	28.132173
1009.609460	28.630339
1010.006399	28.901238
1010.403298	29.192482
1010.800158	29.476953
1011.196978	29.645945
1011.593758	30.005682
1011.990498	30.258151
1012.387199	30.648580
1012.783860	30.932600
1013.180480	31.088050
1013.577061	31.216153
1013.973602	31.623637
1014.370103	32.140306
1014.766564	32.276246
1015.162985	32.506538
1015.559366	32.722710
1015.955708	32.955652
1016.352009	32.797971
1016.748270	33.068046
1017.144491	33.453657
1017.540671	33.835940
1017.936812	34.285714
1018.332913	34.578483
1018.728973	34.549445
1019.124994	34.601263
1019.520974	35.430569
1019.916914	36.119711
1020.312814	36.303817
