Time1=100ms:Average1=5:Objective=10X:Aperture=1: (11/21/2018 2:10:04 PM)
11/21/2018 2:10:04 PM
Reflectance
10X
Ap#: 1
Avg1: 5.000000
Avg2: 0.000000
Int.Time1:100.000000

350.166136	74.225941
350.601937	74.485280
351.037728	74.237820
351.473509	74.509804
351.909281	74.484587
352.345042	74.444554
352.780794	74.365808
353.216536	74.131962
353.652267	74.291939
354.087989	73.883774
354.523701	73.982616
354.959403	74.286842
355.395095	74.334620
355.830777	74.079572
356.266449	73.542778
356.702110	73.390431
357.137762	73.394136
357.573404	73.495983
358.009035	73.223723
358.444656	73.301304
358.880268	73.450464
359.315869	73.451846
359.751459	73.445444
360.187040	73.958028
360.622610	74.180569
361.058170	74.045276
361.493720	73.940469
361.929260	74.051504
362.364789	74.051758
362.800308	74.319644
363.235816	74.778150
363.671314	74.648303
364.106802	74.640960
364.542279	74.386518
364.977746	74.519846
365.413203	74.452916
365.848649	74.386867
366.284084	74.668120
366.719509	74.745779
367.154924	74.839538
367.590328	75.002462
368.025721	75.211906
368.461104	75.212409
368.896477	75.536863
369.331838	75.133057
369.767189	75.995258
370.202530	76.251363
370.637859	76.235060
371.073178	76.257846
371.508486	76.117471
371.943784	75.764799
372.379071	75.576083
372.814347	75.442938
373.249612	75.613618
373.684866	75.795421
374.120110	75.950617
374.555343	76.452539
374.990565	76.337693
375.425776	76.671620
375.860976	76.958799
376.296165	77.099161
376.731343	76.764183
377.166511	77.159576
377.601667	77.180877
378.036812	77.107959
378.471946	77.364998
378.907070	77.432631
379.342182	77.372691
379.777283	77.427256
380.212373	77.542414
380.647452	77.623200
381.082520	77.546024
381.517576	77.581150
381.952622	77.312711
382.387656	76.836754
382.822679	77.256179
383.257691	76.512693
383.692692	76.414555
384.127681	76.897502
384.562659	76.589897
384.997626	77.042985
385.432581	76.997349
385.867525	77.347909
386.302458	76.790287
386.737379	76.738655
387.172289	76.224839
387.607188	76.261381
388.042075	75.918406
388.476951	75.926799
388.911815	75.244545
389.346668	74.932059
389.781509	75.140713
390.216338	75.339388
390.651157	75.568235
391.085963	75.271637
391.520758	75.775466
391.955541	75.714951
392.390313	75.601791
392.825073	75.726528
393.259821	75.985530
393.694558	75.703964
394.129283	75.790934
394.563996	75.856006
394.998698	75.940686
395.433388	76.085333
395.868066	76.009179
396.302732	75.800429
396.737386	75.656180
397.172029	75.868636
397.606659	75.521795
398.041278	75.417891
398.475885	75.082162
398.910480	74.892868
399.345063	74.286605
399.779634	73.776547
400.214194	72.488049
400.648741	71.846497
401.083276	70.573013
401.517799	69.334665
401.952310	67.974894
402.386809	66.458044
402.821296	64.589715
403.255771	62.385859
403.690234	60.184670
404.124684	57.874150
404.559123	55.605630
404.993549	53.442173
405.427963	50.986176
405.862365	49.048064
406.296754	46.952782
406.731131	44.966749
407.165496	43.454689
407.599849	41.971791
408.034190	40.509887
408.468518	39.190045
408.902833	37.842165
409.337137	36.798047
409.771428	35.838350
410.205706	34.957891
410.639973	34.143650
411.074226	33.400952
411.508467	32.742092
411.942696	32.166251
412.376912	31.604067
412.811116	31.105438
413.245307	30.699260
413.679486	30.415992
414.113652	30.079368
414.547805	29.742175
414.981946	29.493841
415.416074	29.302140
415.850190	29.175552
416.284293	29.014184
416.718383	28.927312
417.152460	28.844826
417.586525	28.765332
418.020577	28.792941
418.454616	28.685190
418.888643	28.682935
419.322656	28.687645
419.756657	28.700023
420.190645	28.703651
420.624620	28.730393
421.058582	28.709120
421.492531	28.748783
421.926468	28.789463
422.360391	28.855188
422.794301	28.894510
423.228199	28.936217
423.662083	28.967795
424.095955	28.992524
424.529813	29.056198
424.963658	29.129648
425.397491	29.173332
425.831310	29.213162
426.265116	29.285378
426.698909	29.375313
427.132689	29.424349
427.566455	29.475304
428.000209	29.559248
428.433949	29.621332
428.867676	29.649166
429.301389	29.717484
429.735090	29.750896
430.168777	29.782643
430.602451	29.805540
431.036111	29.836249
431.469759	29.837335
431.903392	29.877014
432.337013	29.864507
432.770620	29.863569
433.204213	29.846358
433.637794	29.862531
434.071360	29.849597
434.504914	29.853350
434.938453	29.850670
435.371979	29.846674
435.805492	29.835853
436.238991	29.830392
436.672477	29.818567
437.105949	29.810521
437.539407	29.787716
437.972852	29.750641
438.406283	29.705718
438.839700	29.651565
439.273104	29.622267
439.706494	29.529594
440.139871	29.462828
440.573233	29.375881
441.006582	29.300812
441.439917	29.219288
441.873238	29.148887
442.306546	29.058512
442.739839	28.942197
443.173119	28.849014
443.606385	28.746232
444.039636	28.616793
444.472874	28.512637
444.906099	28.411726
445.339309	28.298680
445.772505	28.195430
446.205687	28.095224
446.638855	27.995703
447.072009	27.865564
447.505149	27.746272
447.938275	27.643648
448.371387	27.521533
448.804485	27.401572
449.237569	27.266303
449.670638	27.153628
450.103694	27.025309
450.536735	26.897291
450.969762	26.766442
451.402774	26.620856
451.835773	26.488690
452.268757	26.400488
452.701727	26.276482
453.134683	26.190882
453.567624	26.079376
454.000551	25.981570
454.433464	25.893648
454.866362	25.815522
455.299246	25.705948
455.732116	25.628983
456.164971	25.559744
456.597811	25.503018
457.030638	25.449088
457.463449	25.432716
457.896246	25.381616
458.329029	25.343895
458.761797	25.329357
459.194551	25.337952
459.627290	25.309824
460.060014	25.317238
460.492724	25.330802
460.925419	25.358146
461.358099	25.384055
461.790765	25.415460
462.223416	25.438062
462.656052	25.483665
463.088674	25.510038
463.521281	25.562884
463.953873	25.636986
464.386450	25.707179
464.819012	25.789226
465.251560	25.877842
465.684093	25.947522
466.116611	26.055163
466.549114	26.166719
466.981602	26.280200
467.414075	26.387484
467.846533	26.489273
468.278977	26.583398
468.711405	26.711728
469.143818	26.839830
469.576216	26.966148
470.008600	27.096962
470.440968	27.221280
470.873321	27.348609
471.305659	27.467686
471.737982	27.592052
472.170289	27.710272
472.602582	27.801923
473.034859	27.914984
473.467122	28.014973
473.899369	28.116672
474.331600	28.215388
474.763817	28.304654
475.196018	28.413863
475.628204	28.520760
476.060375	28.615870
476.492530	28.714565
476.924670	28.811870
477.356795	28.890775
477.788904	28.989801
478.220998	29.080234
478.653076	29.165726
479.085139	29.239515
479.517186	29.309551
479.949219	29.361705
480.381235	29.422761
480.813236	29.497025
481.245221	29.548656
481.677191	29.615208
482.109146	29.657084
482.541084	29.702837
482.973008	29.727931
483.404915	29.742584
483.836807	29.762303
484.268683	29.772435
484.700544	29.787997
485.132388	29.798099
485.564217	29.787289
485.996031	29.783289
486.427828	29.767872
486.859610	29.746693
487.291376	29.720812
487.723126	29.677366
488.154860	29.636155
488.586579	29.582224
489.018281	29.554891
489.449968	29.522571
489.881639	29.481496
490.313293	29.438456
490.744932	29.400625
491.176555	29.362965
491.608162	29.328397
492.039753	29.292620
492.471328	29.247272
492.902886	29.199952
493.334429	29.171363
493.765956	29.126732
494.197466	29.084053
494.628960	29.063090
495.060439	29.032299
495.491901	29.016303
495.923347	28.995936
496.354776	28.979809
496.786190	28.971033
497.217587	28.958514
497.648968	28.948805
498.080332	28.949627
498.511681	28.939164
498.943013	28.952979
499.374328	28.978139
499.805628	29.031819
500.236911	29.099951
500.668177	29.183041
501.099427	29.293163
501.530661	29.418519
501.961878	29.552531
502.393079	29.682884
502.824264	29.832131
503.255431	30.007709
503.686583	30.166702
504.117717	30.338759
504.548835	30.512250
504.979937	30.690651
505.411022	30.893923
505.842090	31.134839
506.273142	31.378500
506.704177	31.631986
507.135195	31.920910
507.566197	32.222791
507.997182	32.536773
508.428150	32.877520
508.859102	33.225356
509.290036	33.588363
509.720954	33.971745
510.151855	34.374269
510.582739	34.788543
511.013607	35.215528
511.444457	35.660276
511.875291	36.124505
512.306107	36.599025
512.736907	37.082114
513.167690	37.574605
513.598456	38.097070
514.029205	38.623485
514.459936	39.178570
514.890651	39.739173
515.321349	40.321915
515.752030	40.911851
516.182693	41.515406
516.613340	42.123359
517.043969	42.755191
517.474582	43.392561
517.905177	44.031762
518.335755	44.687632
518.766315	45.317885
519.196859	45.927731
519.627385	46.553920
520.057894	47.166981
520.488386	47.766104
520.918860	48.372257
521.349318	48.991740
521.779757	49.609926
522.210180	50.232480
522.640585	50.869679
523.070973	51.506294
523.501343	52.130672
523.931696	52.758985
524.362031	53.366499
524.792349	53.963630
525.222650	54.554403
525.652933	55.141464
526.083198	55.723075
526.513446	56.277554
526.943677	56.815933
527.373890	57.353109
527.804085	57.881105
528.234262	58.401596
528.664422	58.922224
529.094565	59.438627
529.524689	59.956464
529.954796	60.465778
530.384885	60.972972
530.814957	61.470212
531.245011	61.962787
531.675047	62.441961
532.105065	62.942858
532.535065	63.428891
532.965048	63.890659
533.395013	64.352713
533.824959	64.803035
534.254888	65.237714
534.684799	65.669574
535.114693	66.091976
535.544568	66.509132
535.974425	66.903645
536.404264	67.300976
536.834086	67.686791
537.263889	68.069653
537.693674	68.474386
538.123441	68.885765
538.553190	69.290343
538.982921	69.692681
539.412634	70.081083
539.842329	70.481214
540.272006	70.855349
540.701664	71.212004
541.131304	71.540270
541.560926	71.859887
541.990530	72.159696
542.420116	72.453129
542.849683	72.730682
543.279232	72.984841
543.708763	73.241960
544.138275	73.496284
544.567769	73.734622
544.997245	73.958225
545.426702	74.173646
545.856141	74.393845
546.285562	74.637135
546.714964	74.866646
547.144347	75.103807
547.573713	75.326926
548.003059	75.562223
548.432387	75.791877
548.861697	76.022992
549.290988	76.240408
549.720260	76.459338
550.149514	76.676956
550.578750	76.883061
551.007966	77.072390
551.437164	77.254673
551.866344	77.440354
552.295504	77.626466
552.724646	77.814847
553.153769	77.993858
553.582874	78.179055
554.011960	78.368744
554.441027	78.578571
554.870075	78.793102
555.299104	79.007365
555.728115	79.222653
556.157106	79.435843
556.586079	79.657768
557.015033	79.867964
557.443968	80.068305
557.872884	80.282066
558.301781	80.517129
558.730659	80.704993
559.159518	80.901083
559.588358	81.092741
560.017180	81.255790
560.445982	81.420245
560.874765	81.593812
561.303528	81.734378
561.732273	81.872999
562.160999	82.007152
562.589705	82.138425
563.018393	82.265784
563.447061	82.386022
563.875710	82.519161
564.304340	82.641616
564.732950	82.760173
565.161542	82.871523
565.590114	82.993078
566.018666	83.096428
566.447200	83.216409
566.875714	83.347072
567.304208	83.470904
567.732684	83.574274
568.161140	83.670769
568.589576	83.767064
569.017993	83.856319
569.446391	83.941233
569.874769	84.015915
570.303128	84.072059
570.731467	84.136009
571.159787	84.179438
571.588087	84.188477
572.016368	84.230468
572.444629	84.260989
572.872870	84.264893
573.301092	84.298757
573.729294	84.315541
574.157476	84.327765
574.585639	84.348752
575.013782	84.358634
575.441906	84.367103
575.870009	84.387212
576.298093	84.416764
576.726157	84.448865
577.154202	84.456715
577.582226	84.479293
578.010231	84.502903
578.438216	84.529577
578.866181	84.530149
579.294126	84.536347
579.722051	84.527753
580.149957	84.505911
580.577842	84.481030
581.005707	84.443766
581.433553	84.409048
581.861378	84.350625
582.289184	84.288391
582.716969	84.219410
583.144734	84.139682
583.572479	84.084606
584.000205	83.992617
584.427910	83.908206
584.855594	83.836639
585.283259	83.738603
585.710904	83.638667
586.138528	83.547344
586.566132	83.432632
586.993716	83.323315
587.421280	83.197871
587.848823	83.081089
588.276346	82.945114
588.703849	82.791719
589.131332	82.613854
589.558794	82.406797
589.986236	82.178877
590.413657	81.958994
590.841058	81.699821
591.268438	81.419501
591.695799	81.112888
592.123138	80.795315
592.550458	80.463701
592.977756	80.121201
593.405034	79.762053
593.832292	79.383846
594.259529	78.995601
594.686746	78.589971
595.113942	78.188034
595.541117	77.781924
595.968272	77.363047
596.395406	76.950663
596.822519	76.513018
597.249612	76.095012
597.676684	75.663441
598.103735	75.226206
598.530766	74.799157
598.957775	74.362037
599.384764	73.912799
599.811733	73.477122
600.238680	73.017081
600.665606	72.557783
601.092512	72.077645
601.519397	71.592828
601.946261	71.110744
602.373104	70.609652
602.799926	70.109672
603.226727	69.600099
603.653507	69.060349
604.080266	68.515883
604.507004	67.959289
604.933721	67.400101
605.360417	66.826709
605.787092	66.242636
606.213746	65.647008
606.640379	65.043286
607.066991	64.446751
607.493581	63.845773
607.920150	63.240987
608.346699	62.626292
608.773226	62.009781
609.199731	61.378614
609.626216	60.744453
610.052679	60.102250
610.479121	59.461863
610.905542	58.800672
611.331941	58.122517
611.758319	57.431801
612.184676	56.733059
612.611011	56.020010
613.037325	55.286570
613.463617	54.549362
613.889888	53.790024
614.316138	53.021759
614.742366	52.242835
615.168573	51.447406
615.594758	50.640076
616.020921	49.817153
616.447063	48.993797
616.873184	48.171629
617.299283	47.347084
617.725360	46.522961
618.151416	45.698847
618.577450	44.884692
619.003462	44.085242
619.429453	43.290438
619.855422	42.517333
620.281369	41.759366
620.707295	41.016701
621.133199	40.293827
621.559081	39.600470
621.984941	38.924189
622.410779	38.276913
622.836596	37.654803
623.262391	37.059042
623.688163	36.479825
624.113914	35.932583
624.539644	35.424012
624.965351	34.944327
625.391036	34.491552
625.816699	34.062635
626.242340	33.664161
626.667960	33.287440
627.093557	32.948623
627.519132	32.637771
627.944685	32.363502
628.370216	32.114274
628.795725	31.925035
629.221212	31.761333
629.646677	31.636194
630.072119	31.556633
630.497540	31.516410
630.922938	31.528179
631.348314	31.581856
631.773668	31.675658
632.198999	31.813296
632.624308	31.984688
633.049595	32.197816
633.474860	32.445194
633.900102	32.729942
634.325322	33.049338
634.750520	33.396018
635.175695	33.767895
635.600848	34.166853
636.025978	34.584395
636.451086	35.029978
636.876171	35.484439
637.301234	35.970712
637.726275	36.468388
638.151293	36.983778
638.576288	37.515158
639.001261	38.063511
639.426211	38.631116
639.851139	39.216177
640.276044	39.812850
640.700927	40.424304
641.125787	41.058147
641.550624	41.714482
641.975438	42.377364
642.400230	43.055003
642.824999	43.745795
643.249745	44.434850
643.674469	45.139985
644.099169	45.839064
644.523847	46.539248
644.948502	47.232996
645.373135	47.913351
645.797744	48.597365
646.222330	49.264621
646.646894	49.912663
647.071435	50.537907
647.495953	51.147942
647.920447	51.734898
648.344919	52.294669
648.769368	52.824220
649.193794	53.328901
649.618197	53.792383
650.042576	54.250501
650.466933	54.673502
650.891267	55.072082
651.315577	55.439708
651.739864	55.778509
652.164129	56.095596
652.588370	56.381876
653.012587	56.645953
653.436782	56.889284
653.860953	57.112417
654.285102	57.310109
654.709226	57.482995
655.133328	57.634702
655.557406	57.775830
655.981461	57.893116
656.405493	57.999919
656.829501	58.089011
657.253486	58.160147
657.677448	58.217650
658.101386	58.271720
658.525301	58.324767
658.949192	58.361967
659.373060	58.383200
659.796904	58.402539
660.220725	58.431834
660.644522	58.449952
661.068296	58.480411
661.492046	58.513739
661.915772	58.559569
662.339475	58.608089
662.763154	58.669998
663.186810	58.730152
663.610442	58.799827
664.034050	58.874091
664.457635	58.959765
664.881196	59.058929
665.304733	59.167683
665.728247	59.284177
666.151736	59.423649
666.575202	59.571654
666.998644	59.733087
667.422062	59.908682
667.845457	60.095171
668.268827	60.284134
668.692174	60.480653
669.115496	60.691229
669.538795	60.913461
669.962070	61.153179
670.385321	61.403691
670.808547	61.661139
671.231750	61.922682
671.654929	62.181520
672.078084	62.458698
672.501214	62.738780
672.924321	63.033195
673.347404	63.328808
673.770462	63.631637
674.193496	63.914846
674.616506	64.209549
675.039492	64.500097
675.462454	64.796136
675.885391	65.090566
676.308305	65.377886
676.731194	65.658565
677.154058	65.939411
677.576899	66.217254
677.999715	66.495765
678.422507	66.763253
678.845274	67.023967
679.268017	67.275005
679.690736	67.521550
680.113430	67.747785
680.536100	67.965491
680.958746	68.178950
681.381367	68.395860
681.803963	68.602814
682.226535	68.800040
682.649083	68.992942
683.071605	69.175997
683.494104	69.352856
683.916578	69.525692
684.339027	69.704128
684.761451	69.878737
685.183851	70.040056
685.606227	70.206702
686.028577	70.362414
686.450903	70.513361
686.873204	70.660142
687.295481	70.812065
687.717733	70.949780
688.139959	71.089718
688.562162	71.226353
688.984339	71.370339
689.406492	71.506072
689.828619	71.645042
690.250722	71.782171
690.672800	71.902785
691.094853	72.029820
691.516881	72.165318
691.938884	72.308728
692.360863	72.436506
692.782816	72.566692
693.204744	72.706243
693.626647	72.844584
694.048526	72.993610
694.470379	73.131826
694.892207	73.280127
695.314010	73.432914
695.735788	73.598004
696.157540	73.759611
696.579268	73.929921
697.000970	74.108243
697.422648	74.281196
697.844300	74.457067
698.265926	74.650668
698.687528	74.858057
699.109104	75.065003
699.530655	75.275163
699.952181	75.509791
700.373681	75.744451
700.795156	76.002382
701.216606	76.267418
701.638030	76.540526
702.059429	76.818315
702.480803	77.121401
702.902151	77.433196
703.323473	77.751702
703.744770	78.088534
704.166042	78.421367
704.587288	78.773807
705.008509	79.132741
705.429704	79.513737
705.850873	79.905100
706.272017	80.303321
706.693135	80.725422
707.114228	81.134336
707.535295	81.558666
707.956336	81.995665
708.377352	82.436452
708.798342	82.874526
709.219306	83.304348
709.640245	83.740088
710.061157	84.173916
710.482044	84.601498
710.902905	85.027920
711.323741	85.446170
711.744550	85.849770
712.165334	86.260669
712.586092	86.665454
713.006823	87.057664
713.427529	87.453245
713.848209	87.830327
714.268863	88.203644
714.689492	88.569356
715.110094	88.932921
715.530670	89.286918
715.951220	89.646485
716.371744	90.001416
716.792242	90.359271
717.212714	90.716897
717.633159	91.065821
718.053579	91.415989
718.473973	91.756282
718.894340	92.097837
719.314681	92.431135
719.734996	92.753338
720.155285	93.065727
720.575547	93.378245
720.995784	93.684061
721.415994	93.968731
721.836177	94.235108
722.256335	94.505138
722.676466	94.759836
723.096570	95.007702
723.516649	95.247643
723.936701	95.487248
724.356726	95.697113
724.776725	95.894168
725.196698	96.073406
725.616644	96.251378
726.036564	96.398511
726.456457	96.542071
726.876324	96.677844
727.296164	96.804768
727.715977	96.922648
728.135764	97.025860
728.555525	97.119844
728.975258	97.187414
729.394966	97.245611
729.814646	97.293721
730.234300	97.333442
730.653927	97.362868
731.073527	97.376294
731.493101	97.380916
731.912648	97.382296
732.332168	97.373360
732.751661	97.359408
733.171128	97.351137
733.590568	97.325212
734.009980	97.282789
734.429366	97.263982
734.848726	97.233228
735.268058	97.219660
735.687363	97.187227
736.106641	97.151326
736.525893	97.105753
736.945117	97.051705
737.364314	97.020373
737.783485	96.982411
738.202628	96.947724
738.621744	96.896590
739.040834	96.848717
739.459896	96.801309
739.878931	96.749209
740.297939	96.684686
740.716919	96.620037
741.135873	96.562987
741.554799	96.494842
741.973698	96.435184
742.392570	96.384321
742.811415	96.336523
743.230232	96.276275
743.649022	96.222820
744.067785	96.165448
744.486521	96.110547
744.905229	96.053008
745.323909	96.003837
745.742563	95.944311
746.161189	95.900482
746.579787	95.860470
746.998358	95.831008
747.416902	95.789611
747.835418	95.767344
748.253907	95.735432
748.672368	95.715497
749.090802	95.690581
749.509208	95.675436
749.927586	95.676852
750.345937	95.668503
750.764261	95.666715
751.182556	95.670600
751.600824	95.686918
752.019065	95.710250
752.437277	95.740622
752.855462	95.783233
753.273620	95.833926
753.691749	95.904937
754.109851	95.965707
754.527925	96.040937
754.945971	96.122739
755.363989	96.203019
755.781980	96.299291
756.199943	96.409092
756.617877	96.520516
757.035784	96.648314
757.453663	96.798499
757.871514	96.939292
758.289337	97.093992
758.707132	97.262299
759.124899	97.422219
759.542639	97.600322
759.960350	97.768464
760.378033	97.945752
760.795688	98.108019
761.213314	98.278260
761.630913	98.450669
762.048484	98.629756
762.466026	98.822258
762.883541	98.985444
763.301027	99.144302
763.718485	99.320609
764.135914	99.484854
764.553316	99.652611
764.970689	99.825533
765.388034	99.976215
765.805351	100.117354
766.222639	100.252118
766.639899	100.366711
767.057131	100.491323
767.474334	100.615040
767.891509	100.731859
768.308655	100.846547
768.725773	100.942954
769.142863	101.048758
769.559924	101.135844
769.976957	101.223318
770.393961	101.294927
770.810936	101.375250
771.227883	101.431998
771.644802	101.490127
772.061692	101.532204
772.478553	101.558290
772.895386	101.594853
773.312190	101.609660
773.728965	101.645344
774.145712	101.660794
774.562430	101.677366
774.979119	101.677747
775.395780	101.659388
775.812411	101.655091
776.229014	101.644414
776.645589	101.612460
777.062134	101.594188
777.478651	101.554626
777.895138	101.491024
778.311597	101.438737
778.728027	101.366528
779.144428	101.308621
779.560800	101.223472
779.977143	101.127707
780.393458	101.019651
780.809743	100.903677
781.225999	100.786762
781.642226	100.664474
782.058425	100.530593
782.474594	100.391958
782.890734	100.235149
783.306845	100.076585
783.722926	99.912088
784.138979	99.748769
784.555003	99.566942
784.970997	99.395506
785.386962	99.219836
785.802898	99.036342
786.218805	98.863936
786.634682	98.666030
787.050531	98.465405
787.466349	98.262360
787.882139	98.060445
788.297899	97.868461
788.713630	97.666452
789.129332	97.475782
789.545004	97.279790
789.960647	97.078187
790.376260	96.896350
790.791844	96.727049
791.207399	96.549852
791.622924	96.394668
792.038419	96.235007
792.453885	96.084176
792.869321	95.935827
793.284728	95.800471
793.700106	95.672632
794.115453	95.563806
794.530771	95.462559
794.946060	95.376016
795.361319	95.281698
795.776548	95.206736
796.191747	95.125847
796.606917	95.044554
797.022057	94.979746
797.437167	94.912357
797.852248	94.869081
798.267298	94.827103
798.682319	94.798577
799.097310	94.771347
799.512271	94.749669
799.927203	94.730656
800.342104	94.710250
800.756976	94.695552
801.171818	94.685189
801.586629	94.682836
802.001411	94.674286
802.416163	94.682576
802.830885	94.687420
803.245577	94.677378
803.660238	94.678157
804.074870	94.664663
804.489472	94.637593
804.904043	94.618181
805.318585	94.586625
805.733096	94.561927
806.147577	94.521880
806.562028	94.471806
806.976449	94.396170
807.390840	94.304182
807.805200	94.200946
808.219530	94.112858
808.633830	94.022237
809.048100	93.916138
809.462339	93.792891
809.876548	93.676124
810.290727	93.559870
810.704875	93.427217
811.118993	93.270506
811.533080	93.107670
811.947137	92.923841
812.361164	92.743118
812.775160	92.549055
813.189126	92.359444
813.603061	92.162897
814.016966	91.935629
814.430840	91.695070
814.844684	91.468136
815.258497	91.224773
815.672280	90.960022
816.086032	90.699754
816.499753	90.411359
816.913444	90.119778
817.327104	89.848117
817.740733	89.535294
818.154331	89.248628
818.567899	88.942740
818.981436	88.626598
819.394943	88.323180
819.808418	88.009304
820.221863	87.680173
820.635277	87.357437
821.048660	87.009432
821.462013	86.637757
821.875334	86.269937
822.288625	85.876791
822.701884	85.482970
823.115113	85.090040
823.528311	84.666896
823.941478	84.256469
824.354614	83.811904
824.767718	83.378716
825.180792	82.905354
825.593835	82.439631
826.006847	81.959157
826.419827	81.458922
826.832777	80.982071
827.245695	80.496856
827.658582	79.984542
828.071438	79.467236
828.484263	78.953720
828.897057	78.420943
829.309819	77.912656
829.722551	77.417608
830.135251	76.895936
830.547919	76.392554
830.960557	75.884317
831.373163	75.405149
831.785738	74.927910
832.198281	74.455012
832.610793	73.984898
833.023274	73.571385
833.435723	73.131107
833.848141	72.727645
834.260528	72.338434
834.672883	71.963568
835.085206	71.625576
835.497498	71.263330
835.909758	70.923777
836.321987	70.605877
836.734185	70.311217
837.146350	70.035938
837.558485	69.765703
837.970587	69.519583
838.382658	69.289530
838.794697	69.063266
839.206705	68.860805
839.618681	68.659299
840.030625	68.462001
840.442538	68.261835
840.854418	68.081390
841.266267	67.904864
841.678084	67.765077
842.089870	67.600499
842.501623	67.448840
842.913345	67.282052
843.325035	67.134838
843.736693	66.998142
844.148319	66.842071
844.559913	66.690730
844.971475	66.530450
845.383005	66.385385
845.794504	66.185726
846.205970	66.009908
846.617404	65.816258
847.028806	65.610697
847.440176	65.424984
847.851514	65.231854
848.262820	65.033936
848.674094	64.809966
849.085336	64.577580
849.496546	64.325391
849.907723	64.080495
850.318868	63.802349
850.729981	63.538728
851.141062	63.271573
851.552110	62.983522
851.963127	62.692409
852.374111	62.393726
852.785062	62.090017
853.195982	61.789641
853.606869	61.479984
854.017723	61.175119
854.428546	60.838433
854.839336	60.555995
855.250093	60.232329
855.660818	59.939857
856.071511	59.647102
856.482171	59.325376
856.892799	59.021548
857.303394	58.742157
857.713956	58.438226
858.124486	58.137660
858.534984	57.868563
858.945449	57.593161
859.355881	57.336209
859.766280	57.097182
860.176647	56.839270
860.586982	56.605274
860.997283	56.401448
861.407552	56.210139
861.817789	56.034485
862.227992	55.875815
862.638163	55.716562
863.048301	55.621118
863.458406	55.504495
863.868478	55.399612
864.278518	55.330046
864.688524	55.277573
865.098498	55.244966
865.508439	55.230190
865.918347	55.204642
866.328222	55.210441
866.738064	55.235822
867.147873	55.283665
867.557649	55.302133
867.967392	55.370217
868.377102	55.431209
868.786779	55.486972
869.196423	55.586453
869.606034	55.669883
870.015612	55.737791
870.425156	55.841885
870.834668	55.940652
871.244146	56.079388
871.653591	56.201132
872.063003	56.314040
872.472382	56.437584
872.881728	56.567464
873.291040	56.678172
873.700319	56.772457
874.109564	56.885993
874.518777	56.971704
874.927956	57.065222
875.337102	57.175132
875.746214	57.228628
876.155293	57.303905
876.564338	57.375081
876.973350	57.408956
877.382329	57.464295
877.791274	57.511859
878.200186	57.530786
878.609064	57.580843
879.017909	57.597350
879.426720	57.593189
879.835497	57.585301
880.244241	57.579878
880.652952	57.549373
881.061629	57.527856
881.470272	57.499688
881.878881	57.455563
882.287457	57.399390
882.695999	57.324461
883.104507	57.258487
883.512982	57.196856
883.921423	57.101828
884.329830	56.994242
884.738203	56.904471
885.146543	56.789913
885.554849	56.658096
885.963120	56.543765
886.371358	56.439383
886.779563	56.290298
887.187733	56.166016
887.595869	56.053868
888.003971	55.887524
888.412040	55.749454
888.820074	55.599750
889.228074	55.440630
889.636041	55.301937
890.043973	55.128665
890.451871	54.934421
890.859736	54.781877
891.267566	54.603388
891.675362	54.412665
892.083124	54.241872
892.490851	54.064598
892.898545	53.869280
893.306204	53.676678
893.713829	53.497404
894.121420	53.331478
894.528977	53.149645
894.936499	52.962520
895.343987	52.779426
895.751441	52.611654
896.158860	52.439994
896.566246	52.252771
896.973596	52.084636
897.380913	51.920747
897.788195	51.746256
898.195442	51.615302
898.602655	51.463381
899.009834	51.303460
899.416978	51.176098
899.824088	51.045068
900.231163	50.890337
900.638204	50.769970
901.045210	50.648236
901.452181	50.533009
901.859118	50.408537
902.266021	50.278925
902.672888	50.150438
903.079721	50.025055
903.486520	49.882353
903.893283	49.750405
904.300012	49.645869
904.706707	49.513488
905.113366	49.375146
905.519991	49.245290
905.926581	49.086050
906.333136	48.932167
906.739656	48.730830
907.146142	48.560265
907.552592	48.408552
907.959008	48.234306
908.365389	48.041637
908.771735	47.861950
909.178046	47.690947
909.584322	47.494524
909.990563	47.313578
910.396769	47.144881
910.802940	46.940090
911.209076	46.735206
911.615177	46.550074
912.021243	46.338502
912.427274	46.113958
912.833270	45.907979
913.239231	45.730027
913.645156	45.525936
914.051046	45.323349
914.456902	45.110335
914.862721	44.950281
915.268506	44.771331
915.674256	44.611510
916.079970	44.467493
916.485649	44.312848
916.891292	44.165398
917.296901	44.031380
917.702474	43.896010
918.108011	43.796622
918.513514	43.694863
918.918980	43.583871
919.324412	43.521156
919.729808	43.436642
920.135169	43.353762
920.540494	43.331258
920.945783	43.286341
921.351037	43.231101
921.756256	43.178448
922.161439	43.174859
922.566586	43.138755
922.971698	43.108245
923.376775	43.102918
923.781815	43.084391
924.186820	43.064384
924.591790	43.070111
924.996723	43.098064
925.401621	43.102970
925.806484	43.103323
926.211310	43.123420
926.616101	43.149718
927.020856	43.177492
927.425575	43.172439
927.830259	43.185497
928.234906	43.208117
928.639518	43.215415
929.044094	43.226802
929.448634	43.232722
929.853138	43.243635
930.257606	43.251800
930.662038	43.239336
931.066434	43.254914
931.470795	43.264673
931.875119	43.247715
932.279407	43.232416
932.683659	43.216797
933.087875	43.174665
933.492055	43.129856
933.896199	43.097379
934.300307	43.052754
934.704379	43.000431
935.108414	42.922226
935.512414	42.877565
935.916377	42.786276
936.320304	42.727983
936.724195	42.648251
937.128049	42.549722
937.531867	42.430746
937.935649	42.352989
938.339395	42.231612
938.743104	42.099969
939.146777	41.990518
939.550414	41.872488
939.954014	41.738512
940.357578	41.603987
940.761105	41.459325
941.164596	41.318678
941.568050	41.168212
941.971468	41.008946
942.374850	40.819830
942.778195	40.640378
943.181503	40.450517
943.584775	40.274544
943.988010	40.079120
944.391209	39.904638
944.794371	39.752927
945.197496	39.583915
945.600585	39.383553
946.003637	39.187437
946.406653	38.993157
946.809632	38.793964
947.212574	38.600145
947.615479	38.406985
948.018347	38.180986
948.421179	38.013476
948.823974	37.844886
949.226732	37.648277
949.629453	37.447640
950.032138	37.298436
950.434785	37.086862
950.837396	36.907946
951.239969	36.734287
951.642506	36.525435
952.045006	36.346913
952.447469	36.178268
952.849895	35.987389
953.252283	35.800147
953.654635	35.612046
954.056950	35.452437
954.459227	35.273124
954.861468	35.132736
955.263671	34.983497
955.665838	34.828171
956.067967	34.697029
956.470059	34.575252
956.872114	34.436885
957.274131	34.278537
957.676112	34.155595
958.078055	34.075995
958.479961	34.028367
958.881829	33.961926
959.283661	33.901632
959.685455	33.799362
960.087211	33.780423
960.488931	33.740119
960.890613	33.677477
961.292257	33.581965
961.693864	33.548529
962.095434	33.532461
962.496966	33.490357
962.898461	33.470030
963.299918	33.407710
963.701338	33.368602
964.102720	33.331514
964.504065	33.328366
964.905372	33.311192
965.306641	33.319980
965.707873	33.266571
966.109068	33.276015
966.510224	33.245395
966.911343	33.254387
967.312425	33.206346
967.713468	33.188767
968.114474	33.168021
968.515442	33.120425
968.916373	33.078942
969.317265	33.076665
969.718120	33.092005
970.118937	33.034453
970.519716	33.016208
970.920458	32.936821
971.321161	32.868649
971.721827	32.781673
972.122454	32.732603
972.523044	32.651169
972.923596	32.602984
973.324110	32.538490
973.724585	32.477628
974.125023	32.416626
974.525423	32.331460
974.925785	32.236196
975.326108	32.190846
975.726394	32.176808
976.126642	32.131132
976.526851	32.093482
976.927022	32.008200
977.327155	31.984110
977.727250	31.873983
978.127307	31.813498
978.527325	31.784194
978.927306	31.712425
979.327248	31.691975
979.727151	31.735763
980.127017	31.736488
980.526844	31.676059
980.926633	31.670789
981.326383	31.644977
981.726095	31.605014
982.125769	31.545145
982.525404	31.549833
982.925001	31.463691
983.324560	31.467956
983.724079	31.405761
984.123561	31.423901
984.523004	31.434336
984.922408	31.373500
985.321774	31.346851
985.721102	31.335238
986.120390	31.330420
986.519641	31.271710
986.918852	31.285244
987.318025	31.254562
987.717159	31.193613
988.116255	31.209230
988.515312	31.199145
988.914330	31.113158
989.313310	31.084585
989.712250	31.008797
990.111152	31.101204
990.510015	31.181996
990.908840	31.105451
991.307625	31.166119
991.706372	31.066213
992.105080	30.973989
992.503749	30.893621
992.902379	30.912174
993.300970	30.853388
993.699522	30.838738
994.098035	30.784354
994.496510	30.774279
994.894945	30.783048
995.293341	30.728967
995.691698	30.770662
996.090016	30.824858
996.488296	30.778218
996.886535	30.765146
997.284736	30.757356
997.682898	30.800335
998.081021	30.663115
998.479104	30.642648
998.877148	30.718629
999.275153	30.872278
999.673119	31.002841
1000.071046	31.041383
1000.468933	31.080638
1000.866781	31.130333
1001.264590	31.335587
1001.662359	31.311769
1002.060089	31.273644
1002.457780	31.261319
1002.855431	31.220510
1003.253043	31.121658
1003.650615	31.230805
1004.048148	31.376937
1004.445642	31.356109
1004.843096	31.379458
1005.240511	31.612809
1005.637886	31.618254
1006.035221	31.851995
1006.432517	32.072486
1006.829774	32.129053
1007.226991	32.015349
1007.624168	32.293939
1008.021306	32.323055
1008.418404	32.239600
1008.815462	32.342714
1009.212481	32.507651
1009.609460	32.970054
1010.006399	32.998232
1010.403298	33.331598
1010.800158	33.567107
1011.196978	33.764661
1011.593758	33.545455
1011.990498	33.852368
1012.387199	34.009568
1012.783860	34.112062
1013.180480	34.291608
1013.577061	34.378552
1013.973602	34.950987
1014.370103	35.569367
1014.766564	35.785677
1015.162985	36.199382
1015.559366	36.595567
1015.955708	36.664601
1016.352009	36.592467
1016.748270	37.017509
1017.144491	37.328803
1017.540671	37.369191
1017.936812	37.719088
1018.332913	37.597544
1018.728973	37.608010
1019.124994	37.832281
1019.520974	38.544646
1019.916914	38.802890
1020.312814	38.935890
