Time1=100ms:Average1=5:Objective=10X:Aperture=1: (11/28/2018 9:58:34 AM)
11/28/2018 9:58:34 AM
Reflectance
10X
Ap#: 1
Avg1: 5.000000
Avg2: 0.000000
Int.Time1:100.000000

350.166136	70.101792
350.601937	70.653022
351.037728	71.291270
351.473509	71.366305
351.909281	71.445138
352.345042	71.390159
352.780794	71.823651
353.216536	71.804782
353.652267	71.589577
354.087989	71.284089
354.523701	71.469689
354.959403	71.707800
355.395095	71.719986
355.830777	71.091578
356.266449	70.973515
356.702110	71.139377
357.137762	71.513193
357.573404	71.442626
358.009035	71.309938
358.444656	71.110913
358.880268	71.248548
359.315869	71.196574
359.751459	70.936223
360.187040	71.128328
360.622610	70.712705
361.058170	70.738385
361.493720	70.668908
361.929260	70.801308
362.364789	70.742281
362.800308	71.133197
363.235816	71.520285
363.671314	71.815670
364.106802	72.031264
364.542279	71.753563
364.977746	71.673896
365.413203	72.000355
365.848649	72.227160
366.284084	71.855067
366.719509	71.779195
367.154924	71.450058
367.590328	71.873342
368.025721	71.778761
368.461104	71.646395
368.896477	71.605156
369.331838	71.772699
369.767189	72.028716
370.202530	71.828622
370.637859	71.507741
371.073178	71.516322
371.508486	71.434832
371.943784	71.733029
372.379071	71.866515
372.814347	72.156897
373.249612	72.488584
373.684866	72.428559
374.120110	72.712961
374.555343	72.503934
374.990565	72.562041
375.425776	72.571379
375.860976	72.803347
376.296165	72.352992
376.731343	72.279029
377.166511	71.944372
377.601667	72.079945
378.036812	72.243379
378.471946	72.418866
378.907070	72.399481
379.342182	72.244299
379.777283	72.513860
380.212373	72.783934
380.647452	73.009423
381.082520	72.898163
381.517576	72.759393
381.952622	72.786177
382.387656	72.452051
382.822679	72.515073
383.257691	72.065506
383.692692	71.478573
384.127681	71.682779
384.562659	71.367521
384.997626	71.049046
385.432581	70.888340
385.867525	70.914837
386.302458	70.764771
386.737379	70.542240
387.172289	70.363143
387.607188	70.040623
388.042075	69.939998
388.476951	70.292922
388.911815	70.190921
389.346668	69.956103
389.781509	69.932432
390.216338	69.620573
390.651157	69.517230
391.085963	69.363138
391.520758	69.393429
391.955541	69.219156
392.390313	68.931387
392.825073	68.800736
393.259821	68.555193
393.694558	68.267467
394.129283	68.000666
394.563996	67.911007
394.998698	68.184840
395.433388	68.140566
395.868066	68.266722
396.302732	68.184257
396.737386	68.174535
397.172029	68.219627
397.606659	67.618194
398.041278	67.358666
398.475885	67.084930
398.910480	66.510922
399.345063	65.733633
399.779634	65.081337
400.214194	63.919295
400.648741	62.783571
401.083276	61.379814
401.517799	60.167834
401.952310	58.413321
402.386809	56.705399
402.821296	54.578662
403.255771	52.816880
403.690234	50.527375
404.124684	48.385695
404.559123	46.157969
404.993549	44.042344
405.427963	41.633229
405.862365	39.707758
406.296754	37.733611
406.731131	35.991321
407.165496	34.243623
407.599849	32.788707
408.034190	31.187350
408.468518	29.756636
408.902833	28.401038
409.337137	27.129140
409.771428	26.013128
410.205706	25.009502
410.639973	24.038981
411.074226	23.296077
411.508467	22.599541
411.942696	22.082901
412.376912	21.552331
412.811116	21.115910
413.245307	20.706225
413.679486	20.477152
414.113652	20.231882
414.547805	20.021933
414.981946	19.792300
415.416074	19.575671
415.850190	19.448449
416.284293	19.341829
416.718383	19.297028
417.152460	19.273507
417.586525	19.336781
418.020577	19.363226
418.454616	19.390184
418.888643	19.424094
419.322656	19.460880
419.756657	19.504617
420.190645	19.541294
420.624620	19.575853
421.058582	19.600754
421.492531	19.649651
421.926468	19.713911
422.360391	19.835183
422.794301	20.012432
423.228199	20.218925
423.662083	20.397944
424.095955	20.680094
424.529813	20.906526
424.963658	21.138874
425.397491	21.373421
425.831310	21.604577
426.265116	21.828391
426.698909	22.041576
427.132689	22.230960
427.566455	22.420531
428.000209	22.641870
428.433949	22.911596
428.867676	23.206228
429.301389	23.484436
429.735090	23.743187
430.168777	23.954672
430.602451	24.167699
431.036111	24.302075
431.469759	24.442424
431.903392	24.588200
432.337013	24.753845
432.770620	24.904952
433.204213	25.068259
433.637794	25.256215
434.071360	25.494435
434.504914	25.764056
434.938453	26.076353
435.371979	26.385820
435.805492	26.730869
436.238991	27.029147
436.672477	27.298739
437.105949	27.570664
437.539407	27.802736
437.972852	28.030464
438.406283	28.244788
438.839700	28.464209
439.273104	28.690606
439.706494	28.922018
440.139871	29.203379
440.573233	29.474642
441.006582	29.769262
441.439917	30.022747
441.873238	30.223328
442.306546	30.410208
442.739839	30.540580
443.173119	30.655803
443.606385	30.765152
444.039636	30.883714
444.472874	30.997051
444.906099	31.136326
445.339309	31.309135
445.772505	31.486959
446.205687	31.685383
446.638855	31.929766
447.072009	32.180363
447.505149	32.448600
447.938275	32.728971
448.371387	33.001208
448.804485	33.261310
449.237569	33.468022
449.670638	33.655588
450.103694	33.811772
450.536735	33.944946
450.969762	34.075785
451.402774	34.218379
451.835773	34.385570
452.268757	34.549230
452.701727	34.750304
453.134683	34.969632
453.567624	35.128002
454.000551	35.299222
454.433464	35.447256
454.866362	35.581772
455.299246	35.707103
455.732116	35.778895
456.164971	35.855070
456.597811	35.937709
457.030638	36.015954
457.463449	36.061703
457.896246	36.141883
458.329029	36.205959
458.761797	36.251024
459.194551	36.319364
459.627290	36.400026
460.060014	36.481207
460.492724	36.567383
460.925419	36.637869
461.358099	36.691162
461.790765	36.733687
462.223416	36.744643
462.656052	36.720990
463.088674	36.694925
463.521281	36.655597
463.953873	36.596921
464.386450	36.536615
464.819012	36.467484
465.251560	36.392698
465.684093	36.311102
466.116611	36.232087
466.549114	36.154413
466.981602	36.098133
467.414075	36.048251
467.846533	35.956710
468.278977	35.879724
468.711405	35.786975
469.143818	35.696313
469.576216	35.588001
470.008600	35.447976
470.440968	35.308027
470.873321	35.163592
471.305659	35.000864
471.737982	34.842898
472.170289	34.697743
472.602582	34.547208
473.034859	34.394044
473.467122	34.237046
473.899369	34.096619
474.331600	33.979407
474.763817	33.876201
475.196018	33.804844
475.628204	33.781770
476.060375	33.815846
476.492530	33.857141
476.924670	33.915195
477.356795	34.004256
477.788904	34.061101
478.220998	34.120890
478.653076	34.177252
479.085139	34.268419
479.517186	34.350243
479.949219	34.455408
480.381235	34.606120
480.813236	34.761444
481.245221	35.012892
481.677191	35.288059
482.109146	35.604917
482.541084	35.949989
482.973008	36.313888
483.404915	36.699491
483.836807	37.052861
484.268683	37.422826
484.700544	37.773572
485.132388	38.107299
485.564217	38.433563
485.996031	38.731601
486.427828	39.031197
486.859610	39.344747
487.291376	39.648341
487.723126	39.941550
488.154860	40.274088
488.586579	40.617670
489.018281	40.988474
489.449968	41.392334
489.881639	41.872939
490.313293	42.404665
490.744932	42.963636
491.176555	43.578470
491.608162	44.205086
492.039753	44.820936
492.471328	45.390525
492.902886	45.917855
493.334429	46.381668
493.765956	46.796047
494.197466	47.190471
494.628960	47.527961
495.060439	47.879916
495.491901	48.240625
495.923347	48.634721
496.354776	49.069299
496.786190	49.557823
497.217587	50.101511
497.648968	50.652363
498.080332	51.220206
498.511681	51.771046
498.943013	52.290603
499.374328	52.787392
499.805628	53.219506
500.236911	53.574202
500.668177	53.886223
501.099427	54.158644
501.530661	54.352813
501.961878	54.489769
502.393079	54.571993
502.824264	54.606774
503.255431	54.595116
503.686583	54.560063
504.117717	54.521600
504.548835	54.481688
504.979937	54.492669
505.411022	54.537457
505.842090	54.637721
506.273142	54.808464
506.704177	55.037495
507.135195	55.274541
507.566197	55.530130
507.997182	55.785722
508.428150	55.974877
508.859102	56.119753
509.290036	56.207347
509.720954	56.218112
510.151855	56.167197
510.582739	56.076973
511.013607	55.989933
511.444457	55.921174
511.875291	55.898695
512.306107	55.939921
512.736907	56.044966
513.167690	56.242336
513.598456	56.511727
514.029205	56.832230
514.459936	57.181626
514.890651	57.551885
515.321349	57.919003
515.752030	58.271116
516.182693	58.601233
516.613340	58.879926
517.043969	59.111706
517.474582	59.289840
517.905177	59.430528
518.335755	59.500219
518.766315	59.517912
519.196859	59.500944
519.627385	59.452947
520.057894	59.376473
520.488386	59.325583
520.918860	59.263689
521.349318	59.226592
521.779757	59.256613
522.210180	59.339602
522.640585	59.512987
523.070973	59.769989
523.501343	60.094522
523.931696	60.484951
524.362031	60.906076
524.792349	61.335194
525.222650	61.753508
525.652933	62.144077
526.083198	62.479960
526.513446	62.739824
526.943677	62.946647
527.373890	63.105954
527.804085	63.221748
528.234262	63.319308
528.664422	63.439193
529.094565	63.584872
529.524689	63.759160
529.954796	63.990704
530.384885	64.296647
530.814957	64.650619
531.245011	65.055709
531.675047	65.531446
532.105065	66.040112
532.535065	66.566114
532.965048	67.062935
533.395013	67.547179
533.824959	67.963582
534.254888	68.330741
534.684799	68.612338
535.114693	68.830605
535.544568	68.984783
535.974425	69.011504
536.404264	68.968886
536.834086	68.834848
537.263889	68.626715
537.693674	68.354735
538.123441	68.049056
538.553190	67.717495
538.982921	67.365242
539.412634	67.025458
539.842329	66.731239
540.272006	66.463814
540.701664	66.230885
541.131304	66.055968
541.560926	65.933811
541.990530	65.848790
542.420116	65.786413
542.849683	65.760057
543.279232	65.734464
543.708763	65.692219
544.138275	65.652498
544.567769	65.569873
544.997245	65.459645
545.426702	65.313927
545.856141	65.131963
546.285562	64.936442
546.714964	64.725133
547.144347	64.523979
547.573713	64.366696
548.003059	64.235095
548.432387	64.138290
548.861697	64.075206
549.290988	64.078972
549.720260	64.129920
550.149514	64.249870
550.578750	64.435825
551.007966	64.663258
551.437164	64.901412
551.866344	65.163769
552.295504	65.426235
552.724646	65.686682
553.153769	65.889535
553.582874	66.046201
554.011960	66.136046
554.441027	66.153141
554.870075	66.074760
555.299104	65.897910
555.728115	65.643109
556.157106	65.301122
556.586079	64.896646
557.015033	64.441996
557.443968	63.941411
557.872884	63.427760
558.301781	62.882215
558.730659	62.364076
559.159518	61.875226
559.588358	61.430216
560.017180	61.004665
560.445982	60.636656
560.874765	60.299877
561.303528	60.031297
561.732273	59.789431
562.160999	59.586046
562.589705	59.419554
563.018393	59.270222
563.447061	59.155001
563.875710	59.036521
564.304340	58.945448
564.732950	58.873257
565.161542	58.804228
565.590114	58.764619
566.018666	58.704790
566.447200	58.661170
566.875714	58.631438
567.304208	58.598499
567.732684	58.574965
568.161140	58.573447
568.589576	58.578399
569.017993	58.605598
569.446391	58.646643
569.874769	58.719854
570.303128	58.808897
570.731467	58.935020
571.159787	59.092112
571.588087	59.269210
572.016368	59.463270
572.444629	59.656818
572.872870	59.853262
573.301092	60.050382
573.729294	60.214588
574.157476	60.332189
574.585639	60.394311
575.013782	60.397634
575.441906	60.324745
575.870009	60.167170
576.298093	59.931334
576.726157	59.611559
577.154202	59.228618
577.582226	58.783662
578.010231	58.295199
578.438216	57.781778
578.866181	57.243961
579.294126	56.718508
579.722051	56.201496
580.149957	55.712826
580.577842	55.258212
581.005707	54.833831
581.433553	54.429625
581.861378	54.079993
582.289184	53.760545
582.716969	53.479426
583.144734	53.231947
583.572479	53.031918
584.000205	52.853509
584.427910	52.711079
584.855594	52.601891
585.283259	52.527659
585.710904	52.487438
586.138528	52.478078
586.566132	52.503960
586.993716	52.573130
587.421280	52.672328
587.848823	52.786919
588.276346	52.925647
588.703849	53.089084
589.131332	53.268785
589.558794	53.463811
589.986236	53.654638
590.413657	53.853346
590.841058	54.044350
591.268438	54.224773
591.695799	54.399672
592.123138	54.570747
592.550458	54.740972
592.977756	54.912324
593.405034	55.062005
593.832292	55.224393
594.259529	55.383045
594.686746	55.548888
595.113942	55.707786
595.541117	55.842732
595.968272	55.970276
596.395406	56.068178
596.822519	56.102582
597.249612	56.097454
597.676684	56.014648
598.103735	55.874771
598.530766	55.658136
598.957775	55.374375
599.384764	55.012757
599.811733	54.598191
600.238680	54.110401
600.665606	53.584806
601.092512	53.020883
601.519397	52.425802
601.946261	51.826774
602.373104	51.224808
602.799926	50.627047
603.226727	50.050289
603.653507	49.486025
604.080266	48.942695
604.507004	48.429001
604.933721	47.935999
605.360417	47.463254
605.787092	46.999511
606.213746	46.549368
606.640379	46.121791
607.066991	45.708702
607.493581	45.310931
607.920150	44.925139
608.346699	44.554394
608.773226	44.228770
609.199731	43.918581
609.626216	43.643848
610.052679	43.415244
610.479121	43.229377
610.905542	43.093469
611.331941	42.996510
611.758319	42.951090
612.184676	42.948069
612.611011	42.976208
613.037325	43.028518
613.463617	43.110298
613.889888	43.201606
614.316138	43.321783
614.742366	43.450287
615.168573	43.582516
615.594758	43.723263
616.020921	43.880855
616.447063	44.039517
616.873184	44.202968
617.299283	44.385813
617.725360	44.569455
618.151416	44.779639
618.577450	45.004603
619.003462	45.254624
619.429453	45.520829
619.855422	45.805540
620.281369	46.097343
620.707295	46.409598
621.133199	46.738697
621.559081	47.064795
621.984941	47.376227
622.410779	47.675563
622.836596	47.931803
623.262391	48.159664
623.688163	48.354262
624.113914	48.508684
624.539644	48.630334
624.965351	48.706291
625.391036	48.737061
625.816699	48.749191
626.242340	48.731773
626.667960	48.693479
627.093557	48.640497
627.519132	48.567988
627.944685	48.499895
628.370216	48.430354
628.795725	48.355357
629.221212	48.257856
629.646677	48.166343
630.072119	48.050882
630.497540	47.932536
630.922938	47.803078
631.348314	47.645199
631.773668	47.454472
632.198999	47.244292
632.624308	47.018139
633.049595	46.780417
633.474860	46.522534
633.900102	46.248760
634.325322	45.950234
634.750520	45.668654
635.175695	45.390834
635.600848	45.132618
636.025978	44.898397
636.451086	44.700642
636.876171	44.527812
637.301234	44.406742
637.726275	44.321995
638.151293	44.271724
638.576288	44.274226
639.001261	44.314029
639.426211	44.390960
639.851139	44.499300
640.276044	44.638197
640.700927	44.807207
641.125787	44.994681
641.550624	45.199908
641.975438	45.410027
642.400230	45.648628
642.824999	45.879421
643.249745	46.131988
643.674469	46.378850
644.099169	46.650657
644.523847	46.936934
644.948502	47.252148
645.373135	47.590693
645.797744	47.947512
646.222330	48.320187
646.646894	48.730213
647.071435	49.142751
647.495953	49.584095
647.920447	50.028407
648.344919	50.480455
648.769368	50.926434
649.193794	51.377018
649.618197	51.804989
650.042576	52.212830
650.466933	52.586752
650.891267	52.928231
651.315577	53.242979
651.739864	53.512528
652.164129	53.752292
652.588370	53.945375
653.012587	54.092909
653.436782	54.193288
653.860953	54.264873
654.285102	54.295547
654.709226	54.288782
655.133328	54.256608
655.557406	54.192924
655.981461	54.109858
656.405493	54.003274
656.829501	53.877015
657.253486	53.720454
657.677448	53.534895
658.101386	53.313206
658.525301	53.063630
658.949192	52.784091
659.373060	52.475328
659.796904	52.127896
660.220725	51.767435
660.644522	51.394474
661.068296	50.993388
661.492046	50.576943
661.915772	50.156410
662.339475	49.732235
662.763154	49.324303
663.186810	48.926611
663.610442	48.560647
664.034050	48.235524
664.457635	47.951845
664.881196	47.714269
665.304733	47.521758
665.728247	47.397014
666.151736	47.331560
666.575202	47.340797
666.998644	47.395950
667.422062	47.512001
667.845457	47.675867
668.268827	47.882106
668.692174	48.125880
669.115496	48.403384
669.538795	48.715840
669.962070	49.033940
670.385321	49.352401
670.808547	49.673977
671.231750	49.993867
671.654929	50.298271
672.078084	50.582124
672.501214	50.840778
672.924321	51.076271
673.347404	51.285131
673.770462	51.445064
674.193496	51.594428
674.616506	51.716620
675.039492	51.803530
675.462454	51.873532
675.885391	51.910663
676.308305	51.933048
676.731194	51.927233
677.154058	51.889720
677.576899	51.818645
677.999715	51.725443
678.422507	51.600426
678.845274	51.429880
679.268017	51.234858
679.690736	50.997026
680.113430	50.735746
680.536100	50.437585
680.958746	50.114059
681.381367	49.770151
681.803963	49.398882
682.226535	49.017812
682.649083	48.607274
683.071605	48.199332
683.494104	47.796539
683.916578	47.396513
684.339027	47.003852
684.761451	46.617414
685.183851	46.246727
685.606227	45.886972
686.028577	45.538070
686.450903	45.209076
686.873204	44.900669
687.295481	44.594354
687.717733	44.294727
688.139959	44.013979
688.562162	43.727076
688.984339	43.453224
689.406492	43.180936
689.828619	42.909405
690.250722	42.637531
690.672800	42.375895
691.094853	42.110113
691.516881	41.849339
691.938884	41.601666
692.360863	41.350421
692.782816	41.120677
693.204744	40.904847
693.626647	40.716016
694.048526	40.552917
694.470379	40.422591
694.892207	40.331869
695.314010	40.266717
695.735788	40.249411
696.157540	40.273433
696.579268	40.340990
697.000970	40.450320
697.422648	40.603684
697.844300	40.804099
698.265926	41.050570
698.687528	41.333745
699.109104	41.657482
699.530655	42.001866
699.952181	42.378659
700.373681	42.771799
700.795156	43.177427
701.216606	43.585910
701.638030	44.002826
702.059429	44.408220
702.480803	44.794104
702.902151	45.154989
703.323473	45.490397
703.744770	45.780227
704.166042	46.035124
704.587288	46.257443
705.008509	46.438523
705.429704	46.595567
705.850873	46.705551
706.272017	46.774488
706.693135	46.793529
707.114228	46.771854
707.535295	46.717141
707.956336	46.621775
708.377352	46.500868
708.798342	46.347588
709.219306	46.164781
709.640245	45.961063
710.061157	45.735787
710.482044	45.492102
710.902905	45.233485
711.323741	44.958834
711.744550	44.686790
712.165334	44.402882
712.586092	44.125819
713.006823	43.847306
713.427529	43.575356
713.848209	43.320453
714.268863	43.084344
714.689492	42.862327
715.110094	42.669251
715.530670	42.509472
715.951220	42.376142
716.371744	42.283384
716.792242	42.230661
717.212714	42.207327
717.633159	42.214661
718.053579	42.252340
718.473973	42.322651
718.894340	42.415794
719.314681	42.518380
719.734996	42.650092
720.155285	42.791288
720.575547	42.931998
720.995784	43.074493
721.415994	43.204416
721.836177	43.323617
722.256335	43.426993
722.676466	43.505424
723.096570	43.559868
723.516649	43.586645
723.936701	43.579874
724.356726	43.543899
724.776725	43.472951
725.196698	43.373064
725.616644	43.226996
726.036564	43.055359
726.456457	42.855570
726.876324	42.632335
727.296164	42.388337
727.715977	42.127492
728.135764	41.851417
728.555525	41.566984
728.975258	41.277756
729.394966	40.982381
729.814646	40.687323
730.234300	40.415223
730.653927	40.141589
731.073527	39.891926
731.493101	39.648138
731.912648	39.426555
732.332168	39.242899
732.751661	39.077775
733.171128	38.943115
733.590568	38.838544
734.009980	38.759140
734.429366	38.710203
734.848726	38.690325
735.268058	38.690771
735.687363	38.719354
736.106641	38.772909
736.525893	38.844993
736.945117	38.934210
737.364314	39.038119
737.783485	39.152542
738.202628	39.271450
738.621744	39.398126
739.040834	39.525166
739.459896	39.648231
739.878931	39.765901
740.297939	39.866488
740.716919	39.966086
741.135873	40.039469
741.554799	40.089847
741.973698	40.122626
742.392570	40.139557
742.811415	40.133991
743.230232	40.095781
743.649022	40.048641
744.067785	39.964963
744.486521	39.862300
744.905229	39.734879
745.323909	39.587010
745.742563	39.428086
746.161189	39.245071
746.579787	39.055299
746.998358	38.855309
747.416902	38.657674
747.835418	38.459980
748.253907	38.266563
748.672368	38.074122
749.090802	37.889454
749.509208	37.710753
749.927586	37.553867
750.345937	37.409879
750.764261	37.284060
751.182556	37.187191
751.600824	37.117954
752.019065	37.073591
752.437277	37.056893
752.855462	37.074268
753.273620	37.126311
753.691749	37.194927
754.109851	37.301567
754.527925	37.442556
754.945971	37.610846
755.363989	37.799089
755.781980	38.014804
756.199943	38.245651
756.617877	38.486427
757.035784	38.748606
757.453663	39.016825
757.871514	39.292016
758.289337	39.565043
758.707132	39.823065
759.124899	40.072572
759.542639	40.295166
759.960350	40.511002
760.378033	40.696090
760.795688	40.854405
761.213314	40.986774
761.630913	41.087382
762.048484	41.155056
762.466026	41.199403
762.883541	41.202630
763.301027	41.182581
763.718485	41.132136
764.135914	41.041784
764.553316	40.935852
764.970689	40.797081
765.388034	40.643519
765.805351	40.457535
766.222639	40.264068
766.639899	40.058566
767.057131	39.833420
767.474334	39.606399
767.891509	39.381550
768.308655	39.156968
768.725773	38.941234
769.142863	38.740016
769.559924	38.556451
769.976957	38.388739
770.393961	38.236691
770.810936	38.110947
771.227883	38.003652
771.644802	37.929218
772.061692	37.896919
772.478553	37.887331
772.895386	37.913322
773.312190	37.961728
773.728965	38.044511
774.145712	38.162005
774.562430	38.306627
774.979119	38.487315
775.395780	38.699944
775.812411	38.942549
776.229014	39.193537
776.645589	39.469282
777.062134	39.778685
777.478651	40.088291
777.895138	40.412710
778.311597	40.756347
778.728027	41.111398
779.144428	41.456425
779.560800	41.811596
779.977143	42.160108
780.393458	42.497621
780.809743	42.821810
781.225999	43.120681
781.642226	43.392684
782.058425	43.642125
782.474594	43.851406
782.890734	44.022424
783.306845	44.163206
783.722926	44.260691
784.138979	44.315387
784.555003	44.321226
784.970997	44.268758
785.386962	44.184640
785.802898	44.047294
786.218805	43.878523
786.634682	43.662337
787.050531	43.412144
787.466349	43.129640
787.882139	42.814177
788.297899	42.464501
788.713630	42.110163
789.129332	41.746158
789.545004	41.371322
789.960647	40.994996
790.376260	40.631921
790.791844	40.279996
791.207399	39.940637
791.622924	39.625743
792.038419	39.330260
792.453885	39.056888
792.869321	38.828851
793.284728	38.623186
793.700106	38.446028
794.115453	38.319936
794.530771	38.220365
794.946060	38.152481
795.361319	38.105822
795.776548	38.096370
796.191747	38.103579
796.606917	38.133576
797.022057	38.190601
797.437167	38.253037
797.852248	38.323287
798.267298	38.399999
798.682319	38.480078
799.097310	38.550104
799.512271	38.608814
799.927203	38.650538
800.342104	38.687675
800.756976	38.696196
801.171818	38.688586
801.586629	38.647390
802.001411	38.588856
802.416163	38.509620
802.830885	38.397188
803.245577	38.253813
803.660238	38.086642
804.074870	37.878937
804.489472	37.659317
804.904043	37.411032
805.318585	37.136185
805.733096	36.842461
806.147577	36.536754
806.562028	36.212931
806.976449	35.866021
807.390840	35.512007
807.805200	35.147717
808.219530	34.788994
808.633830	34.416671
809.048100	34.051352
809.462339	33.688753
809.876548	33.323233
810.290727	32.979051
810.704875	32.643813
811.118993	32.321886
811.533080	32.010968
811.947137	31.725845
812.361164	31.467763
812.775160	31.221572
813.189126	30.992021
813.603061	30.794968
814.016966	30.628092
814.430840	30.479579
814.844684	30.365806
815.258497	30.276001
815.672280	30.217840
816.086032	30.186363
816.499753	30.184682
816.913444	30.216592
817.327104	30.271030
817.740733	30.358430
818.154331	30.475686
818.567899	30.610334
818.981436	30.773238
819.394943	30.967559
819.808418	31.173271
820.221863	31.398023
820.635277	31.650982
821.048660	31.921272
821.462013	32.211918
821.875334	32.510271
822.288625	32.810827
822.701884	33.127177
823.115113	33.439837
823.528311	33.771267
823.941478	34.094287
824.354614	34.409287
824.767718	34.716342
825.180792	35.011016
825.593835	35.299263
826.006847	35.563513
826.419827	35.813243
826.832777	36.024045
827.245695	36.220180
827.658582	36.380233
828.071438	36.512900
828.484263	36.596084
828.897057	36.654898
829.309819	36.674795
829.722551	36.665373
830.135251	36.609475
830.547919	36.513356
830.960557	36.379179
831.373163	36.215059
831.785738	36.018115
832.198281	35.796012
832.610793	35.558584
833.023274	35.314252
833.435723	35.043252
833.848141	34.767659
834.260528	34.478153
834.672883	34.190565
835.085206	33.916150
835.497498	33.645030
835.909758	33.389727
836.321987	33.129996
836.734185	32.898239
837.146350	32.678921
837.558485	32.480031
837.970587	32.307334
838.382658	32.159305
838.794697	32.041396
839.206705	31.935897
839.618681	31.853524
840.030625	31.789937
840.442538	31.755694
840.854418	31.725099
841.266267	31.723247
841.678084	31.741803
842.089870	31.783084
842.501623	31.824345
842.913345	31.873858
843.325035	31.942759
843.736693	32.033324
844.148319	32.137762
844.559913	32.239410
844.971475	32.347905
845.383005	32.455812
845.794504	32.573242
846.205970	32.681198
846.617404	32.782168
847.028806	32.886468
847.440176	32.987820
847.851514	33.082258
848.262820	33.158041
848.674094	33.221599
849.085336	33.290597
849.496546	33.332635
849.907723	33.365773
850.318868	33.387126
850.729981	33.384319
851.141062	33.367777
851.552110	33.339870
851.963127	33.298667
852.374111	33.248067
852.785062	33.176951
853.195982	33.082139
853.606869	32.999315
854.017723	32.896456
854.428546	32.779793
854.839336	32.646416
855.250093	32.509145
855.660818	32.366017
856.071511	32.231676
856.482171	32.067925
856.892799	31.906593
857.303394	31.740104
857.713956	31.576428
858.124486	31.420595
858.534984	31.239407
858.945449	31.069931
859.355881	30.916495
859.766280	30.753691
860.176647	30.588557
860.586982	30.422643
860.997283	30.274871
861.407552	30.123646
861.817789	29.979487
862.227992	29.838920
862.638163	29.712934
863.048301	29.598377
863.458406	29.492035
863.868478	29.398472
864.278518	29.302649
864.688524	29.224840
865.098498	29.174077
865.508439	29.137838
865.918347	29.118605
866.328222	29.105635
866.738064	29.118286
867.147873	29.149958
867.557649	29.208248
867.967392	29.280102
868.377102	29.374404
868.786779	29.469262
869.196423	29.611269
869.606034	29.767121
870.015612	29.958811
870.425156	30.172081
870.834668	30.398575
871.244146	30.659749
871.653591	30.932536
872.063003	31.210832
872.472382	31.500023
872.881728	31.811171
873.291040	32.146883
873.700319	32.460927
874.109564	32.806504
874.518777	33.126573
874.927956	33.474023
875.337102	33.823897
875.746214	34.165372
876.155293	34.508768
876.564338	34.830553
876.973350	35.173383
877.382329	35.500588
877.791274	35.778954
878.200186	36.053624
878.609064	36.319830
879.017909	36.564808
879.426720	36.768013
879.835497	36.944114
880.244241	37.100464
880.652952	37.226417
881.061629	37.325516
881.470272	37.405992
881.878881	37.426935
882.287457	37.426857
882.695999	37.394060
883.104507	37.338151
883.512982	37.242508
883.921423	37.121738
884.329830	36.980236
884.738203	36.824800
885.146543	36.668231
885.554849	36.486701
885.963120	36.284043
886.371358	36.096530
886.779563	35.898054
887.187733	35.716531
887.595869	35.514852
888.003971	35.300288
888.412040	35.087609
888.820074	34.895678
889.228074	34.726364
889.636041	34.537154
890.043973	34.367817
890.451871	34.237448
890.859736	34.121314
891.267566	33.992249
891.675362	33.902022
892.083124	33.826568
892.490851	33.777483
892.898545	33.736353
893.306204	33.722717
893.713829	33.732194
894.121420	33.746313
894.528977	33.779128
894.936499	33.839738
895.343987	33.902044
895.751441	33.958028
896.158860	34.034840
896.566246	34.129654
896.973596	34.233126
897.380913	34.337550
897.788195	34.429149
898.195442	34.520910
898.602655	34.625254
899.009834	34.718306
899.416978	34.800321
899.824088	34.852484
900.231163	34.930430
900.638204	35.008753
901.045210	35.076357
901.452181	35.136612
901.859118	35.177099
902.266021	35.221252
902.672888	35.253663
903.079721	35.272090
903.486520	35.262923
903.893283	35.261031
904.300012	35.228891
904.706707	35.214788
905.113366	35.191342
905.519991	35.144368
905.926581	35.106210
906.333136	35.032212
906.739656	34.966463
907.146142	34.908644
907.552592	34.814896
907.959008	34.744550
908.365389	34.660810
908.771735	34.578206
909.178046	34.484591
909.584322	34.387462
909.990563	34.279540
910.396769	34.195295
910.802940	34.121206
911.209076	34.040560
911.615177	33.960486
912.021243	33.887201
912.427274	33.841863
912.833270	33.790161
913.239231	33.696622
913.645156	33.626496
914.051046	33.560976
914.456902	33.486278
914.862721	33.408834
915.268506	33.333456
915.674256	33.268367
916.079970	33.209809
916.485649	33.161840
916.891292	33.085041
917.296901	33.013592
917.702474	32.935607
918.108011	32.882054
918.513514	32.819138
918.918980	32.785261
919.324412	32.725052
919.729808	32.677332
920.135169	32.634017
920.540494	32.606371
920.945783	32.591672
921.351037	32.578018
921.756256	32.580731
922.161439	32.567401
922.566586	32.580200
922.971698	32.584215
923.376775	32.592639
923.781815	32.593110
924.186820	32.608260
924.591790	32.626827
924.996723	32.650732
925.401621	32.650215
925.806484	32.704548
926.211310	32.750019
926.616101	32.776947
927.020856	32.822639
927.425575	32.860314
927.830259	32.903047
928.234906	32.938661
928.639518	32.978533
929.044094	33.031218
929.448634	33.102214
929.853138	33.167158
930.257606	33.245598
930.662038	33.302092
931.066434	33.359542
931.470795	33.402569
931.875119	33.477420
932.279407	33.550055
932.683659	33.606917
933.087875	33.654187
933.492055	33.687466
933.896199	33.731600
934.300307	33.729031
934.704379	33.753647
935.108414	33.755346
935.512414	33.770838
935.916377	33.767430
936.320304	33.754795
936.724195	33.762954
937.128049	33.748962
937.531867	33.710142
937.935649	33.671834
938.339395	33.621284
938.743104	33.553795
939.146777	33.492762
939.550414	33.419134
939.954014	33.357459
940.357578	33.276588
940.761105	33.190496
941.164596	33.104421
941.568050	32.974449
941.971468	32.868862
942.374850	32.754627
942.778195	32.616840
943.181503	32.463339
943.584775	32.303444
943.988010	32.142927
944.391209	31.982627
944.794371	31.828075
945.197496	31.672172
945.600585	31.474240
946.003637	31.315453
946.406653	31.172096
946.809632	31.058711
947.212574	30.929391
947.615479	30.779566
948.018347	30.613146
948.421179	30.478448
948.823974	30.364821
949.226732	30.204051
949.629453	30.079525
950.032138	29.972160
950.434785	29.864788
950.837396	29.754559
951.239969	29.682869
951.642506	29.603857
952.045006	29.520150
952.447469	29.430451
952.849895	29.356862
953.252283	29.298292
953.654635	29.204543
954.056950	29.151936
954.459227	29.086966
954.861468	29.013823
955.263671	28.925964
955.665838	28.877789
956.067967	28.836415
956.470059	28.787430
956.872114	28.723269
957.274131	28.626307
957.676112	28.547758
958.078055	28.507228
958.479961	28.436443
958.881829	28.326517
959.283661	28.201967
959.685455	28.088465
960.087211	28.016587
960.488931	27.937707
960.890613	27.845613
961.292257	27.727914
961.693864	27.640814
962.095434	27.538171
962.496966	27.414131
962.898461	27.317058
963.299918	27.229218
963.701338	27.110048
964.102720	26.976929
964.504065	26.902817
964.905372	26.822925
965.306641	26.693777
965.707873	26.577774
966.109068	26.489738
966.510224	26.381910
966.911343	26.267325
967.312425	26.199912
967.713468	26.112193
968.114474	26.034404
968.515442	25.961274
968.916373	25.903344
969.317265	25.845713
969.718120	25.793281
970.118937	25.756097
970.519716	25.683878
970.920458	25.669357
971.321161	25.668671
971.721827	25.685717
972.122454	25.701212
972.523044	25.689286
972.923596	25.713283
973.324110	25.747255
973.724585	25.757777
974.125023	25.775797
974.525423	25.799101
974.925785	25.904605
975.326108	25.945689
975.726394	25.954356
976.126642	25.990354
976.526851	26.074707
976.927022	26.101195
977.327155	26.084209
977.727250	26.133639
978.127307	26.220816
978.527325	26.290213
978.927306	26.369805
979.327248	26.465614
979.727151	26.518751
980.127017	26.628081
980.526844	26.696911
980.926633	26.818774
981.326383	26.912797
981.726095	27.032985
982.125769	27.138277
982.525404	27.302316
982.925001	27.447149
983.324560	27.564208
983.724079	27.659931
984.123561	27.784155
984.523004	27.874452
984.922408	27.996363
985.321774	28.020853
985.721102	28.124770
986.120390	28.232507
986.519641	28.395314
986.918852	28.466467
987.318025	28.508457
987.717159	28.616476
988.116255	28.764385
988.515312	28.877331
988.914330	28.967174
989.313310	29.003293
989.712250	29.170621
990.111152	29.373008
990.510015	29.440665
990.908840	29.483855
991.307625	29.533125
991.706372	29.571481
992.105080	29.615899
992.503749	29.655051
992.902379	29.839925
993.300970	29.936142
993.699522	30.087782
994.098035	30.153250
994.496510	30.387077
994.894945	30.389558
995.293341	30.460478
995.691698	30.580456
996.090016	30.679549
996.488296	30.754858
996.886535	31.016175
997.284736	31.219063
997.682898	31.436710
998.081021	31.568420
998.479104	31.785582
998.877148	31.946617
999.275153	32.180851
999.673119	32.320486
1000.071046	32.526606
1000.468933	32.677100
1000.866781	32.835947
1001.264590	32.954217
1001.662359	33.120265
1002.060089	33.349498
1002.457780	33.477034
1002.855431	33.584079
1003.253043	33.978348
1003.650615	34.313530
1004.048148	34.669345
1004.445642	35.103419
1004.843096	35.517180
1005.240511	35.826226
1005.637886	36.056506
1006.035221	36.351434
1006.432517	36.771071
1006.829774	36.923201
1007.226991	37.265282
1007.624168	37.749862
1008.021306	37.901964
1008.418404	38.492382
1008.815462	38.913014
1009.212481	39.161430
1009.609460	39.672762
1010.006399	40.215288
1010.403298	40.711301
1010.800158	41.149726
1011.196978	41.454116
1011.593758	41.915574
1011.990498	42.632713
1012.387199	43.403285
1012.783860	43.935488
1013.180480	44.540354
1013.577061	45.297786
1013.973602	46.307097
1014.370103	47.003923
1014.766564	47.428612
1015.162985	48.077499
1015.559366	48.451083
1015.955708	48.976865
1016.352009	49.497266
1016.748270	49.747805
1017.144491	50.312841
1017.540671	50.716997
1017.936812	51.194348
1018.332913	51.594099
1018.728973	52.051152
1019.124994	52.914131
1019.520974	53.826049
1019.916914	54.184884
1020.312814	55.388259
