Time1=100ms:Average1=5:Objective=10X:Aperture=1: (11/28/2018 9:57:52 AM)
11/28/2018 9:57:52 AM
Reflectance
10X
Ap#: 1
Avg1: 5.000000
Avg2: 0.000000
Int.Time1:100.000000

350.166136	76.301842
350.601937	76.697598
351.037728	77.316010
351.473509	77.059242
351.909281	77.350580
352.345042	77.413283
352.780794	77.507408
353.216536	77.548086
353.652267	77.864936
354.087989	77.668412
354.523701	77.666847
354.959403	77.553594
355.395095	77.534148
355.830777	77.316351
356.266449	77.406943
356.702110	77.543891
357.137762	78.486807
357.573404	78.481352
358.009035	78.131976
358.444656	78.165744
358.880268	78.282241
359.315869	78.263585
359.751459	78.015633
360.187040	78.226022
360.622610	77.822045
361.058170	77.804275
361.493720	77.853477
361.929260	77.904409
362.364789	77.705034
362.800308	77.903984
363.235816	78.082925
363.671314	78.090739
364.106802	77.733369
364.542279	77.781712
364.977746	77.976454
365.413203	77.981896
365.848649	78.030572
366.284084	77.826010
366.719509	78.017012
367.154924	77.572326
367.590328	77.728640
368.025721	77.672566
368.461104	77.313591
368.896477	77.238213
369.331838	76.969911
369.767189	76.894443
370.202530	76.678445
370.637859	75.950035
371.073178	76.360126
371.508486	76.632483
371.943784	76.863708
372.379071	76.657616
372.814347	76.676027
373.249612	77.046013
373.684866	76.815520
374.120110	76.919713
374.555343	76.560588
374.990565	76.415589
375.425776	76.288301
375.860976	76.263947
376.296165	75.827326
376.731343	75.892548
377.166511	75.822752
377.601667	76.336736
378.036812	76.155444
378.471946	76.330593
378.907070	76.584522
379.342182	76.667243
379.777283	77.070340
380.212373	76.930402
380.647452	77.211031
381.082520	77.157886
381.517576	77.059635
381.952622	77.390929
382.387656	77.354434
382.822679	77.347115
383.257691	77.072794
383.692692	77.010415
384.127681	77.286338
384.562659	76.726496
384.997626	76.226158
385.432581	75.973086
385.867525	76.074144
386.302458	76.084918
386.737379	75.565188
387.172289	75.369082
387.607188	75.313135
388.042075	75.399307
388.476951	75.956654
388.911815	76.113704
389.346668	76.093196
389.781509	76.055743
390.216338	75.682968
390.651157	75.423372
391.085963	75.369043
391.520758	75.737152
391.955541	75.190808
392.390313	75.071297
392.825073	74.625492
393.259821	74.354475
393.694558	74.287144
394.129283	73.949580
394.563996	73.960503
394.998698	74.376662
395.433388	74.456094
395.868066	74.272106
396.302732	74.268378
396.737386	74.025227
397.172029	73.923376
397.606659	73.457670
398.041278	73.016066
398.475885	72.806133
398.910480	72.333373
399.345063	71.709775
399.779634	70.850643
400.214194	69.960716
400.648741	68.718466
401.083276	67.271400
401.517799	65.800235
401.952310	63.683903
402.386809	61.982322
402.821296	59.832290
403.255771	57.715012
403.690234	55.367150
404.124684	53.099628
404.559123	50.496363
404.993549	47.912725
405.427963	45.331869
405.862365	42.922842
406.296754	40.693491
406.731131	38.721635
407.165496	36.732048
407.599849	35.057984
408.034190	33.305288
408.468518	31.642743
408.902833	30.077852
409.337137	28.761945
409.771428	27.584203
410.205706	26.531837
410.639973	25.423445
411.074226	24.559787
411.508467	23.811771
411.942696	23.176431
412.376912	22.594491
412.811116	22.083971
413.245307	21.689010
413.679486	21.340085
414.113652	21.063956
414.547805	20.773298
414.981946	20.542040
415.416074	20.325411
415.850190	20.111209
416.284293	19.967807
416.718383	19.912964
417.152460	19.868926
417.586525	19.852355
418.020577	19.849017
418.454616	19.877246
418.888643	19.953232
419.322656	20.026615
419.756657	20.050792
420.190645	20.051322
420.624620	20.084879
421.058582	20.085595
421.492531	20.121856
421.926468	20.214821
422.360391	20.338759
422.794301	20.468466
423.228199	20.660231
423.662083	20.868492
424.095955	21.173969
424.529813	21.430959
424.963658	21.699055
425.397491	21.953560
425.831310	22.193451
426.265116	22.414963
426.698909	22.617051
427.132689	22.842495
427.566455	23.057922
428.000209	23.326636
428.433949	23.603757
428.867676	23.928641
429.301389	24.235620
429.735090	24.546379
430.168777	24.770288
430.602451	24.999515
431.036111	25.182217
431.469759	25.369494
431.903392	25.537541
432.337013	25.716262
432.770620	25.866721
433.204213	26.077757
433.637794	26.324605
434.071360	26.573016
434.504914	26.904067
434.938453	27.257428
435.371979	27.598422
435.805492	27.970517
436.238991	28.329612
436.672477	28.668510
437.105949	28.985387
437.539407	29.236976
437.972852	29.481241
438.406283	29.716917
438.839700	29.958286
439.273104	30.218293
439.706494	30.508248
440.139871	30.832959
440.573233	31.153741
441.006582	31.496559
441.439917	31.797890
441.873238	32.038941
442.306546	32.245065
442.739839	32.394054
443.173119	32.531262
443.606385	32.667976
444.039636	32.792109
444.472874	32.938358
444.906099	33.099478
445.339309	33.293963
445.772505	33.500183
446.205687	33.767435
446.638855	34.038799
447.072009	34.328572
447.505149	34.630985
447.938275	34.923408
448.371387	35.198803
448.804485	35.478544
449.237569	35.688889
449.670638	35.885405
450.103694	36.057855
450.536735	36.206293
450.969762	36.343398
451.402774	36.512963
451.835773	36.696049
452.268757	36.883744
452.701727	37.061511
453.134683	37.280299
453.567624	37.468607
454.000551	37.645619
454.433464	37.782255
454.866362	37.889007
455.299246	37.996751
455.732116	38.075814
456.164971	38.165761
456.597811	38.240706
457.030638	38.321763
457.463449	38.420816
457.896246	38.506409
458.329029	38.599467
458.761797	38.688054
459.194551	38.809608
459.627290	38.884329
460.060014	38.980332
460.492724	39.074505
460.925419	39.154459
461.358099	39.219133
461.790765	39.294554
462.223416	39.322854
462.656052	39.341306
463.088674	39.316915
463.521281	39.284211
463.953873	39.237989
464.386450	39.209581
464.819012	39.166352
465.251560	39.117231
465.684093	39.075610
466.116611	39.042818
466.549114	39.012512
466.981602	38.978949
467.414075	38.948308
467.846533	38.897231
468.278977	38.842602
468.711405	38.781298
469.143818	38.715560
469.576216	38.625942
470.008600	38.498265
470.440968	38.357958
470.873321	38.190316
471.305659	38.015780
471.737982	37.842588
472.170289	37.656533
472.602582	37.455415
473.034859	37.286288
473.467122	37.096766
473.899369	36.918633
474.331600	36.761669
474.763817	36.630832
475.196018	36.526338
475.628204	36.471038
476.060375	36.454938
476.492530	36.469490
476.924670	36.477184
477.356795	36.507273
477.788904	36.518260
478.220998	36.520309
478.653076	36.524496
479.085139	36.546131
479.517186	36.580797
479.949219	36.615032
480.381235	36.706307
480.813236	36.837981
481.245221	37.045610
481.677191	37.285945
482.109146	37.565582
482.541084	37.858449
482.973008	38.189457
483.404915	38.537662
483.836807	38.877293
484.268683	39.230075
484.700544	39.550987
485.132388	39.851531
485.564217	40.142724
485.996031	40.423613
486.427828	40.706434
486.859610	40.993713
487.291376	41.283353
487.723126	41.581294
488.154860	41.908191
488.586579	42.252636
489.018281	42.620007
489.449968	43.031920
489.881639	43.500682
490.313293	44.035755
490.744932	44.600804
491.176555	45.217880
491.608162	45.855559
492.039753	46.478585
492.471328	47.057742
492.902886	47.590991
493.334429	48.077435
493.765956	48.500322
494.197466	48.882424
494.628960	49.229647
495.060439	49.602136
495.491901	49.996419
495.923347	50.421189
496.354776	50.895702
496.786190	51.420418
497.217587	51.981906
497.648968	52.549955
498.080332	53.145886
498.511681	53.737061
498.943013	54.307512
499.374328	54.831315
499.805628	55.285113
500.236911	55.688270
500.668177	56.032875
501.099427	56.322888
501.530661	56.534134
501.961878	56.699459
502.393079	56.815123
502.824264	56.879290
503.255431	56.930215
503.686583	56.940920
504.117717	56.956516
504.548835	56.985652
504.979937	57.047853
505.411022	57.164047
505.842090	57.360397
506.273142	57.595138
506.704177	57.894276
507.135195	58.218954
507.566197	58.557515
507.997182	58.875649
508.428150	59.115010
508.859102	59.297559
509.290036	59.411449
509.720954	59.457176
510.151855	59.427845
510.582739	59.368799
511.013607	59.295700
511.444457	59.221926
511.875291	59.193512
512.306107	59.236721
512.736907	59.349192
513.167690	59.531261
513.598456	59.777521
514.029205	60.060419
514.459936	60.396990
514.890651	60.740268
515.321349	61.067606
515.752030	61.381053
516.182693	61.660708
516.613340	61.882211
517.043969	62.054133
517.474582	62.179569
517.905177	62.236306
518.335755	62.242763
518.766315	62.198955
519.196859	62.097194
519.627385	61.989558
520.057894	61.849812
520.488386	61.732591
520.918860	61.622136
521.349318	61.552779
521.779757	61.570640
522.210180	61.640563
522.640585	61.811158
523.070973	62.043710
523.501343	62.368178
523.931696	62.762331
524.362031	63.199560
524.792349	63.660366
525.222650	64.098439
525.652933	64.497080
526.083198	64.841461
526.513446	65.123630
526.943677	65.331006
527.373890	65.507958
527.804085	65.624745
528.234262	65.720389
528.664422	65.811687
529.094565	65.929609
529.524689	66.107514
529.954796	66.318903
530.384885	66.609447
530.814957	66.943748
531.245011	67.344328
531.675047	67.795604
532.105065	68.285336
532.535065	68.806073
532.965048	69.303649
533.395013	69.789423
533.824959	70.203423
534.254888	70.587087
534.684799	70.894877
535.114693	71.135659
535.544568	71.320440
535.974425	71.382116
536.404264	71.384537
536.834086	71.298800
537.263889	71.146794
537.693674	70.946951
538.123441	70.718015
538.553190	70.473781
538.982921	70.220875
539.412634	70.002444
539.842329	69.823549
540.272006	69.691437
540.701664	69.593993
541.131304	69.569956
541.560926	69.611290
541.990530	69.688612
542.420116	69.786015
542.849683	69.883889
543.279232	69.985783
543.708763	70.064404
544.138275	70.110225
544.567769	70.083079
544.997245	70.013225
545.426702	69.869203
545.856141	69.659333
546.285562	69.404471
546.714964	69.095557
547.144347	68.782478
547.573713	68.449145
548.003059	68.132794
548.432387	67.823158
548.861697	67.522872
549.290988	67.296931
549.720260	67.106752
550.149514	66.976312
550.578750	66.888723
551.007966	66.839652
551.437164	66.814469
551.866344	66.826915
552.295504	66.848278
552.724646	66.857139
553.153769	66.844998
553.582874	66.807462
554.011960	66.724258
554.441027	66.573643
554.870075	66.364414
555.299104	66.114126
555.728115	65.805567
556.157106	65.454695
556.586079	65.073142
557.015033	64.679483
557.443968	64.294318
557.872884	63.936876
558.301781	63.591238
558.730659	63.295376
559.159518	63.052631
559.588358	62.875130
560.017180	62.761850
560.445982	62.711748
560.874765	62.726730
561.303528	62.803044
561.732273	62.913346
562.160999	63.063318
562.589705	63.221499
563.018393	63.402213
563.447061	63.585946
563.875710	63.760413
564.304340	63.924020
564.732950	64.074922
565.161542	64.189651
565.590114	64.272774
566.018666	64.324540
566.447200	64.324412
566.875714	64.309851
567.304208	64.261506
567.732684	64.181346
568.161140	64.082015
568.589576	63.943347
569.017993	63.799948
569.446391	63.646028
569.874769	63.493633
570.303128	63.333566
570.731467	63.175010
571.159787	63.027705
571.588087	62.895379
572.016368	62.778870
572.444629	62.651863
572.872870	62.546138
573.301092	62.430129
573.729294	62.304955
574.157476	62.144300
574.585639	61.946371
575.013782	61.728595
575.441906	61.468222
575.870009	61.173588
576.298093	60.831106
576.726157	60.463319
577.154202	60.061296
577.582226	59.661040
578.010231	59.254270
578.438216	58.871443
578.866181	58.530571
579.294126	58.235588
579.722051	58.015405
580.149957	57.846978
580.577842	57.733900
581.005707	57.689618
581.433553	57.687248
581.861378	57.772322
582.289184	57.904631
582.716969	58.077800
583.144734	58.277411
583.572479	58.518199
584.000205	58.791121
584.427910	59.096224
584.855594	59.398846
585.283259	59.709849
585.710904	60.037068
586.138528	60.362620
586.566132	60.679381
586.993716	60.984029
587.421280	61.264759
587.848823	61.536141
588.276346	61.758969
588.703849	61.958620
589.131332	62.119184
589.558794	62.224699
589.986236	62.265415
590.413657	62.273129
590.841058	62.218548
591.268438	62.113617
591.695799	61.953644
592.123138	61.740522
592.550458	61.482669
592.977756	61.192810
593.405034	60.858540
593.832292	60.509226
594.259529	60.134874
594.686746	59.750174
595.113942	59.333043
595.541117	58.895009
595.968272	58.443157
596.395406	57.977631
596.822519	57.463761
597.249612	56.912664
597.676684	56.309064
598.103735	55.678222
598.530766	55.008705
598.957775	54.304957
599.384764	53.569715
599.811733	52.836592
600.238680	52.092533
600.665606	51.371731
601.092512	50.667612
601.519397	50.002075
601.946261	49.393715
602.373104	48.841581
602.799926	48.365719
603.226727	47.967675
603.653507	47.636201
604.080266	47.372600
604.507004	47.186917
604.933721	47.068536
605.360417	47.016192
605.787092	47.009665
606.213746	47.044414
606.640379	47.137805
607.066991	47.280874
607.493581	47.452784
607.920150	47.665824
608.346699	47.915246
608.773226	48.206274
609.199731	48.517391
609.626216	48.866635
610.052679	49.245363
610.479121	49.661199
610.905542	50.100153
611.331941	50.560639
611.758319	51.039139
612.184676	51.538306
612.611011	52.016717
613.037325	52.468081
613.463617	52.902708
613.889888	53.305894
614.316138	53.653583
614.742366	53.962075
615.168573	54.214908
615.594758	54.408862
616.020921	54.550340
616.447063	54.640695
616.873184	54.681276
617.299283	54.683262
617.725360	54.632165
618.151416	54.553695
618.577450	54.445458
619.003462	54.317442
619.429453	54.171561
619.855422	53.989662
620.281369	53.785311
620.707295	53.577604
621.133199	53.347652
621.559081	53.093518
621.984941	52.805895
622.410779	52.498209
622.836596	52.154633
623.262391	51.788594
623.688163	51.396103
624.113914	50.994128
624.539644	50.581339
624.965351	50.164464
625.391036	49.729530
625.816699	49.328480
626.242340	48.946166
626.667960	48.592084
627.093557	48.279546
627.519132	48.007086
627.944685	47.791475
628.370216	47.629540
628.795725	47.515937
629.221212	47.445285
629.646677	47.431446
630.072119	47.452558
630.497540	47.514194
630.922938	47.618188
631.348314	47.739695
631.773668	47.885796
632.198999	48.057551
632.624308	48.245838
633.049595	48.467132
633.474860	48.709346
633.900102	48.965684
634.325322	49.239033
634.750520	49.548677
635.175695	49.880126
635.600848	50.248076
636.025978	50.654019
636.451086	51.098125
636.876171	51.576377
637.301234	52.087773
637.726275	52.634400
638.151293	53.200069
638.576288	53.796496
639.001261	54.408126
639.426211	55.024798
639.851139	55.643156
640.276044	56.249362
640.700927	56.853849
641.125787	57.436059
641.550624	57.979587
641.975438	58.488460
642.400230	58.971180
642.824999	59.412466
643.249745	59.822247
643.674469	60.187861
644.099169	60.528107
644.523847	60.855069
644.948502	61.152937
645.373135	61.453323
645.797744	61.737973
646.222330	62.008177
646.646894	62.264991
647.071435	62.514482
647.495953	62.762379
647.920447	62.983958
648.344919	63.202222
648.769368	63.395224
649.193794	63.564636
649.618197	63.698939
650.042576	63.809701
650.466933	63.879171
650.891267	63.898923
651.315577	63.893668
651.739864	63.851334
652.164129	63.775264
652.588370	63.676086
653.012587	63.545311
653.436782	63.384004
653.860953	63.205028
654.285102	63.002798
654.709226	62.797855
655.133328	62.595015
655.557406	62.383923
655.981461	62.165259
656.405493	61.956917
656.829501	61.745102
657.253486	61.524138
657.677448	61.273255
658.101386	61.024956
658.525301	60.731459
658.949192	60.424783
659.373060	60.100959
659.796904	59.750854
660.220725	59.372371
660.644522	58.979503
661.068296	58.554376
661.492046	58.110943
661.915772	57.668206
662.339475	57.214002
662.763154	56.769888
663.186810	56.325307
663.610442	55.899634
664.034050	55.514384
664.457635	55.159142
664.881196	54.846616
665.304733	54.569402
665.728247	54.349123
666.151736	54.185409
666.575202	54.084647
666.998644	54.030922
667.422062	54.036301
667.845457	54.073962
668.268827	54.156234
668.692174	54.272488
669.115496	54.418708
669.538795	54.580066
669.962070	54.758472
670.385321	54.934815
670.808547	55.122186
671.231750	55.287319
671.654929	55.454297
672.078084	55.598158
672.501214	55.712674
672.924321	55.811045
673.347404	55.887210
673.770462	55.929950
674.193496	55.963622
674.616506	55.980275
675.039492	55.969568
675.462454	55.959620
675.885391	55.938550
676.308305	55.919631
676.731194	55.908727
677.154058	55.890998
677.576899	55.874435
677.999715	55.863357
678.422507	55.843865
678.845274	55.824951
679.268017	55.800245
679.690736	55.767260
680.113430	55.740129
680.536100	55.690120
680.958746	55.642444
681.381367	55.585918
681.803963	55.513218
682.226535	55.445754
682.649083	55.372197
683.071605	55.302824
683.494104	55.238914
683.916578	55.183156
684.339027	55.135425
684.761451	55.092426
685.183851	55.064139
685.606227	55.055970
686.028577	55.051402
686.450903	55.062534
686.873204	55.078705
687.295481	55.101761
687.717733	55.119091
688.139959	55.132924
688.562162	55.139639
688.984339	55.138391
689.406492	55.110875
689.828619	55.061262
690.250722	54.987935
690.672800	54.889626
691.094853	54.771044
691.516881	54.631424
691.938884	54.470370
692.360863	54.285794
692.782816	54.091635
693.204744	53.891817
693.626647	53.698119
694.048526	53.507641
694.470379	53.332256
694.892207	53.181040
695.314010	53.038316
695.735788	52.923651
696.157540	52.829460
696.579268	52.772410
697.000970	52.737444
697.422648	52.745649
697.844300	52.793033
698.265926	52.878904
698.687528	52.985289
699.109104	53.121253
699.530655	53.277624
699.952181	53.450129
700.373681	53.644320
700.795156	53.848386
701.216606	54.051695
701.638030	54.241093
702.059429	54.428844
702.480803	54.600549
702.902151	54.748050
703.323473	54.864797
703.744770	54.944885
704.166042	54.981272
704.587288	54.992685
705.008509	54.960467
705.429704	54.905955
705.850873	54.810808
706.272017	54.673897
706.693135	54.500018
707.114228	54.293674
707.535295	54.058096
707.956336	53.799790
708.377352	53.519233
708.798342	53.215440
709.219306	52.902067
709.640245	52.587087
710.061157	52.269459
710.482044	51.954201
710.902905	51.636992
711.323741	51.325875
711.744550	51.026568
712.165334	50.751833
712.586092	50.495204
713.006823	50.270378
713.427529	50.055593
713.848209	49.872257
714.268863	49.726358
714.689492	49.615263
715.110094	49.535166
715.530670	49.490512
715.951220	49.482007
716.371744	49.518167
716.792242	49.587062
717.212714	49.685100
717.633159	49.818729
718.053579	49.982691
718.473973	50.168081
718.894340	50.382629
719.314681	50.602492
719.734996	50.832442
720.155285	51.067046
720.575547	51.290102
720.995784	51.512720
721.415994	51.716288
721.836177	51.901803
722.256335	52.062830
722.676466	52.182444
723.096570	52.274049
723.516649	52.317458
723.936701	52.324000
724.356726	52.278782
724.776725	52.194155
725.196698	52.059217
725.616644	51.867894
726.036564	51.642847
726.456457	51.379563
726.876324	51.081360
727.296164	50.755399
727.715977	50.400398
728.135764	50.028193
728.555525	49.650071
728.975258	49.262829
729.394966	48.874426
729.814646	48.497038
730.234300	48.134483
730.653927	47.781750
731.073527	47.463541
731.493101	47.167738
731.912648	46.891268
732.332168	46.661407
732.751661	46.480221
733.171128	46.336844
733.590568	46.251174
734.009980	46.199292
734.429366	46.194655
734.848726	46.227700
735.268058	46.298474
735.687363	46.411717
736.106641	46.554407
736.525893	46.731253
736.945117	46.923737
737.364314	47.143516
737.783485	47.375886
738.202628	47.624045
738.621744	47.891774
739.040834	48.148326
739.459896	48.410576
739.878931	48.664204
740.297939	48.910434
740.716919	49.149835
741.135873	49.359397
741.554799	49.549009
741.973698	49.714270
742.392570	49.845716
742.811415	49.948875
743.230232	50.030395
743.649022	50.085549
744.067785	50.098925
744.486521	50.081311
744.905229	50.032623
745.323909	49.954785
745.742563	49.843680
746.161189	49.711559
746.579787	49.549675
746.998358	49.376264
747.416902	49.195114
747.835418	49.012894
748.253907	48.827786
748.672368	48.640459
749.090802	48.465693
749.509208	48.297283
749.927586	48.152577
750.345937	48.026775
750.764261	47.928675
751.182556	47.854298
751.600824	47.818240
752.019065	47.821343
752.437277	47.856081
752.855462	47.941357
753.273620	48.063289
753.691749	48.212362
754.109851	48.414105
754.527925	48.649623
754.945971	48.923067
755.363989	49.236003
755.781980	49.575294
756.199943	49.931440
756.617877	50.305691
757.035784	50.690167
757.453663	51.078407
757.871514	51.484900
758.289337	51.868079
758.707132	52.236408
759.124899	52.587357
759.542639	52.903408
759.960350	53.186082
760.378033	53.428661
760.795688	53.630179
761.213314	53.781105
761.630913	53.884009
762.048484	53.924065
762.466026	53.919100
762.883541	53.859102
763.301027	53.756554
763.718485	53.597749
764.135914	53.384814
764.553316	53.124709
764.970689	52.810535
765.388034	52.472613
765.805351	52.087408
766.222639	51.681109
766.639899	51.261730
767.057131	50.804917
767.474334	50.347786
767.891509	49.883719
768.308655	49.416744
768.725773	48.962590
769.142863	48.521136
769.559924	48.102678
769.976957	47.713530
770.393961	47.353504
770.810936	47.015527
771.227883	46.735712
771.644802	46.494269
772.061692	46.287242
772.478553	46.130950
772.895386	46.010000
773.312190	45.936376
773.728965	45.904601
774.145712	45.917092
774.562430	45.971313
774.979119	46.080141
775.395780	46.219160
775.812411	46.381102
776.229014	46.564503
776.645589	46.781787
777.062134	47.027493
777.478651	47.279872
777.895138	47.555510
778.311597	47.834319
778.728027	48.127305
779.144428	48.409329
779.560800	48.680893
779.977143	48.949261
780.393458	49.187616
780.809743	49.407823
781.225999	49.607820
781.642226	49.762622
782.058425	49.885856
782.474594	49.961078
782.890734	49.982080
783.306845	49.956885
783.722926	49.875253
784.138979	49.727073
784.555003	49.536270
784.970997	49.287887
785.386962	48.982297
785.802898	48.631127
786.218805	48.225782
786.634682	47.770404
787.050531	47.291914
787.466349	46.772760
787.882139	46.226531
788.297899	45.664960
788.713630	45.116214
789.129332	44.560193
789.545004	44.016751
789.960647	43.481168
790.376260	42.980434
790.791844	42.510423
791.207399	42.082682
791.622924	41.689482
792.038419	41.327698
792.453885	41.020193
792.869321	40.753957
793.284728	40.534546
793.700106	40.366796
794.115453	40.244850
794.530771	40.183972
794.946060	40.164587
795.361319	40.193937
795.776548	40.259557
796.191747	40.358735
796.606917	40.499275
797.022057	40.668578
797.437167	40.843246
797.852248	41.043380
798.267298	41.256201
798.682319	41.486739
799.097310	41.707213
799.512271	41.936335
799.927203	42.139832
800.342104	42.344809
800.756976	42.523750
801.171818	42.674727
801.586629	42.801182
802.001411	42.903638
802.416163	42.973714
802.830885	43.017205
803.245577	43.032119
803.660238	43.001208
804.074870	42.931631
804.489472	42.835597
804.904043	42.713654
805.318585	42.559577
805.733096	42.388026
806.147577	42.190681
806.562028	41.975665
806.976449	41.738230
807.390840	41.490012
807.805200	41.228403
808.219530	40.946517
808.633830	40.664299
809.048100	40.389257
809.462339	40.117383
809.876548	39.833132
810.290727	39.571259
810.704875	39.315798
811.118993	39.063370
811.533080	38.818529
811.947137	38.597642
812.361164	38.394000
812.775160	38.210463
813.189126	38.038962
813.603061	37.884261
814.016966	37.769914
814.430840	37.666947
814.844684	37.593234
815.258497	37.533509
815.672280	37.505986
816.086032	37.500474
816.499753	37.539735
816.913444	37.590107
817.327104	37.660573
817.740733	37.756824
818.154331	37.872345
818.567899	38.017123
818.981436	38.198500
819.394943	38.386635
819.808418	38.590630
820.221863	38.808086
820.635277	39.037890
821.048660	39.281839
821.462013	39.538796
821.875334	39.797609
822.288625	40.047535
822.701884	40.311943
823.115113	40.565730
823.528311	40.828614
823.941478	41.085838
824.354614	41.328837
824.767718	41.565762
825.180792	41.786392
825.593835	41.992475
826.006847	42.167811
826.419827	42.341422
826.832777	42.479363
827.245695	42.594415
827.658582	42.671931
828.071438	42.724091
828.484263	42.726861
828.897057	42.690418
829.309819	42.617639
829.722551	42.516853
830.135251	42.383242
830.547919	42.199499
830.960557	41.988724
831.373163	41.735452
831.785738	41.432797
832.198281	41.121971
832.610793	40.789159
833.023274	40.438854
833.435723	40.082190
833.848141	39.722676
834.260528	39.368453
834.672883	39.012730
835.085206	38.664321
835.497498	38.329845
835.909758	38.008015
836.321987	37.693011
836.734185	37.414965
837.146350	37.161249
837.558485	36.919300
837.970587	36.707421
838.382658	36.529211
838.794697	36.386042
839.206705	36.251914
839.618681	36.153092
840.030625	36.075989
840.442538	36.031840
840.854418	36.020159
841.266267	36.045640
841.678084	36.087693
842.089870	36.154977
842.501623	36.245980
842.913345	36.345405
843.325035	36.480603
843.736693	36.650923
844.148319	36.829796
844.559913	37.032988
844.971475	37.254579
845.383005	37.503074
845.794504	37.763327
846.205970	38.028089
846.617404	38.297712
847.028806	38.563011
847.440176	38.828858
847.851514	39.097045
848.262820	39.368821
848.674094	39.629965
849.085336	39.880970
849.496546	40.101622
849.907723	40.304604
850.318868	40.509748
850.729981	40.692679
851.141062	40.842842
851.552110	40.990865
851.963127	41.118274
852.374111	41.214772
852.785062	41.294861
853.195982	41.355842
853.606869	41.394097
854.017723	41.417627
854.428546	41.426342
854.839336	41.408831
855.250093	41.373642
855.660818	41.329317
856.071511	41.267137
856.482171	41.179340
856.892799	41.087646
857.303394	40.986419
857.713956	40.852675
858.124486	40.710930
858.534984	40.539904
858.945449	40.353825
859.355881	40.162267
859.766280	39.952514
860.176647	39.733035
860.586982	39.517446
860.997283	39.283546
861.407552	39.040207
861.817789	38.783371
862.227992	38.547081
862.638163	38.313846
863.048301	38.080694
863.458406	37.846604
863.868478	37.634624
864.278518	37.410068
864.688524	37.211685
865.098498	37.032032
865.508439	36.880585
865.918347	36.752133
866.328222	36.635314
866.738064	36.542193
867.147873	36.502966
867.557649	36.471482
867.967392	36.497155
868.377102	36.544746
868.786779	36.636786
869.196423	36.760067
869.606034	36.915961
870.015612	37.119324
870.425156	37.357779
870.834668	37.622560
871.244146	37.926618
871.653591	38.248265
872.063003	38.615304
872.472382	38.988767
872.881728	39.377965
873.291040	39.778282
873.700319	40.186216
874.109564	40.596089
874.518777	41.016373
874.927956	41.406778
875.337102	41.789962
875.746214	42.148696
876.155293	42.492082
876.564338	42.791505
876.973350	43.080792
877.382329	43.322290
877.791274	43.519574
878.200186	43.681194
878.609064	43.785327
879.017909	43.859931
879.426720	43.893013
879.835497	43.835333
880.244241	43.770004
880.652952	43.640127
881.061629	43.466384
881.470272	43.251164
881.878881	42.982815
882.287457	42.687968
882.695999	42.338312
883.104507	41.968666
883.512982	41.557074
883.921423	41.136757
884.329830	40.706683
884.738203	40.243229
885.146543	39.801904
885.554849	39.369398
885.963120	38.926074
886.371358	38.500268
886.779563	38.093370
887.187733	37.711561
887.595869	37.357658
888.003971	37.010124
888.412040	36.694223
888.820074	36.428438
889.228074	36.192045
889.636041	35.962965
890.043973	35.800386
890.451871	35.652717
890.859736	35.524745
891.267566	35.459951
891.675362	35.414096
892.083124	35.375609
892.490851	35.377211
892.898545	35.410446
893.306204	35.456913
893.713829	35.531564
894.121420	35.614654
894.528977	35.711792
894.936499	35.814837
895.343987	35.921334
895.751441	36.024235
896.158860	36.144053
896.566246	36.251921
896.973596	36.372440
897.380913	36.489525
897.788195	36.573700
898.195442	36.632416
898.602655	36.699963
899.009834	36.740545
899.416978	36.764816
899.824088	36.754053
900.231163	36.747081
900.638204	36.710406
901.045210	36.642779
901.452181	36.526666
901.859118	36.422856
902.266021	36.298913
902.672888	36.142615
903.079721	35.990409
903.486520	35.819450
903.893283	35.595856
904.300012	35.363065
904.706707	35.136300
905.113366	34.900230
905.519991	34.643612
905.926581	34.396430
906.333136	34.156152
906.739656	33.906616
907.146142	33.681905
907.552592	33.462675
907.959008	33.271930
908.365389	33.077368
908.771735	32.896415
909.178046	32.738958
909.584322	32.587795
909.990563	32.450640
910.396769	32.335380
910.802940	32.266941
911.209076	32.197579
911.615177	32.152329
912.021243	32.119420
912.427274	32.115857
912.833270	32.090625
913.239231	32.109725
913.645156	32.152610
914.051046	32.189651
914.456902	32.238184
914.862721	32.312179
915.268506	32.371720
915.674256	32.440319
916.079970	32.530978
916.485649	32.633912
916.891292	32.725521
917.296901	32.818493
917.702474	32.911151
918.108011	32.995694
918.513514	33.053038
918.918980	33.109701
919.324412	33.150587
919.729808	33.171301
920.135169	33.183981
920.540494	33.182095
920.945783	33.188937
921.351037	33.168961
921.756256	33.135217
922.161439	33.083788
922.566586	33.005460
922.971698	32.919840
923.376775	32.809333
923.781815	32.695194
924.186820	32.566837
924.591790	32.453181
924.996723	32.311188
925.401621	32.194558
925.806484	32.070657
926.211310	31.934949
926.616101	31.816740
927.020856	31.698838
927.425575	31.558886
927.830259	31.456020
928.234906	31.348338
928.639518	31.230284
929.044094	31.129141
929.448634	31.062809
929.853138	30.990772
930.257606	30.946209
930.662038	30.892878
931.066434	30.879737
931.470795	30.867016
931.875119	30.887790
932.279407	30.933232
932.683659	30.962752
933.087875	30.992706
933.492055	31.028197
933.896199	31.098182
934.300307	31.159107
934.704379	31.233272
935.108414	31.305556
935.512414	31.412425
935.916377	31.508653
936.320304	31.589119
936.724195	31.690332
937.128049	31.756261
937.531867	31.814463
937.935649	31.844704
938.339395	31.864284
938.743104	31.877756
939.146777	31.902380
939.550414	31.856824
939.954014	31.817678
940.357578	31.759510
940.761105	31.675642
941.164596	31.581423
941.568050	31.467010
941.971468	31.301772
942.374850	31.143341
942.778195	30.970049
943.181503	30.797615
943.584775	30.577186
943.988010	30.336557
944.391209	30.054249
944.794371	29.767288
945.197496	29.467551
945.600585	29.175863
946.003637	28.890786
946.406653	28.589161
946.809632	28.265625
947.212574	27.936598
947.615479	27.647513
948.018347	27.346265
948.421179	27.056717
948.823974	26.768573
949.226732	26.453127
949.629453	26.182796
950.032138	25.937997
950.434785	25.703220
950.837396	25.486684
951.239969	25.272324
951.642506	25.050871
952.045006	24.878377
952.447469	24.709676
952.849895	24.528348
953.252283	24.385723
953.654635	24.264446
954.056950	24.136527
954.459227	24.052610
954.861468	23.969247
955.263671	23.883994
955.665838	23.796284
956.067967	23.751053
956.470059	23.722726
956.872114	23.746521
957.274131	23.748191
957.676112	23.783318
958.078055	23.854018
958.479961	23.917765
958.881829	23.947765
959.283661	24.000193
959.685455	24.084279
960.087211	24.134676
960.488931	24.183359
960.890613	24.225991
961.292257	24.254769
961.693864	24.321125
962.095434	24.371044
962.496966	24.430578
962.898461	24.493273
963.299918	24.546108
963.701338	24.583613
964.102720	24.577692
964.504065	24.622227
964.905372	24.670277
965.306641	24.690161
965.707873	24.701689
966.109068	24.689334
966.510224	24.695072
966.911343	24.711348
967.312425	24.717251
967.713468	24.717565
968.114474	24.725126
968.515442	24.727223
968.916373	24.721210
969.317265	24.713621
969.718120	24.688123
970.118937	24.670671
970.519716	24.609023
970.920458	24.533580
971.321161	24.515099
971.721827	24.540503
972.122454	24.534211
972.523044	24.538650
972.923596	24.567876
973.324110	24.563557
973.724585	24.631790
974.125023	24.665756
974.525423	24.734643
974.925785	24.774041
975.326108	24.789565
975.726394	24.814827
976.126642	24.941318
976.526851	25.040016
976.927022	25.124566
977.327155	25.238244
977.727250	25.367320
978.127307	25.497627
978.527325	25.656703
978.927306	25.780274
979.327248	25.911638
979.727151	26.030556
980.127017	26.168454
980.526844	26.289479
980.926633	26.419884
981.326383	26.489947
981.726095	26.590071
982.125769	26.681146
982.525404	26.836744
982.925001	26.979031
983.324560	27.080529
983.724079	27.193501
984.123561	27.270454
984.523004	27.333773
984.922408	27.409489
985.321774	27.406810
985.721102	27.527938
986.120390	27.546966
986.519641	27.590925
986.918852	27.551646
987.318025	27.586896
987.717159	27.624264
988.116255	27.671891
988.515312	27.591973
988.914330	27.600880
989.313310	27.566346
989.712250	27.526930
990.111152	27.581164
990.510015	27.617158
990.908840	27.549722
991.307625	27.539043
991.706372	27.538033
992.105080	27.549514
992.503749	27.559027
992.902379	27.609289
993.300970	27.633221
993.699522	27.851971
994.098035	27.916834
994.496510	28.074824
994.894945	28.196787
995.293341	28.291472
995.691698	28.485357
996.090016	28.599034
996.488296	28.697353
996.886535	28.874491
997.284736	29.043398
997.682898	29.205019
998.081021	29.392201
998.479104	29.569932
998.877148	29.784550
999.275153	30.112580
999.673119	30.314150
1000.071046	30.579115
1000.468933	30.813471
1000.866781	31.018793
1001.264590	31.372323
1001.662359	31.646544
1002.060089	31.927985
1002.457780	32.087585
1002.855431	32.225608
1003.253043	32.591080
1003.650615	33.004386
1004.048148	33.286794
1004.445642	33.567797
1004.843096	33.922022
1005.240511	34.204388
1005.637886	34.580312
1006.035221	34.859641
1006.432517	35.252223
1006.829774	35.616328
1007.226991	35.648110
1007.624168	36.128676
1008.021306	36.381019
1008.418404	36.941994
1008.815462	37.450290
1009.212481	37.834162
1009.609460	38.368624
1010.006399	38.999950
1010.403298	39.396719
1010.800158	40.057486
1011.196978	40.648660
1011.593758	41.144054
1011.990498	41.844374
1012.387199	42.748582
1012.783860	43.120091
1013.180480	43.892965
1013.577061	44.343344
1013.973602	45.376499
1014.370103	46.314081
1014.766564	46.810627
1015.162985	47.508977
1015.559366	48.040145
1015.955708	48.525850
1016.352009	49.082731
1016.748270	49.617037
1017.144491	50.302910
1017.540671	50.864614
1017.936812	51.384995
1018.332913	51.796336
1018.728973	52.317042
1019.124994	52.684246
1019.520974	54.000290
1019.916914	54.216115
1020.312814	55.269836
