Time1=100ms:Average1=5:Objective=10X:Aperture=1: (11/28/2018 9:58:23 AM)
11/28/2018 9:58:23 AM
Reflectance
10X
Ap#: 1
Avg1: 5.000000
Avg2: 0.000000
Int.Time1:100.000000

350.166136	90.855556
350.601937	91.032868
351.037728	91.430097
351.473509	91.309376
351.909281	91.213202
352.345042	91.189388
352.780794	91.191524
353.216536	91.101923
353.652267	91.299252
354.087989	91.096262
354.523701	90.960604
354.959403	90.785444
355.395095	90.968728
355.830777	90.339941
356.266449	90.390122
356.702110	90.818703
357.137762	91.518578
357.573404	91.315625
358.009035	90.749174
358.444656	90.989462
358.880268	91.214586
359.315869	91.309003
359.751459	90.788772
360.187040	91.058865
360.622610	90.438247
361.058170	90.540541
361.493720	90.435321
361.929260	90.317166
362.364789	90.214987
362.800308	90.469429
363.235816	90.494873
363.671314	90.587396
364.106802	90.079048
364.542279	90.050456
364.977746	90.254050
365.413203	90.459709
365.848649	90.277284
366.284084	90.184266
366.719509	90.474925
367.154924	90.365390
367.590328	90.429860
368.025721	90.469027
368.461104	90.234444
368.896477	89.917005
369.331838	90.029119
369.767189	90.498981
370.202530	90.203180
370.637859	89.795918
371.073178	90.145665
371.508486	90.674029
371.943784	90.782319
372.379071	90.750635
372.814347	90.575641
373.249612	90.788549
373.684866	90.518221
374.120110	91.070492
374.555343	90.785102
374.990565	90.658861
375.425776	90.772981
375.860976	90.986750
376.296165	90.784331
376.731343	90.719237
377.166511	90.593418
377.601667	91.088424
378.036812	91.293059
378.471946	91.501514
378.907070	91.448335
379.342182	91.689703
379.777283	91.597367
380.212373	91.360803
380.647452	91.302844
381.082520	91.187376
381.517576	90.813513
381.952622	91.015119
382.387656	90.805883
382.822679	90.775194
383.257691	90.319815
383.692692	89.994878
384.127681	90.144580
384.562659	89.726496
384.997626	89.262602
385.432581	89.268376
385.867525	89.510549
386.302458	89.487595
386.737379	89.291178
387.172289	89.063295
387.607188	88.989506
388.042075	89.115186
388.476951	89.781578
388.911815	89.953331
389.346668	89.878440
389.781509	89.839527
390.216338	89.586847
390.651157	89.653720
391.085963	89.843948
391.520758	89.865206
391.955541	89.096704
392.390313	88.986747
392.825073	88.794041
393.259821	88.777471
393.694558	88.635985
394.129283	88.393377
394.563996	88.500958
394.998698	88.588763
395.433388	88.475405
395.868066	88.622903
396.302732	88.818261
396.737386	88.467069
397.172029	88.391723
397.606659	87.852751
398.041278	87.499494
398.475885	87.254388
398.910480	86.490156
399.345063	85.406086
399.779634	84.505183
400.214194	83.336512
400.648741	81.802893
401.083276	79.839387
401.517799	77.971767
401.952310	75.570234
402.386809	73.241302
402.821296	70.285551
403.255771	67.665668
403.690234	64.905877
404.124684	61.644989
404.559123	58.410106
404.993549	55.306206
405.427963	52.188922
405.862365	48.983005
406.296754	46.199024
406.731131	43.413796
407.165496	40.781211
407.599849	38.436859
408.034190	36.181910
408.468518	34.052171
408.902833	32.091526
409.337137	30.197606
409.771428	28.524696
410.205706	27.023945
410.639973	25.524065
411.074226	24.300787
411.508467	23.143011
411.942696	22.133301
412.376912	21.181976
412.811116	20.357709
413.245307	19.541963
413.679486	18.809296
414.113652	18.220940
414.547805	17.640800
414.981946	17.084163
415.416074	16.537458
415.850190	16.090652
416.284293	15.666443
416.718383	15.293019
417.152460	14.902721
417.586525	14.569500
418.020577	14.244553
418.454616	13.923374
418.888643	13.703895
419.322656	13.537380
419.756657	13.282982
420.190645	13.085192
420.624620	12.897985
421.058582	12.702242
421.492531	12.513141
421.926468	12.349925
422.360391	12.189732
422.794301	12.065334
423.228199	11.932009
423.662083	11.800066
424.095955	11.732675
424.529813	11.626478
424.963658	11.534809
425.397491	11.483161
425.831310	11.418309
426.265116	11.330671
426.698909	11.271189
427.132689	11.200928
427.566455	11.104250
428.000209	11.041209
428.433949	10.984668
428.867676	10.935922
429.301389	10.878763
429.735090	10.829685
430.168777	10.752337
430.602451	10.700659
431.036111	10.647271
431.469759	10.602878
431.903392	10.552223
432.337013	10.489398
432.770620	10.420362
433.204213	10.378615
433.637794	10.333228
434.071360	10.267823
434.504914	10.224096
434.938453	10.201381
435.371979	10.156419
435.805492	10.125708
436.238991	10.087956
436.672477	10.061416
437.105949	10.039587
437.539407	10.002431
437.972852	9.973781
438.406283	9.931942
438.839700	9.872728
439.273104	9.829482
439.706494	9.779028
440.139871	9.750139
440.573233	9.714995
441.006582	9.683904
441.439917	9.638602
441.873238	9.605278
442.306546	9.573651
442.739839	9.538835
443.173119	9.502559
443.606385	9.482945
444.039636	9.450222
444.472874	9.422566
444.906099	9.398823
445.339309	9.384528
445.772505	9.375580
446.205687	9.355717
446.638855	9.343017
447.072009	9.322192
447.505149	9.326532
447.938275	9.324985
448.371387	9.318774
448.804485	9.331209
449.237569	9.332816
449.670638	9.328177
450.103694	9.320419
450.536735	9.307223
450.969762	9.293076
451.402774	9.285045
451.835773	9.279308
452.268757	9.267699
452.701727	9.256810
453.134683	9.263270
453.567624	9.243843
454.000551	9.246257
454.433464	9.242888
454.866362	9.250069
455.299246	9.242975
455.732116	9.247535
456.164971	9.242572
456.597811	9.240809
457.030638	9.225882
457.463449	9.221474
457.896246	9.213823
458.329029	9.201279
458.761797	9.199466
459.194551	9.180497
459.627290	9.176270
460.060014	9.157770
460.492724	9.160043
460.925419	9.158131
461.358099	9.156023
461.790765	9.148028
462.223416	9.134500
462.656052	9.125530
463.088674	9.122638
463.521281	9.112272
463.953873	9.108522
464.386450	9.100445
464.819012	9.094059
465.251560	9.099571
465.684093	9.104119
466.116611	9.115786
466.549114	9.128526
466.981602	9.145625
467.414075	9.159241
467.846533	9.177470
468.278977	9.192463
468.711405	9.215020
469.143818	9.235956
469.576216	9.251816
470.008600	9.266935
470.440968	9.286281
470.873321	9.310302
471.305659	9.322579
471.737982	9.335767
472.170289	9.349021
472.602582	9.362535
473.034859	9.375600
473.467122	9.393766
473.899369	9.403517
474.331600	9.411233
474.763817	9.419235
475.196018	9.426904
475.628204	9.441147
476.060375	9.452459
476.492530	9.463975
476.924670	9.478700
477.356795	9.484686
477.788904	9.494816
478.220998	9.502525
478.653076	9.502236
479.085139	9.511712
479.517186	9.515732
479.949219	9.521091
480.381235	9.534240
480.813236	9.540470
481.245221	9.550535
481.677191	9.575162
482.109146	9.590422
482.541084	9.600404
482.973008	9.624982
483.404915	9.653798
483.836807	9.687741
484.268683	9.721462
484.700544	9.767233
485.132388	9.810278
485.564217	9.844753
485.996031	9.888110
486.427828	9.927760
486.859610	9.968794
487.291376	10.018512
487.723126	10.065778
488.154860	10.116745
488.586579	10.181521
489.018281	10.241006
489.449968	10.307578
489.881639	10.383254
490.313293	10.469466
490.744932	10.566354
491.176555	10.672035
491.608162	10.781993
492.039753	10.904300
492.471328	11.020283
492.902886	11.140123
493.334429	11.260717
493.765956	11.365757
494.197466	11.479923
494.628960	11.590440
495.060439	11.689499
495.491901	11.797103
495.923347	11.912795
496.354776	12.031602
496.786190	12.147552
497.217587	12.260409
497.648968	12.373063
498.080332	12.488539
498.511681	12.610537
498.943013	12.728367
499.374328	12.853579
499.805628	12.980126
500.236911	13.101904
500.668177	13.206428
501.099427	13.321136
501.530661	13.420291
501.961878	13.516612
502.393079	13.617097
502.824264	13.706129
503.255431	13.791328
503.686583	13.867179
504.117717	13.948461
504.548835	14.026430
504.979937	14.111303
505.411022	14.199027
505.842090	14.286221
506.273142	14.374854
506.704177	14.472360
507.135195	14.576412
507.566197	14.680308
507.997182	14.789563
508.428150	14.892471
508.859102	14.994369
509.290036	15.084237
509.720954	15.158220
510.151855	15.234463
510.582739	15.305241
511.013607	15.371650
511.444457	15.436667
511.875291	15.492884
512.306107	15.563311
512.736907	15.630549
513.167690	15.704521
513.598456	15.786676
514.029205	15.884952
514.459936	15.982804
514.890651	16.097720
515.321349	16.214289
515.752030	16.332210
516.182693	16.467702
516.613340	16.606847
517.043969	16.743491
517.474582	16.881932
517.905177	17.021216
518.335755	17.149739
518.766315	17.267264
519.196859	17.392377
519.627385	17.522358
520.057894	17.641654
520.488386	17.770931
520.918860	17.894843
521.349318	18.022548
521.779757	18.166743
522.210180	18.318818
522.640585	18.493543
523.070973	18.672403
523.501343	18.866612
523.931696	19.081160
524.362031	19.300556
524.792349	19.530902
525.222650	19.767838
525.652933	20.000388
526.083198	20.237559
526.513446	20.477401
526.943677	20.711094
527.373890	20.937902
527.804085	21.162044
528.234262	21.374689
528.664422	21.587113
529.094565	21.799624
529.524689	22.007429
529.954796	22.214006
530.384885	22.429876
530.814957	22.654910
531.245011	22.884237
531.675047	23.145786
532.105065	23.425047
532.535065	23.726858
532.965048	24.050154
533.395013	24.411474
533.824959	24.796597
534.254888	25.226310
534.684799	25.709244
535.114693	26.209066
535.544568	26.726399
535.974425	27.267603
536.404264	27.858504
536.834086	28.467768
537.263889	29.102429
537.693674	29.771078
538.123441	30.454018
538.553190	31.168527
538.982921	31.914935
539.412634	32.679382
539.842329	33.458387
540.272006	34.265186
540.701664	35.092837
541.131304	35.946559
541.560926	36.832300
541.990530	37.726601
542.420116	38.627637
542.849683	39.550956
543.279232	40.488446
543.708763	41.443649
544.138275	42.402551
544.567769	43.372980
544.997245	44.339720
545.426702	45.304926
545.856141	46.277300
546.285562	47.247923
546.714964	48.216550
547.144347	49.192037
547.573713	50.155622
548.003059	51.102196
548.432387	52.045887
548.861697	52.989793
549.290988	53.942146
549.720260	54.874654
550.149514	55.814163
550.578750	56.749479
551.007966	57.678053
551.437164	58.609650
551.866344	59.557928
552.295504	60.496371
552.724646	61.447059
553.153769	62.395407
553.582874	63.360096
554.011960	64.341411
554.441027	65.310027
554.870075	66.265369
555.299104	67.224050
555.728115	68.189420
556.157106	69.147406
556.586079	70.070811
557.015033	70.981750
557.443968	71.874989
557.872884	72.749686
558.301781	73.596685
558.730659	74.443195
559.159518	75.256468
559.588358	76.070254
560.017180	76.835902
560.445982	77.581773
560.874765	78.309713
561.303528	79.019545
561.732273	79.704424
562.160999	80.376518
562.589705	81.017974
563.018393	81.636335
563.447061	82.238920
563.875710	82.806371
564.304340	83.373368
564.732950	83.912029
565.161542	84.430901
565.590114	84.958913
566.018666	85.450871
566.447200	85.934342
566.875714	86.404108
567.304208	86.844229
567.732684	87.279998
568.161140	87.704188
568.589576	88.104318
569.017993	88.496193
569.446391	88.853807
569.874769	89.231395
570.303128	89.571799
570.731467	89.901036
571.159787	90.237926
571.588087	90.553301
572.016368	90.862334
572.444629	91.152201
572.872870	91.431951
573.301092	91.730512
573.729294	92.010132
574.157476	92.279415
574.585639	92.551287
575.013782	92.820595
575.441906	93.090412
575.870009	93.345202
576.298093	93.601052
576.726157	93.844023
577.154202	94.088183
577.582226	94.314388
578.010231	94.544801
578.438216	94.770109
578.866181	94.975214
579.294126	95.185794
579.722051	95.419067
580.149957	95.635748
580.577842	95.858846
581.005707	96.082340
581.433553	96.288838
581.861378	96.531080
582.289184	96.765484
582.716969	96.999306
583.144734	97.219055
583.572479	97.472260
584.000205	97.722192
584.427910	97.974398
584.855594	98.218951
585.283259	98.461819
585.710904	98.697793
586.138528	98.925986
586.566132	99.141195
586.993716	99.357335
587.421280	99.567642
587.848823	99.763361
588.276346	99.952447
588.703849	100.118320
589.131332	100.292080
589.558794	100.440328
589.986236	100.570739
590.413657	100.684884
590.841058	100.787371
591.268438	100.867873
591.695799	100.913011
592.123138	100.966074
592.550458	101.014511
592.977756	101.031474
593.405034	101.034519
593.832292	101.037188
594.259529	101.009434
594.686746	100.994707
595.113942	100.964966
595.541117	100.917532
595.968272	100.879437
596.395406	100.860305
596.822519	100.810091
597.249612	100.773894
597.676684	100.719087
598.103735	100.688240
598.530766	100.646952
598.957775	100.646739
599.384764	100.637201
599.811733	100.631185
600.238680	100.639694
600.665606	100.663493
601.092512	100.673324
601.519397	100.687297
601.946261	100.729445
602.373104	100.764062
602.799926	100.826823
603.226727	100.869213
603.653507	100.933571
604.080266	101.010500
604.507004	101.092491
604.933721	101.208956
605.360417	101.303630
605.787092	101.392911
606.213746	101.468333
606.640379	101.553344
607.066991	101.627105
607.493581	101.703305
607.920150	101.771331
608.346699	101.817528
608.773226	101.874442
609.199731	101.905368
609.626216	101.910424
610.052679	101.914451
610.479121	101.892595
610.905542	101.861043
611.331941	101.813111
611.758319	101.768698
612.184676	101.680990
612.611011	101.570458
613.037325	101.455426
613.463617	101.327025
613.889888	101.156911
614.316138	100.978651
614.742366	100.789716
615.168573	100.566938
615.594758	100.337909
616.020921	100.086218
616.447063	99.845663
616.873184	99.584757
617.299283	99.317777
617.725360	99.016629
618.151416	98.695089
618.577450	98.382664
619.003462	98.058494
619.429453	97.742921
619.855422	97.421697
620.281369	97.095923
620.707295	96.785285
621.133199	96.466126
621.559081	96.150845
621.984941	95.834851
622.410779	95.535292
622.836596	95.228892
623.262391	94.927232
623.688163	94.629419
624.113914	94.330096
624.539644	94.022376
624.965351	93.717230
625.391036	93.419975
625.816699	93.145298
626.242340	92.861771
626.667960	92.570635
627.093557	92.300530
627.519132	92.019757
627.944685	91.746935
628.370216	91.488629
628.795725	91.214524
629.221212	90.945484
629.646677	90.683784
630.072119	90.408261
630.497540	90.115514
630.922938	89.838565
631.348314	89.551367
631.773668	89.245343
632.198999	88.936218
632.624308	88.627958
633.049595	88.318428
633.474860	87.992300
633.900102	87.648451
634.325322	87.307266
634.750520	86.953753
635.175695	86.575053
635.600848	86.175604
636.025978	85.757889
636.451086	85.329995
636.876171	84.881033
637.301234	84.424884
637.726275	83.947307
638.151293	83.433068
638.576288	82.904242
639.001261	82.332585
639.426211	81.729887
639.851139	81.102941
640.276044	80.454750
640.700927	79.789590
641.125787	79.088735
641.550624	78.366746
641.975438	77.621885
642.400230	76.851317
642.824999	76.063203
643.249745	75.259235
643.674469	74.435529
644.099169	73.610975
644.523847	72.778035
644.948502	71.943150
645.373135	71.106807
645.797744	70.255104
646.222330	69.399233
646.646894	68.557154
647.071435	67.733591
647.495953	66.909855
647.920447	66.096201
648.344919	65.301997
648.769368	64.524272
649.193794	63.776831
649.618197	63.038091
650.042576	62.331881
650.466933	61.651997
650.891267	60.993760
651.315577	60.377966
651.739864	59.780391
652.164129	59.226917
652.588370	58.699676
653.012587	58.202463
653.436782	57.713500
653.860953	57.259575
654.285102	56.839074
654.709226	56.435309
655.133328	56.057523
655.557406	55.710724
655.981461	55.376664
656.405493	55.073786
656.829501	54.794951
657.253486	54.538286
657.677448	54.294145
658.101386	54.078528
658.525301	53.881758
658.949192	53.715429
659.373060	53.559844
659.796904	53.418931
660.220725	53.290193
660.644522	53.188513
661.068296	53.102496
661.492046	53.020083
661.915772	52.963788
662.339475	52.918462
662.763154	52.886843
663.186810	52.866141
663.610442	52.850822
664.034050	52.850348
664.457635	52.863505
664.881196	52.893806
665.304733	52.935870
665.728247	53.005554
666.151736	53.078051
666.575202	53.184353
666.998644	53.299437
667.422062	53.431898
667.845457	53.575110
668.268827	53.744839
668.692174	53.924739
669.115496	54.130409
669.538795	54.344549
669.962070	54.591395
670.385321	54.863218
670.808547	55.146654
671.231750	55.441421
671.654929	55.758944
672.078084	56.081318
672.501214	56.430269
672.924321	56.797861
673.347404	57.185970
673.770462	57.565040
674.193496	57.964267
674.616506	58.380400
675.039492	58.794841
675.462454	59.216437
675.885391	59.640804
676.308305	60.070030
676.731194	60.505695
677.154058	60.944336
677.576899	61.371038
677.999715	61.791375
678.422507	62.208760
678.845274	62.617402
679.268017	63.021817
679.690736	63.409466
680.113430	63.797344
680.536100	64.175085
680.958746	64.547764
681.381367	64.898381
681.803963	65.229679
682.226535	65.546376
682.649083	65.854537
683.071605	66.133461
683.494104	66.397536
683.916578	66.660561
684.339027	66.902637
684.761451	67.120065
685.183851	67.321901
685.606227	67.515673
686.028577	67.701904
686.450903	67.873564
686.873204	68.043533
687.295481	68.201451
687.717733	68.351503
688.139959	68.492694
688.562162	68.610229
688.984339	68.728920
689.406492	68.833527
689.828619	68.922763
690.250722	69.009506
690.672800	69.083777
691.094853	69.151217
691.516881	69.197131
691.938884	69.223810
692.360863	69.234901
692.782816	69.230730
693.204744	69.219235
693.626647	69.186667
694.048526	69.130832
694.470379	69.078394
694.892207	69.018007
695.314010	68.939126
695.735788	68.847117
696.157540	68.746689
696.579268	68.633302
697.000970	68.502896
697.422648	68.361609
697.844300	68.219079
698.265926	68.076690
698.687528	67.910284
699.109104	67.736336
699.530655	67.544012
699.952181	67.339437
700.373681	67.115083
700.795156	66.878454
701.216606	66.631155
701.638030	66.395528
702.059429	66.151155
702.480803	65.907062
702.902151	65.651361
703.323473	65.391341
703.744770	65.126507
704.166042	64.856558
704.587288	64.604403
705.008509	64.353101
705.429704	64.118620
705.850873	63.900757
706.272017	63.672942
706.693135	63.461793
707.114228	63.268652
707.535295	63.079584
707.956336	62.905697
708.377352	62.746754
708.798342	62.607226
709.219306	62.487782
709.640245	62.385374
710.061157	62.295239
710.482044	62.229071
710.902905	62.180559
711.323741	62.144488
711.744550	62.147863
712.165334	62.160519
712.586092	62.192023
713.006823	62.251117
713.427529	62.334028
713.848209	62.420814
714.268863	62.527818
714.689492	62.636082
715.110094	62.749220
715.530670	62.872370
715.951220	63.011669
716.371744	63.153835
716.792242	63.309130
717.212714	63.466046
717.633159	63.619608
718.053579	63.782774
718.473973	63.952160
718.894340	64.121166
719.314681	64.292503
719.734996	64.466596
720.155285	64.634950
720.575547	64.805479
720.995784	64.964647
721.415994	65.120409
721.836177	65.273639
722.256335	65.414819
722.676466	65.554787
723.096570	65.693140
723.516649	65.811486
723.936701	65.934706
724.356726	66.041288
724.776725	66.130361
725.196698	66.217888
725.616644	66.279046
726.036564	66.325545
726.456457	66.351801
726.876324	66.385790
727.296164	66.404606
727.715977	66.417746
728.135764	66.430487
728.555525	66.424927
728.975258	66.408441
729.394966	66.389823
729.814646	66.367274
730.234300	66.348630
730.653927	66.315995
731.073527	66.284211
731.493101	66.250474
731.912648	66.200449
732.332168	66.168530
732.751661	66.140599
733.171128	66.120256
733.590568	66.105936
734.009980	66.102425
734.429366	66.108150
734.848726	66.115965
735.268058	66.137048
735.687363	66.154345
736.106641	66.191689
736.525893	66.251160
736.945117	66.299392
737.364314	66.370836
737.783485	66.444944
738.202628	66.526927
738.621744	66.631998
739.040834	66.756380
739.459896	66.898590
739.878931	67.038762
740.297939	67.193318
740.716919	67.359671
741.135873	67.529315
741.554799	67.703696
741.973698	67.886761
742.392570	68.075230
742.811415	68.268745
743.230232	68.453576
743.649022	68.658507
744.067785	68.859531
744.486521	69.039643
744.905229	69.223965
745.323909	69.404605
745.742563	69.564028
746.161189	69.721413
746.579787	69.859799
746.998358	69.995847
747.416902	70.132844
747.835418	70.262902
748.253907	70.393237
748.672368	70.522712
749.090802	70.645030
749.509208	70.746661
749.927586	70.854392
750.345937	70.949466
750.764261	71.043434
751.182556	71.134355
751.600824	71.222519
752.019065	71.303357
752.437277	71.368348
752.855462	71.436801
753.273620	71.506374
753.691749	71.552712
754.109851	71.591514
754.527925	71.643601
754.945971	71.680004
755.363989	71.706540
755.781980	71.718701
756.199943	71.733117
756.617877	71.739543
757.035784	71.741846
757.453663	71.751820
757.871514	71.753044
758.289337	71.745701
758.707132	71.735228
759.124899	71.719042
759.542639	71.685011
759.960350	71.635712
760.378033	71.571121
760.795688	71.500135
761.213314	71.404356
761.630913	71.296969
762.048484	71.165092
762.466026	71.029265
762.883541	70.870419
763.301027	70.703871
763.718485	70.510040
764.135914	70.299021
764.553316	70.093927
764.970689	69.855665
765.388034	69.624340
765.805351	69.386284
766.222639	69.128390
766.639899	68.878229
767.057131	68.630255
767.474334	68.361166
767.891509	68.110928
768.308655	67.857420
768.725773	67.623555
769.142863	67.387950
769.559924	67.162268
769.976957	66.941008
770.393961	66.721681
770.810936	66.514385
771.227883	66.320150
771.644802	66.134415
772.061692	65.959694
772.478553	65.808195
772.895386	65.665956
773.312190	65.538975
773.728965	65.422107
774.145712	65.325863
774.562430	65.242960
774.979119	65.175982
775.395780	65.131886
775.812411	65.104440
776.229014	65.091493
776.645589	65.102460
777.062134	65.136956
777.478651	65.173928
777.895138	65.237230
778.311597	65.315710
778.728027	65.400494
779.144428	65.505551
779.560800	65.628862
779.977143	65.751271
780.393458	65.896938
780.809743	66.039319
781.225999	66.201419
781.642226	66.360908
782.058425	66.534264
782.474594	66.703215
782.890734	66.876207
783.306845	67.053647
783.722926	67.244280
784.138979	67.417696
784.555003	67.593792
784.970997	67.772707
785.386962	67.953060
785.802898	68.135884
786.218805	68.303462
786.634682	68.467978
787.050531	68.631415
787.466349	68.793414
787.882139	68.952603
788.297899	69.091241
788.713630	69.239246
789.129332	69.354210
789.545004	69.471271
789.960647	69.573184
790.376260	69.670013
790.791844	69.755976
791.207399	69.827067
791.622924	69.911944
792.038419	69.979839
792.453885	70.038841
792.869321	70.095354
793.284728	70.133462
793.700106	70.179170
794.115453	70.217716
794.530771	70.244196
794.946060	70.274915
795.361319	70.288091
795.776548	70.296265
796.191747	70.305144
796.606917	70.297884
797.022057	70.294777
797.437167	70.290888
797.852248	70.266450
798.267298	70.249934
798.682319	70.234258
799.097310	70.202749
799.512271	70.170314
799.927203	70.121467
800.342104	70.058388
800.756976	69.990736
801.171818	69.914387
801.586629	69.819005
802.001411	69.740498
802.416163	69.656274
802.830885	69.568275
803.245577	69.463011
803.660238	69.363253
804.074870	69.247882
804.489472	69.127906
804.904043	68.993485
805.318585	68.865915
805.733096	68.739188
806.147577	68.620987
806.562028	68.498577
806.976449	68.372923
807.390840	68.259862
807.805200	68.139251
808.219530	68.027611
808.633830	67.915148
809.048100	67.823925
809.462339	67.753560
809.876548	67.667102
810.290727	67.609531
810.704875	67.562941
811.118993	67.501626
811.533080	67.458310
811.947137	67.439669
812.361164	67.428432
812.775160	67.432412
813.189126	67.447588
813.603061	67.459096
814.016966	67.497911
814.430840	67.555217
814.844684	67.614095
815.258497	67.681677
815.672280	67.749259
816.086032	67.832530
816.499753	67.943286
816.913444	68.056412
817.327104	68.169556
817.740733	68.318521
818.154331	68.451717
818.567899	68.601449
818.981436	68.759360
819.394943	68.917668
819.808418	69.079280
820.221863	69.228700
820.635277	69.392315
821.048660	69.548199
821.462013	69.717690
821.875334	69.867970
822.288625	69.991621
822.701884	70.140493
823.115113	70.259285
823.528311	70.387816
823.941478	70.511925
824.354614	70.621325
824.767718	70.723005
825.180792	70.824784
825.593835	70.907158
826.006847	70.982133
826.419827	71.087513
826.832777	71.172164
827.245695	71.236928
827.658582	71.321265
828.071438	71.401327
828.484263	71.476874
828.897057	71.547470
829.309819	71.604435
829.722551	71.678613
830.135251	71.765195
830.547919	71.827223
830.960557	71.887018
831.373163	71.935766
831.785738	71.979910
832.198281	72.016741
832.610793	72.058327
833.023274	72.097525
833.435723	72.131776
833.848141	72.170561
834.260528	72.220168
834.672883	72.254052
835.085206	72.308331
835.497498	72.355301
835.909758	72.398436
836.321987	72.407347
836.734185	72.443105
837.146350	72.472767
837.558485	72.496265
837.970587	72.506475
838.382658	72.527731
838.794697	72.562814
839.206705	72.576216
839.618681	72.575830
840.030625	72.572050
840.442538	72.571865
840.854418	72.550880
841.266267	72.530831
841.678084	72.505088
842.089870	72.467315
842.501623	72.428129
842.913345	72.346866
843.325035	72.280898
843.736693	72.248815
844.148319	72.191600
844.559913	72.134466
844.971475	72.089496
845.383005	72.037523
845.794504	72.003118
846.205970	71.966897
846.617404	71.944827
847.028806	71.897131
847.440176	71.871289
847.851514	71.839142
848.262820	71.809299
848.674094	71.804138
849.085336	71.821847
849.496546	71.833222
849.907723	71.820688
850.318868	71.837847
850.729981	71.862838
851.141062	71.888422
851.552110	71.930499
851.963127	71.963490
852.374111	72.007185
852.785062	72.067664
853.195982	72.095989
853.606869	72.165460
854.017723	72.221811
854.428546	72.297931
854.839336	72.350464
855.250093	72.400594
855.660818	72.465201
856.071511	72.541487
856.482171	72.561168
856.892799	72.602559
857.303394	72.626059
857.713956	72.650163
858.124486	72.669339
858.534984	72.669014
858.945449	72.642339
859.355881	72.617376
859.766280	72.571674
860.176647	72.513758
860.586982	72.443833
860.997283	72.357258
861.407552	72.244852
861.817789	72.116149
862.227992	71.974546
862.638163	71.857986
863.048301	71.721507
863.458406	71.561052
863.868478	71.376748
864.278518	71.164078
864.688524	70.942356
865.098498	70.737952
865.508439	70.516572
865.918347	70.310047
866.328222	70.054550
866.738064	69.831882
867.147873	69.595194
867.557649	69.351436
867.967392	69.122533
868.377102	68.886120
868.786779	68.631949
869.196423	68.397754
869.606034	68.167575
870.015612	67.934329
870.425156	67.689465
870.834668	67.459365
871.244146	67.230012
871.653591	66.995575
872.063003	66.768747
872.472382	66.559531
872.881728	66.350881
873.291040	66.151661
873.700319	65.927365
874.109564	65.699236
874.518777	65.469076
874.927956	65.242593
875.337102	65.015738
875.746214	64.764468
876.155293	64.525039
876.564338	64.290973
876.973350	64.069398
877.382329	63.850581
877.791274	63.570517
878.200186	63.313498
878.609064	63.058674
879.017909	62.829915
879.426720	62.554424
879.835497	62.288565
880.244241	62.035972
880.652952	61.784660
881.061629	61.531404
881.470272	61.275915
881.878881	61.045333
882.287457	60.807525
882.695999	60.561743
883.104507	60.328891
883.512982	60.082869
883.921423	59.854169
884.329830	59.652093
884.738203	59.431055
885.146543	59.239495
885.554849	59.052376
885.963120	58.863063
886.371358	58.687615
886.779563	58.529762
887.187733	58.406558
887.595869	58.270396
888.003971	58.121091
888.412040	58.004628
888.820074	57.887195
889.228074	57.792116
889.636041	57.686470
890.043973	57.577075
890.451871	57.513854
890.859736	57.452526
891.267566	57.362994
891.675362	57.292137
892.083124	57.241405
892.490851	57.159595
892.898545	57.084923
893.306204	57.006392
893.713829	56.941983
894.121420	56.891852
894.528977	56.792931
894.936499	56.710500
895.343987	56.644874
895.751441	56.550072
896.158860	56.482261
896.566246	56.379495
896.973596	56.285154
897.380913	56.194587
897.788195	56.060822
898.195442	55.902817
898.602655	55.767910
899.009834	55.630090
899.416978	55.466279
899.824088	55.288468
900.231163	55.117555
900.638204	54.970642
901.045210	54.774214
901.452181	54.586941
901.859118	54.394826
902.266021	54.178150
902.672888	53.997121
903.079721	53.822360
903.486520	53.586085
903.893283	53.370854
904.300012	53.130923
904.706707	52.920123
905.113366	52.733182
905.519991	52.523311
905.926581	52.346287
906.333136	52.150822
906.739656	51.936149
907.146142	51.778605
907.552592	51.581151
907.959008	51.417779
908.365389	51.260823
908.771735	51.063340
909.178046	50.903557
909.584322	50.734396
909.990563	50.549099
910.396769	50.388886
910.802940	50.263393
911.209076	50.109084
911.615177	49.979508
912.021243	49.865965
912.427274	49.726195
912.833270	49.606696
913.239231	49.460702
913.645156	49.349895
914.051046	49.241851
914.456902	49.107996
914.862721	48.993635
915.268506	48.864903
915.674256	48.723793
916.079970	48.581953
916.485649	48.487779
916.891292	48.353555
917.296901	48.215811
917.702474	48.075259
918.108011	47.949932
918.513514	47.772739
918.918980	47.644216
919.324412	47.492710
919.729808	47.291511
920.135169	47.135017
920.540494	46.946099
920.945783	46.770109
921.351037	46.626156
921.756256	46.462891
922.161439	46.273189
922.566586	46.103320
922.971698	45.892314
923.376775	45.700100
923.781815	45.508400
924.186820	45.291868
924.591790	45.074081
924.996723	44.879698
925.401621	44.654785
925.806484	44.434255
926.211310	44.200190
926.616101	43.958555
927.020856	43.740631
927.425575	43.508035
927.830259	43.282737
928.234906	43.080646
928.639518	42.886201
929.044094	42.660926
929.448634	42.472123
929.853138	42.260323
930.257606	42.070094
930.662038	41.871452
931.066434	41.686965
931.470795	41.485561
931.875119	41.302340
932.279407	41.177091
932.683659	41.008113
933.087875	40.863693
933.492055	40.725282
933.896199	40.564360
934.300307	40.410979
934.704379	40.307175
935.108414	40.190680
935.512414	40.126701
935.916377	40.024146
936.320304	39.925854
936.724195	39.876122
937.128049	39.823560
937.531867	39.757170
937.935649	39.685666
938.339395	39.637830
938.743104	39.584997
939.146777	39.529820
939.550414	39.483404
939.954014	39.440414
940.357578	39.383255
940.761105	39.305672
941.164596	39.229577
941.568050	39.137945
941.971468	39.054080
942.374850	38.994938
942.778195	38.914597
943.181503	38.816036
943.584775	38.683150
943.988010	38.570798
944.391209	38.444317
944.794371	38.278758
945.197496	38.162884
945.600585	37.997573
946.003637	37.835863
946.406653	37.673394
946.809632	37.536664
947.212574	37.342718
947.615479	37.161319
948.018347	36.966750
948.421179	36.770649
948.823974	36.584607
949.226732	36.337794
949.629453	36.119325
950.032138	35.913628
950.434785	35.722699
950.837396	35.501552
951.239969	35.310452
951.642506	35.111286
952.045006	34.866403
952.447469	34.688445
952.849895	34.495136
953.252283	34.303738
953.654635	34.135504
954.056950	33.978402
954.459227	33.779672
954.861468	33.580457
955.263671	33.366574
955.665838	33.206738
956.067967	33.083234
956.470059	32.890312
956.872114	32.732316
957.274131	32.575869
957.676112	32.404112
958.078055	32.272863
958.479961	32.134188
958.881829	31.957140
959.283661	31.768061
959.685455	31.624216
960.087211	31.459597
960.488931	31.303227
960.890613	31.149869
961.292257	30.970538
961.693864	30.854550
962.095434	30.734571
962.496966	30.563583
962.898461	30.435665
963.299918	30.318548
963.701338	30.208589
964.102720	30.056381
964.504065	29.981362
964.905372	29.851639
965.306641	29.709752
965.707873	29.581932
966.109068	29.484966
966.510224	29.359237
966.911343	29.274315
967.312425	29.188156
967.713468	29.081499
968.114474	29.013290
968.515442	28.929365
968.916373	28.898801
969.317265	28.857168
969.718120	28.855760
970.118937	28.791621
970.519716	28.716933
970.920458	28.656724
971.321161	28.676246
971.721827	28.686826
972.122454	28.664402
972.523044	28.660584
972.923596	28.700367
973.324110	28.761692
973.724585	28.841169
974.125023	28.889436
974.525423	28.927366
974.925785	29.032680
975.326108	29.062229
975.726394	29.122088
976.126642	29.151929
976.526851	29.253912
976.927022	29.303841
977.327155	29.388023
977.727250	29.500308
978.127307	29.562957
978.527325	29.621219
978.927306	29.711975
979.327248	29.850719
979.727151	29.897990
980.127017	30.044071
980.526844	30.106626
980.926633	30.232376
981.326383	30.309558
981.726095	30.396489
982.125769	30.460234
982.525404	30.607666
982.925001	30.754034
983.324560	30.876640
983.724079	30.975150
984.123561	31.091386
984.523004	31.212300
984.922408	31.333396
985.321774	31.453477
985.721102	31.543657
986.120390	31.605068
986.519641	31.658908
986.918852	31.749905
987.318025	31.823146
987.717159	31.957376
988.116255	32.097394
988.515312	32.194887
988.914330	32.259885
989.313310	32.335002
989.712250	32.376648
990.111152	32.485645
990.510015	32.635739
990.908840	32.741767
991.307625	32.771659
991.706372	32.798804
992.105080	32.916281
992.503749	32.972878
992.902379	33.106023
993.300970	33.202437
993.699522	33.375849
994.098035	33.557742
994.496510	33.733757
994.894945	33.951807
995.293341	34.020767
995.691698	34.224835
996.090016	34.305958
996.488296	34.364284
996.886535	34.462667
997.284736	34.677104
997.682898	34.683020
998.081021	34.877332
998.479104	35.075786
998.877148	35.301983
999.275153	35.442057
999.673119	35.541183
1000.071046	35.765221
1000.468933	35.912183
1000.866781	36.080260
1001.264590	36.279661
1001.662359	36.621094
1002.060089	36.956324
1002.457780	37.192569
1002.855431	37.427792
1003.253043	37.880851
1003.650615	38.390484
1004.048148	38.806783
1004.445642	39.254126
1004.843096	39.619014
1005.240511	40.046651
1005.637886	40.260857
1006.035221	40.692591
1006.432517	41.016762
1006.829774	41.384318
1007.226991	41.665977
1007.624168	42.265416
1008.021306	42.464801
1008.418404	42.956429
1008.815462	43.543447
1009.212481	44.212550
1009.609460	44.778633
1010.006399	45.632224
1010.403298	46.239682
1010.800158	46.992422
1011.196978	47.672233
1011.593758	48.236526
1011.990498	49.251361
1012.387199	49.932776
1012.783860	50.446669
1013.180480	51.341020
1013.577061	52.379740
1013.973602	53.483190
1014.370103	54.240498
1014.766564	54.744992
1015.162985	55.385996
1015.559366	55.666193
1015.955708	56.151341
1016.352009	56.570824
1016.748270	57.014758
1017.144491	57.791240
1017.540671	58.076761
1017.936812	58.932376
1018.332913	59.267190
1018.728973	59.926564
1019.124994	60.513861
1019.520974	61.274866
1019.916914	61.836352
1020.312814	63.322619
