Time1=100ms:Average1=5:Objective=10X:Aperture=1: (11/28/2018 9:59:29 AM)
11/28/2018 9:59:29 AM
Reflectance
10X
Ap#: 1
Avg1: 5.000000
Avg2: 0.000000
Int.Time1:100.000000

350.166136	74.838058
350.601937	75.448790
351.037728	75.998932
351.473509	75.707170
351.909281	75.851918
352.345042	75.584835
352.780794	75.549969
353.216536	75.885314
353.652267	76.142819
354.087989	76.304858
354.523701	76.083828
354.959403	76.346604
355.395095	76.285047
355.830777	76.204144
356.266449	76.503221
356.702110	76.504837
357.137762	76.853348
357.573404	76.943028
358.009035	76.649701
358.444656	76.906590
358.880268	77.111449
359.315869	77.308825
359.751459	77.349440
360.187040	77.567014
360.622610	77.193448
361.058170	77.168345
361.493720	77.057158
361.929260	77.188798
362.364789	77.413076
362.800308	77.611146
363.235816	77.833259
363.671314	77.983778
364.106802	77.884359
364.542279	77.896787
364.977746	77.887935
365.413203	78.177139
365.848649	78.119445
366.284084	77.834869
366.719509	77.370193
367.154924	77.183049
367.590328	77.339466
368.025721	77.805310
368.461104	77.481051
368.896477	77.803284
369.331838	77.702285
369.767189	77.514845
370.202530	77.279152
370.637859	77.084799
371.073178	77.123552
371.508486	77.097029
371.943784	77.267146
372.379071	77.060524
372.814347	77.070902
373.249612	77.107482
373.684866	77.103906
374.120110	77.575652
374.555343	77.286239
374.990565	77.158336
375.425776	76.975975
375.860976	76.595188
376.296165	76.148701
376.731343	76.273830
377.166511	76.038697
377.601667	76.379997
378.036812	76.467024
378.471946	76.572912
378.907070	76.377000
379.342182	76.710435
379.777283	77.520790
380.212373	77.839335
380.647452	77.764330
381.082520	77.606277
381.517576	77.309548
381.952622	77.641469
382.387656	77.414638
382.822679	77.235142
383.257691	76.884164
383.692692	76.592112
384.127681	76.892805
384.562659	76.606838
384.997626	76.328338
385.432581	76.194532
385.867525	76.364568
386.302458	76.315116
386.737379	76.185620
387.172289	75.784829
387.607188	75.169262
388.042075	75.061269
388.476951	75.347105
388.911815	75.485787
389.346668	75.443188
389.781509	75.844595
390.216338	75.556492
390.651157	75.903614
391.085963	75.588359
391.520758	75.627633
391.955541	75.098549
392.390313	75.062909
392.825073	74.859821
393.259821	74.170636
393.694558	73.786893
394.129283	73.666694
394.563996	73.660528
394.998698	73.786569
395.433388	73.602420
395.868066	73.352661
396.302732	73.178685
396.737386	73.367846
397.172029	73.226798
397.606659	72.626950
398.041278	71.988183
398.475885	71.950777
398.910480	71.386925
399.345063	70.509035
399.779634	69.542260
400.214194	68.377894
400.648741	67.174945
401.083276	65.909838
401.517799	64.509476
401.952310	62.634603
402.386809	60.747509
402.821296	58.825398
403.255771	56.373929
403.690234	54.266418
404.124684	51.663182
404.559123	49.391349
404.993549	47.033746
405.427963	44.769227
405.862365	42.531931
406.296754	40.423173
406.731131	38.560709
407.165496	36.902096
407.599849	35.228571
408.034190	33.617176
408.468518	31.956197
408.902833	30.548208
409.337137	29.308145
409.771428	28.157753
410.205706	27.078957
410.639973	26.076546
411.074226	25.271602
411.508467	24.653823
411.942696	24.066070
412.376912	23.600764
412.811116	23.117020
413.245307	22.788094
413.679486	22.529339
414.113652	22.282882
414.547805	22.059957
414.981946	21.884765
415.416074	21.712037
415.850190	21.583697
416.284293	21.447798
416.718383	21.450661
417.152460	21.412087
417.586525	21.410919
418.020577	21.396859
418.454616	21.407279
418.888643	21.498965
419.322656	21.580510
419.756657	21.614116
420.190645	21.643325
420.624620	21.659521
421.058582	21.708916
421.492531	21.740595
421.926468	21.847999
422.360391	21.963287
422.794301	22.099684
423.228199	22.310286
423.662083	22.549461
424.095955	22.861670
424.529813	23.123691
424.963658	23.342959
425.397491	23.583340
425.831310	23.803690
426.265116	24.040331
426.698909	24.238847
427.132689	24.459196
427.566455	24.679469
428.000209	24.945945
428.433949	25.218522
428.867676	25.523883
429.301389	25.823257
429.735090	26.139956
430.168777	26.374332
430.602451	26.586681
431.036111	26.776710
431.469759	26.927890
431.903392	27.084150
432.337013	27.222495
432.770620	27.382475
433.204213	27.571871
433.637794	27.785807
434.071360	28.025902
434.504914	28.323986
434.938453	28.646769
435.371979	28.976183
435.805492	29.325282
436.238991	29.695180
436.672477	30.008958
437.105949	30.311430
437.539407	30.545883
437.972852	30.784381
438.406283	31.022292
438.839700	31.255671
439.273104	31.516134
439.706494	31.800126
440.139871	32.120042
440.573233	32.423240
441.006582	32.742421
441.439917	33.008900
441.873238	33.231561
442.306546	33.411820
442.739839	33.559829
443.173119	33.661883
443.606385	33.779510
444.039636	33.897080
444.472874	34.040482
444.906099	34.215675
445.339309	34.409431
445.772505	34.603797
446.205687	34.836362
446.638855	35.097610
447.072009	35.379953
447.505149	35.680052
447.938275	35.961636
448.371387	36.248277
448.804485	36.515448
449.237569	36.723892
449.670638	36.891689
450.103694	37.054384
450.536735	37.171622
450.969762	37.298356
451.402774	37.461831
451.835773	37.610184
452.268757	37.776058
452.701727	37.960512
453.134683	38.141104
453.567624	38.295950
454.000551	38.438411
454.433464	38.531912
454.866362	38.612310
455.299246	38.703184
455.732116	38.722188
456.164971	38.755684
456.597811	38.788684
457.030638	38.801999
457.463449	38.833006
457.896246	38.842110
458.329029	38.844002
458.761797	38.821863
459.194551	38.828097
459.627290	38.801181
460.060014	38.765196
460.492724	38.739630
460.925419	38.716207
461.358099	38.674048
461.790765	38.624349
462.223416	38.549608
462.656052	38.460368
463.088674	38.349541
463.521281	38.214122
463.953873	38.070924
464.386450	37.934892
464.819012	37.757654
465.251560	37.604205
465.684093	37.443049
466.116611	37.275121
466.549114	37.118967
466.981602	36.960855
467.414075	36.822399
467.846533	36.688908
468.278977	36.563957
468.711405	36.416290
469.143818	36.302504
469.576216	36.163603
470.008600	35.993692
470.440968	35.832177
470.873321	35.669902
471.305659	35.509858
471.737982	35.346191
472.170289	35.206114
472.602582	35.068118
473.034859	34.959983
473.467122	34.866123
473.899369	34.787834
474.331600	34.718940
474.763817	34.681044
475.196018	34.692571
475.628204	34.752331
476.060375	34.852467
476.492530	34.991783
476.924670	35.156539
477.356795	35.344436
477.788904	35.526473
478.220998	35.722336
478.653076	35.925703
479.085139	36.154469
479.517186	36.393948
479.949219	36.675402
480.381235	36.998983
480.813236	37.344224
481.245221	37.756709
481.677191	38.204552
482.109146	38.697554
482.541084	39.208870
482.973008	39.753055
483.404915	40.309668
483.836807	40.858714
484.268683	41.397645
484.700544	41.926333
485.132388	42.443425
485.564217	42.937329
485.996031	43.411238
486.427828	43.884500
486.859610	44.351109
487.291376	44.817286
487.723126	45.275813
488.154860	45.744688
488.586579	46.232302
489.018281	46.728625
489.449968	47.265998
489.881639	47.857640
490.313293	48.485265
490.744932	49.154047
491.176555	49.862162
491.608162	50.558850
492.039753	51.249503
492.471328	51.882713
492.902886	52.472182
493.334429	52.958296
493.765956	53.408201
494.197466	53.815326
494.628960	54.163095
495.060439	54.529187
495.491901	54.889981
495.923347	55.285898
496.354776	55.705042
496.786190	56.187923
497.217587	56.692997
497.648968	57.234152
498.080332	57.767809
498.511681	58.280729
498.943013	58.785458
499.374328	59.225941
499.805628	59.607505
500.236911	59.902757
500.668177	60.142933
501.099427	60.340387
501.530661	60.456303
501.961878	60.505912
502.393079	60.513873
502.824264	60.462086
503.255431	60.371081
503.686583	60.264322
504.117717	60.138591
504.548835	60.029150
504.979937	59.971277
505.411022	59.952026
505.842090	60.000581
506.273142	60.105920
506.704177	60.307025
507.135195	60.516293
507.566197	60.747183
507.997182	60.986817
508.428150	61.155321
508.859102	61.302175
509.290036	61.380311
509.720954	61.405623
510.151855	61.364854
510.582739	61.302339
511.013607	61.217099
511.444457	61.171682
511.875291	61.177898
512.306107	61.251085
512.736907	61.440609
513.167690	61.691282
513.598456	62.029746
514.029205	62.425273
514.459936	62.849463
514.890651	63.298730
515.321349	63.735345
515.752030	64.166469
516.182693	64.576727
516.613340	64.915277
517.043969	65.213834
517.474582	65.459054
517.905177	65.626958
518.335755	65.753205
518.766315	65.837166
519.196859	65.875807
519.627385	65.875611
520.057894	65.842918
520.488386	65.830629
520.918860	65.810942
521.349318	65.833357
521.779757	65.923141
522.210180	66.076065
522.640585	66.313011
523.070973	66.627996
523.501343	67.024237
523.931696	67.489635
524.362031	68.013532
524.792349	68.548034
525.222650	69.062304
525.652933	69.544105
526.083198	69.940463
526.513446	70.286208
526.943677	70.580255
527.373890	70.803989
527.804085	70.979565
528.234262	71.141725
528.664422	71.312238
529.094565	71.497364
529.524689	71.718530
529.954796	72.022024
530.384885	72.385195
530.814957	72.809342
531.245011	73.300199
531.675047	73.843568
532.105065	74.399330
532.535065	74.974943
532.965048	75.547201
533.395013	76.094412
533.824959	76.580956
534.254888	77.015173
534.684799	77.339846
535.114693	77.593898
535.544568	77.758889
535.974425	77.812678
536.404264	77.786171
536.834086	77.655028
537.263889	77.452873
537.693674	77.164369
538.123441	76.836320
538.553190	76.499988
538.982921	76.136598
539.412634	75.796833
539.842329	75.500675
540.272006	75.230118
540.701664	75.008999
541.131304	74.863478
541.560926	74.783265
541.990530	74.737050
542.420116	74.722545
542.849683	74.737163
543.279232	74.762511
543.708763	74.759572
544.138275	74.750982
544.567769	74.698684
544.997245	74.595492
545.426702	74.453188
545.856141	74.267577
546.285562	74.046896
546.714964	73.809764
547.144347	73.559639
547.573713	73.324226
548.003059	73.130970
548.432387	72.956661
548.861697	72.820617
549.290988	72.751210
549.720260	72.733164
550.149514	72.790433
550.578750	72.893125
551.007966	73.044592
551.437164	73.217839
551.866344	73.413543
552.295504	73.607683
552.724646	73.795649
553.153769	73.939345
553.582874	74.049196
554.011960	74.093914
554.441027	74.048600
554.870075	73.908184
555.299104	73.694084
555.728115	73.398027
556.157106	73.036034
556.586079	72.585790
557.015033	72.120369
557.443968	71.620929
557.872884	71.109089
558.301781	70.623810
558.730659	70.168778
559.159518	69.745313
559.588358	69.376078
560.017180	69.051724
560.445982	68.798980
560.874765	68.612407
561.303528	68.508418
561.732273	68.453683
562.160999	68.449764
562.589705	68.475603
563.018393	68.528630
563.447061	68.611876
563.875710	68.712100
564.304340	68.828671
564.732950	68.948316
565.161542	69.061801
565.590114	69.180478
566.018666	69.273438
566.447200	69.343542
566.875714	69.406833
567.304208	69.454057
567.732684	69.486004
568.161140	69.526761
568.589576	69.554987
569.017993	69.592570
569.446391	69.632792
569.874769	69.701530
570.303128	69.766884
570.731467	69.858629
571.159787	69.991074
571.588087	70.117154
572.016368	70.268506
572.444629	70.427986
572.872870	70.595311
573.301092	70.735988
573.729294	70.842711
574.157476	70.894263
574.585639	70.868578
575.013782	70.773237
575.441906	70.590673
575.870009	70.316799
576.298093	69.951311
576.726157	69.511063
577.154202	68.986317
577.582226	68.394464
578.010231	67.768751
578.438216	67.126358
578.866181	66.477538
579.294126	65.860007
579.722051	65.282075
580.149957	64.734744
580.577842	64.240289
581.005707	63.814748
581.433553	63.416531
581.861378	63.098131
582.289184	62.834974
582.716969	62.602789
583.144734	62.424921
583.572479	62.309556
584.000205	62.218851
584.427910	62.160320
584.855594	62.143815
585.283259	62.162423
585.710904	62.213855
586.138528	62.290054
586.566132	62.395030
586.993716	62.529477
587.421280	62.694476
587.848823	62.874262
588.276346	63.056658
588.703849	63.246738
589.131332	63.439388
589.558794	63.627741
589.986236	63.787180
590.413657	63.936092
590.841058	64.074692
591.268438	64.185986
591.695799	64.268845
592.123138	64.334937
592.550458	64.384430
592.977756	64.418000
593.405034	64.445271
593.832292	64.464488
594.259529	64.474198
594.686746	64.488528
595.113942	64.487257
595.541117	64.456396
595.968272	64.421352
596.395406	64.351895
596.822519	64.211667
597.249612	64.030435
597.676684	63.772122
598.103735	63.438049
598.530766	63.017227
598.957775	62.535590
599.384764	61.967406
599.811733	61.348185
600.238680	60.669938
600.665606	59.943612
601.092512	59.190072
601.519397	58.422505
601.946261	57.659702
602.373104	56.921503
602.799926	56.210966
603.226727	55.543551
603.653507	54.923884
604.080266	54.343572
604.507004	53.803499
604.933721	53.320738
605.360417	52.876093
605.787092	52.454097
606.213746	52.074292
606.640379	51.720905
607.066991	51.403700
607.493581	51.115449
607.920150	50.860716
608.346699	50.633839
608.773226	50.458600
609.199731	50.323212
609.626216	50.229277
610.052679	50.197338
610.479121	50.223827
610.905542	50.300093
611.331941	50.435574
611.758319	50.624394
612.184676	50.852969
612.611011	51.114775
613.037325	51.395255
613.463617	51.708755
613.889888	52.029920
614.316138	52.349967
614.742366	52.677594
615.168573	53.007218
615.594758	53.322893
616.020921	53.645716
616.447063	53.955238
616.873184	54.256860
617.299283	54.563381
617.725360	54.869907
618.151416	55.185781
618.577450	55.501237
619.003462	55.832421
619.429453	56.167983
619.855422	56.512527
620.281369	56.860140
620.707295	57.214773
621.133199	57.564650
621.559081	57.892660
621.984941	58.181109
622.410779	58.431068
622.836596	58.623122
623.262391	58.763363
623.688163	58.840567
624.113914	58.880424
624.539644	58.860082
624.965351	58.789401
625.391036	58.674754
625.816699	58.542199
626.242340	58.386747
626.667960	58.214545
627.093557	58.036925
627.519132	57.859114
627.944685	57.698694
628.370216	57.541510
628.795725	57.390404
629.221212	57.230746
629.646677	57.091874
630.072119	56.942443
630.497540	56.784664
630.922938	56.631845
631.348314	56.447937
631.773668	56.258410
632.198999	56.061684
632.624308	55.841829
633.049595	55.627541
633.474860	55.403981
633.900102	55.166316
634.325322	54.940984
634.750520	54.734574
635.175695	54.549639
635.600848	54.399652
636.025978	54.299089
636.451086	54.248917
636.876171	54.247429
637.301234	54.288343
637.726275	54.391278
638.151293	54.545450
638.576288	54.744885
639.001261	54.985718
639.426211	55.253448
639.851139	55.555974
640.276044	55.881742
640.700927	56.222269
641.125787	56.567842
641.550624	56.916124
641.975438	57.263646
642.400230	57.606149
642.824999	57.929128
643.249745	58.247651
643.674469	58.554564
644.099169	58.861152
644.523847	59.165227
644.948502	59.472719
645.373135	59.791109
645.797744	60.107052
646.222330	60.419838
646.646894	60.742084
647.071435	61.066845
647.495953	61.389541
647.920447	61.712243
648.344919	62.023596
648.769368	62.336923
649.193794	62.620837
649.618197	62.869765
650.042576	63.095083
650.466933	63.294077
650.891267	63.440112
651.315577	63.547158
651.739864	63.619301
652.164129	63.645847
652.588370	63.635379
653.012587	63.575899
653.436782	63.472973
653.860953	63.348915
654.285102	63.186787
654.709226	63.001096
655.133328	62.810202
655.557406	62.602895
655.981461	62.390752
656.405493	62.171492
656.829501	61.950927
657.253486	61.711960
657.677448	61.448777
658.101386	61.171888
658.525301	60.854991
658.949192	60.538633
659.373060	60.192089
659.796904	59.825581
660.220725	59.444464
660.644522	59.041618
661.068296	58.607282
661.492046	58.173818
661.915772	57.727163
662.339475	57.281016
662.763154	56.851706
663.186810	56.421557
663.610442	56.023407
664.034050	55.658599
664.457635	55.335011
664.881196	55.057815
665.304733	54.834237
665.728247	54.676386
666.151736	54.572192
666.575202	54.544164
666.998644	54.566408
667.422062	54.648442
667.845457	54.776450
668.268827	54.943178
668.692174	55.146291
669.115496	55.364683
669.538795	55.607622
669.962070	55.856825
670.385321	56.100121
670.808547	56.350027
671.231750	56.585589
671.654929	56.807161
672.078084	56.996729
672.501214	57.156148
672.924321	57.280562
673.347404	57.368603
673.770462	57.415410
674.193496	57.445190
674.616506	57.434929
675.039492	57.390342
675.462454	57.326635
675.885391	57.235457
676.308305	57.134383
676.731194	57.004080
677.154058	56.858821
677.576899	56.694210
677.999715	56.506087
678.422507	56.304135
678.845274	56.082424
679.268017	55.847276
679.690736	55.590068
680.113430	55.324578
680.536100	55.040483
680.958746	54.744634
681.381367	54.430736
681.803963	54.105508
682.226535	53.789976
682.649083	53.466075
683.071605	53.137834
683.494104	52.819003
683.916578	52.514428
684.339027	52.214301
684.761451	51.932073
685.183851	51.663840
685.606227	51.415311
686.028577	51.179960
686.450903	50.960139
686.873204	50.755013
687.295481	50.559764
687.717733	50.377454
688.139959	50.188935
688.562162	50.008942
688.984339	49.823081
689.406492	49.639803
689.828619	49.458579
690.250722	49.266078
690.672800	49.068269
691.094853	48.866218
691.516881	48.654769
691.938884	48.440443
692.360863	48.214854
692.782816	47.994505
693.204744	47.787448
693.626647	47.598405
694.048526	47.423544
694.470379	47.276147
694.892207	47.166180
695.314010	47.074958
695.735788	47.015976
696.157540	46.992169
696.579268	47.014674
697.000970	47.070484
697.422648	47.175110
697.844300	47.320829
698.265926	47.503021
698.687528	47.715762
699.109104	47.963383
699.530655	48.228784
699.952181	48.520358
700.373681	48.830681
700.795156	49.150453
701.216606	49.474415
701.638030	49.799981
702.059429	50.126828
702.480803	50.426679
702.902151	50.697515
703.323473	50.950640
703.744770	51.169005
704.166042	51.341458
704.587288	51.488028
705.008509	51.589234
705.429704	51.666296
705.850873	51.701803
706.272017	51.685547
706.693135	51.630571
707.114228	51.538030
707.535295	51.402827
707.956336	51.228445
708.377352	51.020803
708.798342	50.789733
709.219306	50.541340
709.640245	50.263593
710.061157	49.970400
710.482044	49.662474
710.902905	49.342606
711.323741	49.017867
711.744550	48.706155
712.165334	48.387462
712.586092	48.088877
713.006823	47.802975
713.427529	47.530263
713.848209	47.269769
714.268863	47.041852
714.689492	46.832290
715.110094	46.647914
715.530670	46.501068
715.951220	46.380045
716.371744	46.287922
716.792242	46.226504
717.212714	46.199207
717.633159	46.193020
718.053579	46.219806
718.473973	46.267288
718.894340	46.333249
719.314681	46.409297
719.734996	46.502846
720.155285	46.593264
720.575547	46.693754
720.995784	46.788178
721.415994	46.875902
721.836177	46.950536
722.256335	47.001830
722.676466	47.032073
723.096570	47.039004
723.516649	47.007247
723.936701	46.953851
724.356726	46.871020
724.776725	46.744664
725.196698	46.591534
725.616644	46.398939
726.036564	46.174370
726.456457	45.914901
726.876324	45.646871
727.296164	45.356127
727.715977	45.041352
728.135764	44.715493
728.555525	44.380604
728.975258	44.042374
729.394966	43.710972
729.814646	43.386691
730.234300	43.079234
730.653927	42.777057
731.073527	42.498828
731.493101	42.236398
731.912648	41.996218
732.332168	41.801532
732.751661	41.628850
733.171128	41.495844
733.590568	41.391449
734.009980	41.315529
734.429366	41.276207
734.848726	41.266931
735.268058	41.273440
735.687363	41.314826
736.106641	41.378868
736.525893	41.468558
736.945117	41.556939
737.364314	41.660266
737.783485	41.765761
738.202628	41.875755
738.621744	41.987930
739.040834	42.100731
739.459896	42.205201
739.878931	42.291073
740.297939	42.366142
740.716919	42.429575
741.135873	42.470840
741.554799	42.488044
741.973698	42.491693
742.392570	42.466608
742.811415	42.416200
743.230232	42.340255
743.649022	42.250612
744.067785	42.135602
744.486521	41.993465
744.905229	41.831363
745.323909	41.637752
745.742563	41.424952
746.161189	41.201633
746.579787	40.966657
746.998358	40.724306
747.416902	40.479691
747.835418	40.233851
748.253907	40.010165
748.672368	39.786348
749.090802	39.568588
749.509208	39.366655
749.927586	39.193857
750.345937	39.044699
750.764261	38.922068
751.182556	38.829023
751.600824	38.759948
752.019065	38.725175
752.437277	38.721595
752.855462	38.757146
753.273620	38.825582
753.691749	38.917008
754.109851	39.047922
754.527925	39.212947
754.945971	39.397247
755.363989	39.606706
755.781980	39.832293
756.199943	40.078345
756.617877	40.338980
757.035784	40.606425
757.453663	40.879354
757.871514	41.158630
758.289337	41.432403
758.707132	41.694491
759.124899	41.940111
759.542639	42.173060
759.960350	42.378534
760.378033	42.557133
760.795688	42.712616
761.213314	42.827342
761.630913	42.905391
762.048484	42.958333
762.466026	42.973270
762.883541	42.951985
763.301027	42.892383
763.718485	42.808481
764.135914	42.692268
764.553316	42.561042
764.970689	42.392567
765.388034	42.221206
765.805351	42.021859
766.222639	41.808749
766.639899	41.597721
767.057131	41.365306
767.474334	41.134018
767.891509	40.916103
768.308655	40.706147
768.725773	40.510319
769.142863	40.328177
769.559924	40.162464
769.976957	40.018237
770.393961	39.902757
770.810936	39.801666
771.227883	39.726252
771.644802	39.680142
772.061692	39.660593
772.478553	39.668635
772.895386	39.704527
773.312190	39.767121
773.728965	39.853691
774.145712	39.969295
774.562430	40.112747
774.979119	40.276930
775.395780	40.467700
775.812411	40.671130
776.229014	40.885117
776.645589	41.115140
777.062134	41.358323
777.478651	41.598849
777.895138	41.842117
778.311597	42.076540
778.728027	42.307657
779.144428	42.534145
779.560800	42.747516
779.977143	42.943938
780.393458	43.128204
780.809743	43.283530
781.225999	43.411322
781.642226	43.504189
782.058425	43.568171
782.474594	43.602765
782.890734	43.589200
783.306845	43.537119
783.722926	43.447146
784.138979	43.320189
784.555003	43.149689
784.970997	42.943465
785.386962	42.696956
785.802898	42.420292
786.218805	42.102171
786.634682	41.758116
787.050531	41.387599
787.466349	40.995348
787.882139	40.580433
788.297899	40.141285
788.713630	39.716317
789.129332	39.295838
789.545004	38.870813
789.960647	38.450095
790.376260	38.046731
790.791844	37.669512
791.207399	37.308832
791.622924	36.986591
792.038419	36.676368
792.453885	36.402209
792.869321	36.176088
793.284728	35.955078
793.700106	35.772573
794.115453	35.631129
794.530771	35.521988
794.946060	35.434090
795.361319	35.361813
795.776548	35.329564
796.191747	35.309398
796.606917	35.306446
797.022057	35.309580
797.437167	35.337971
797.852248	35.365188
798.267298	35.396732
798.682319	35.439465
799.097310	35.474265
799.512271	35.495121
799.927203	35.513834
800.342104	35.519935
800.756976	35.519585
801.171818	35.511197
801.586629	35.483633
802.001411	35.438954
802.416163	35.377540
802.830885	35.307805
803.245577	35.218407
803.660238	35.117554
804.074870	35.000666
804.489472	34.867705
804.904043	34.719828
805.318585	34.555271
805.733096	34.382165
806.147577	34.209739
806.562028	34.024805
806.976449	33.823615
807.390840	33.634768
807.805200	33.433360
808.219530	33.221768
808.633830	33.004231
809.048100	32.794050
809.462339	32.588743
809.876548	32.389295
810.290727	32.182394
810.704875	31.985902
811.118993	31.786628
811.533080	31.588038
811.947137	31.403329
812.361164	31.227158
812.775160	31.062182
813.189126	30.898195
813.603061	30.748191
814.016966	30.617610
814.430840	30.493429
814.844684	30.376783
815.258497	30.276443
815.672280	30.179224
816.086032	30.105012
816.499753	30.055562
816.913444	30.014893
817.327104	29.986443
817.740733	29.985078
818.154331	29.998229
818.567899	30.016750
818.981436	30.061390
819.394943	30.118455
819.808418	30.198980
820.221863	30.280719
820.635277	30.390746
821.048660	30.523455
821.462013	30.669019
821.875334	30.830425
822.288625	30.998443
822.701884	31.186857
823.115113	31.387180
823.528311	31.592989
823.941478	31.812569
824.354614	32.039710
824.767718	32.273533
825.180792	32.510790
825.593835	32.741532
826.006847	32.960698
826.419827	33.173315
826.832777	33.366456
827.245695	33.537292
827.658582	33.687413
828.071438	33.827792
828.484263	33.934632
828.897057	34.008217
829.309819	34.035925
829.722551	34.047613
830.135251	34.020846
830.547919	33.958660
830.960557	33.853168
831.373163	33.718144
831.785738	33.548762
832.198281	33.349360
832.610793	33.125099
833.023274	32.889983
833.435723	32.631596
833.848141	32.369439
834.260528	32.090487
834.672883	31.801982
835.085206	31.523945
835.497498	31.237634
835.909758	30.952883
836.321987	30.686752
836.734185	30.437617
837.146350	30.204019
837.558485	29.980576
837.970587	29.773871
838.382658	29.594184
838.794697	29.467549
839.206705	29.356669
839.618681	29.265365
840.030625	29.211065
840.442538	29.195716
840.854418	29.194530
841.266267	29.242372
841.678084	29.318913
842.089870	29.417941
842.501623	29.544112
842.913345	29.690964
843.325035	29.857317
843.736693	30.067290
844.148319	30.301330
844.559913	30.549464
844.971475	30.822349
845.383005	31.099132
845.794504	31.385774
846.205970	31.667366
846.617404	31.954215
847.028806	32.229785
847.440176	32.514751
847.851514	32.793517
848.262820	33.063686
848.674094	33.324927
849.085336	33.575677
849.496546	33.790707
849.907723	33.981306
850.318868	34.161527
850.729981	34.319281
851.141062	34.448330
851.552110	34.542597
851.963127	34.590158
852.374111	34.632648
852.785062	34.630831
853.195982	34.599460
853.606869	34.553024
854.017723	34.475677
854.428546	34.380381
854.839336	34.258725
855.250093	34.115661
855.660818	33.957741
856.071511	33.785373
856.482171	33.594486
856.892799	33.380801
857.303394	33.164288
857.713956	32.931657
858.124486	32.703277
858.534984	32.463749
858.945449	32.228299
859.355881	31.999893
859.766280	31.772220
860.176647	31.541221
860.586982	31.311009
860.997283	31.091042
861.407552	30.874402
861.817789	30.654869
862.227992	30.460601
862.638163	30.299187
863.048301	30.142729
863.458406	29.993425
863.868478	29.866324
864.278518	29.757437
864.688524	29.681533
865.098498	29.634231
865.508439	29.621259
865.918347	29.637689
866.328222	29.661841
866.738064	29.724372
867.147873	29.812835
867.557649	29.918628
867.967392	30.068252
868.377102	30.241345
868.786779	30.439643
869.196423	30.647148
869.606034	30.878766
870.015612	31.131527
870.425156	31.418600
870.834668	31.705111
871.244146	31.997655
871.653591	32.309077
872.063003	32.599544
872.472382	32.904471
872.881728	33.217180
873.291040	33.538816
873.700319	33.849671
874.109564	34.153085
874.518777	34.450456
874.927956	34.725914
875.337102	34.985368
875.746214	35.225757
876.155293	35.462686
876.564338	35.675071
876.973350	35.869029
877.382329	36.052513
877.791274	36.162733
878.200186	36.276242
878.609064	36.371631
879.017909	36.455529
879.426720	36.496136
879.835497	36.514488
880.244241	36.527187
880.652952	36.498373
881.061629	36.456417
881.470272	36.389588
881.878881	36.317419
882.287457	36.231731
882.695999	36.130231
883.104507	36.012189
883.512982	35.883701
883.921423	35.743407
884.329830	35.613770
884.738203	35.490817
885.146543	35.386936
885.554849	35.272653
885.963120	35.145989
886.371358	35.035529
886.779563	34.951786
887.187733	34.878475
887.595869	34.808625
888.003971	34.722012
888.412040	34.658842
888.820074	34.621193
889.228074	34.597900
889.636041	34.560438
890.043973	34.548082
890.451871	34.572212
890.859736	34.573894
891.267566	34.577909
891.675362	34.593478
892.083124	34.611635
892.490851	34.636566
892.898545	34.667573
893.306204	34.688960
893.713829	34.721456
894.121420	34.746989
894.528977	34.757408
894.936499	34.783669
895.343987	34.807145
895.751441	34.821077
896.158860	34.846054
896.566246	34.881479
896.973596	34.903424
897.380913	34.917652
897.788195	34.906436
898.195442	34.891355
898.602655	34.894794
899.009834	34.878242
899.416978	34.850042
899.824088	34.812567
900.231163	34.806059
900.638204	34.802243
901.045210	34.793772
901.452181	34.758612
901.859118	34.731980
902.266021	34.736642
902.672888	34.702084
903.079721	34.690922
903.486520	34.676541
903.893283	34.676291
904.300012	34.663252
904.706707	34.671102
905.113366	34.679819
905.519991	34.688127
905.926581	34.732361
906.333136	34.742607
906.739656	34.792624
907.146142	34.864041
907.552592	34.909408
907.959008	34.965847
908.365389	35.026667
908.771735	35.071267
909.178046	35.150397
909.584322	35.228555
909.990563	35.305883
910.396769	35.416536
910.802940	35.525070
911.209076	35.620335
911.615177	35.740297
912.021243	35.831344
912.427274	35.936990
912.833270	36.009140
913.239231	36.083059
913.645156	36.154277
914.051046	36.218646
914.456902	36.272524
914.862721	36.323918
915.268506	36.367285
915.674256	36.407131
916.079970	36.437614
916.485649	36.437904
916.891292	36.436990
917.296901	36.436061
917.702474	36.405644
918.108011	36.362370
918.513514	36.306426
918.918980	36.273507
919.324412	36.195548
919.729808	36.120682
920.135169	36.053195
920.540494	35.990186
920.945783	35.936625
921.351037	35.873127
921.756256	35.792817
922.161439	35.696548
922.566586	35.615877
922.971698	35.523494
923.376775	35.424223
923.781815	35.335911
924.186820	35.229124
924.591790	35.165942
924.996723	35.086586
925.401621	35.012147
925.806484	34.941811
926.211310	34.882928
926.616101	34.845289
927.020856	34.798675
927.425575	34.739715
927.830259	34.725928
928.234906	34.698824
928.639518	34.670648
929.044094	34.677200
929.448634	34.684672
929.853138	34.681185
930.257606	34.695671
930.662038	34.740895
931.066434	34.770521
931.470795	34.785994
931.875119	34.838336
932.279407	34.869124
932.683659	34.892876
933.087875	34.913880
933.492055	34.920993
933.896199	34.942590
934.300307	34.945644
934.704379	34.960605
935.108414	34.952305
935.512414	34.941432
935.916377	34.951070
936.320304	34.920969
936.724195	34.887178
937.128049	34.850837
937.531867	34.802932
937.935649	34.756304
938.339395	34.709748
938.743104	34.631370
939.146777	34.550067
939.550414	34.466927
939.954014	34.364329
940.357578	34.255519
940.761105	34.119984
941.164596	34.022984
941.568050	33.898775
941.971468	33.785590
942.374850	33.648368
942.778195	33.537596
943.181503	33.392979
943.584775	33.231436
943.988010	33.090711
944.391209	32.937474
944.794371	32.799669
945.197496	32.679778
945.600585	32.520339
946.003637	32.378400
946.406653	32.238922
946.809632	32.115263
947.212574	31.979049
947.615479	31.854743
948.018347	31.733568
948.421179	31.612863
948.823974	31.523804
949.226732	31.433535
949.629453	31.319444
950.032138	31.210249
950.434785	31.116651
950.837396	31.037617
951.239969	30.984029
951.642506	30.902686
952.045006	30.818128
952.447469	30.744547
952.849895	30.682895
953.252283	30.648694
953.654635	30.599863
954.056950	30.545502
954.459227	30.476061
954.861468	30.440360
955.263671	30.374517
955.665838	30.325888
956.067967	30.320607
956.470059	30.274333
956.872114	30.236690
957.274131	30.181682
957.676112	30.115848
958.078055	30.100273
958.479961	30.070737
958.881829	30.048552
959.283661	29.968820
959.685455	29.950467
960.087211	29.925416
960.488931	29.858862
960.890613	29.798955
961.292257	29.712641
961.693864	29.687516
962.095434	29.642097
962.496966	29.586677
962.898461	29.554401
963.299918	29.510969
963.701338	29.438321
964.102720	29.381682
964.504065	29.368667
964.905372	29.351836
965.306641	29.296253
965.707873	29.261274
966.109068	29.225348
966.510224	29.178168
966.911343	29.128200
967.312425	29.140503
967.713468	29.137040
968.114474	29.118798
968.515442	29.075429
968.916373	29.121202
969.317265	29.129484
969.718120	29.150167
970.118937	29.214786
970.519716	29.225203
970.920458	29.230315
971.321161	29.273413
971.721827	29.397506
972.122454	29.398224
972.523044	29.435920
972.923596	29.541336
973.324110	29.624412
973.724585	29.721191
974.125023	29.772542
974.525423	29.832079
974.925785	29.939591
975.326108	30.005383
975.726394	30.082774
976.126642	30.207396
976.526851	30.315552
976.927022	30.373324
977.327155	30.476656
977.727250	30.575724
978.127307	30.648610
978.527325	30.717713
978.927306	30.814648
979.327248	30.920277
979.727151	30.950632
980.127017	30.970890
980.526844	30.967723
980.926633	31.044858
981.326383	30.987713
981.726095	30.992798
982.125769	31.002172
982.525404	30.967905
982.925001	31.007419
983.324560	30.990447
983.724079	31.009741
984.123561	30.949323
984.523004	31.010848
984.922408	30.989774
985.321774	30.888798
985.721102	30.907528
986.120390	30.891955
986.519641	30.933807
986.918852	30.932961
987.318025	30.957518
987.717159	30.993707
988.116255	30.975749
988.515312	30.952044
988.914330	30.958722
989.313310	30.973373
989.712250	31.055367
990.111152	31.130986
990.510015	31.270471
990.908840	31.292375
991.307625	31.300345
991.706372	31.384962
992.105080	31.428277
992.503749	31.577284
992.902379	31.769076
993.300970	31.928949
993.699522	32.154781
994.098035	32.307191
994.496510	32.514820
994.894945	32.716867
995.293341	32.865468
995.691698	33.112207
996.090016	33.189479
996.488296	33.289370
996.886535	33.414321
997.284736	33.578911
997.682898	33.833188
998.081021	33.983226
998.479104	34.208256
998.877148	34.318079
999.275153	34.520244
999.673119	34.606653
1000.071046	34.733402
1000.468933	34.919538
1000.866781	35.065706
1001.264590	35.381906
1001.662359	35.520241
1002.060089	35.622708
1002.457780	35.728685
1002.855431	35.815400
1003.253043	35.987942
1003.650615	36.180888
1004.048148	36.484370
1004.445642	36.799220
1004.843096	37.019761
1005.240511	37.196589
1005.637886	37.398161
1006.035221	37.743519
1006.432517	38.053829
1006.829774	38.278477
1007.226991	38.530896
1007.624168	38.887238
1008.021306	39.162176
1008.418404	39.481422
1008.815462	40.000914
1009.212481	40.652847
1009.609460	41.159769
1010.006399	41.703458
1010.403298	42.209314
1010.800158	42.795924
1011.196978	43.295924
1011.593758	43.800287
1011.990498	44.657441
1012.387199	45.490150
1012.783860	46.063913
1013.180480	46.864788
1013.577061	47.289387
1013.973602	48.292811
1014.370103	49.222237
1014.766564	49.666146
1015.162985	50.119689
1015.559366	50.829777
1015.955708	51.591080
1016.352009	51.949197
1016.748270	52.269755
1017.144491	52.885093
1017.540671	53.500633
1017.936812	53.773691
1018.332913	54.080419
1018.728973	54.634085
1019.124994	55.361731
1019.520974	56.018586
1019.916914	56.464710
1020.312814	57.350702
