Time1=100ms:Average1=5:Objective=10X:Aperture=1: (11/28/2018 10:12:05 AM)
11/28/2018 10:12:05 AM
Reflectance
10X
Ap#: 1
Avg1: 5.000000
Avg2: 0.000000
Int.Time1:100.000000

350.166136	47.338247
350.601937	47.115142
351.037728	47.328113
351.473509	47.201988
351.909281	47.075065
352.345042	47.243064
352.780794	47.504798
353.216536	47.380410
353.652267	47.340332
354.087989	47.535520
354.523701	47.570939
354.959403	47.397068
355.395095	47.588396
355.830777	47.702214
356.266449	47.808413
356.702110	47.909315
357.137762	48.349996
357.573404	48.114885
358.009035	48.005343
358.444656	47.862180
358.880268	47.503796
359.315869	47.833052
359.751459	47.702739
360.187040	47.545519
360.622610	47.365601
361.058170	47.444733
361.493720	47.702173
361.929260	47.664553
362.364789	47.873861
362.800308	48.099688
363.235816	48.375644
363.671314	48.463042
364.106802	48.347842
364.542279	48.082046
364.977746	47.927208
365.413203	47.794118
365.848649	47.768332
366.284084	47.760666
366.719509	47.834942
367.154924	47.957371
367.590328	47.677414
368.025721	48.076923
368.461104	48.509317
368.896477	48.402753
369.331838	48.015140
369.767189	48.220235
370.202530	48.138088
370.637859	47.908979
371.073178	48.229002
371.508486	48.363732
371.943784	48.396628
372.379071	48.583840
372.814347	48.294466
373.249612	48.528131
373.684866	48.719289
374.120110	48.777942
374.555343	48.912287
374.990565	49.038630
375.425776	48.959972
375.860976	49.123572
376.296165	48.661183
376.731343	48.410544
377.166511	48.214911
377.601667	48.409708
378.036812	48.626972
378.471946	48.590078
378.907070	48.647941
379.342182	48.691873
379.777283	48.426087
380.212373	48.207482
380.647452	48.117769
381.082520	48.358542
381.517576	48.008602
381.952622	47.755665
382.387656	47.498055
382.822679	47.704280
383.257691	47.320114
383.692692	47.372529
384.127681	47.272884
384.562659	47.454844
384.997626	47.376144
385.432581	47.455724
385.867525	47.359352
386.302458	47.628493
386.737379	47.279759
387.172289	47.558677
387.607188	47.501500
388.042075	47.656183
388.476951	47.642235
388.911815	47.539871
389.346668	47.644866
389.781509	47.976341
390.216338	47.903989
390.651157	47.666864
391.085963	47.406037
391.520758	47.337378
391.955541	47.334791
392.390313	47.381232
392.825073	47.415749
393.259821	47.532054
393.694558	47.784572
394.129283	47.590814
394.563996	47.333778
394.998698	47.487145
395.433388	47.504850
395.868066	47.502368
396.302732	47.621979
396.737386	47.655068
397.172029	47.294271
397.606659	47.122811
398.041278	46.695489
398.475885	46.497119
398.910480	46.145071
399.345063	45.795667
399.779634	45.424862
400.214194	44.865415
400.648741	43.914425
401.083276	43.426654
401.517799	41.943493
401.952310	40.605343
402.386809	39.390482
402.821296	37.825761
403.255771	36.147277
403.690234	34.781992
404.124684	33.262859
404.559123	31.850229
404.993549	30.216624
405.427963	28.629690
405.862365	27.255739
406.296754	25.868142
406.731131	24.448837
407.165496	23.195723
407.599849	21.928664
408.034190	20.767097
408.468518	19.660168
408.902833	18.623751
409.337137	17.733709
409.771428	16.850943
410.205706	16.012225
410.639973	15.353799
411.074226	14.748069
411.508467	14.172318
411.942696	13.680443
412.376912	13.229914
412.811116	12.815412
413.245307	12.403912
413.679486	12.091297
414.113652	11.787464
414.547805	11.487292
414.981946	11.291772
415.416074	11.105816
415.850190	10.907775
416.284293	10.709631
416.718383	10.540025
417.152460	10.406031
417.586525	10.295511
418.020577	10.190334
418.454616	10.092323
418.888643	9.970549
419.322656	9.853364
419.756657	9.753384
420.190645	9.652610
420.624620	9.544285
421.058582	9.491511
421.492531	9.424789
421.926468	9.366140
422.360391	9.342689
422.794301	9.337538
423.228199	9.310485
423.662083	9.337205
424.095955	9.355604
424.529813	9.389440
424.963658	9.437867
425.397491	9.476315
425.831310	9.511591
426.265116	9.546869
426.698909	9.583772
427.132689	9.644845
427.566455	9.712875
428.000209	9.773003
428.433949	9.853133
428.867676	9.938717
429.301389	10.027654
429.735090	10.130288
430.168777	10.218581
430.602451	10.305099
431.036111	10.342185
431.469759	10.415523
431.903392	10.468469
432.337013	10.539663
432.770620	10.618452
433.204213	10.704954
433.637794	10.818225
434.071360	10.939502
434.504914	11.083571
434.938453	11.251795
435.371979	11.408598
435.805492	11.588495
436.238991	11.766971
436.672477	11.952088
437.105949	12.117860
437.539407	12.284557
437.972852	12.442521
438.406283	12.602308
438.839700	12.774578
439.273104	12.949273
439.706494	13.141846
440.139871	13.325293
440.573233	13.520358
441.006582	13.721308
441.439917	13.923604
441.873238	14.097418
442.306546	14.248263
442.739839	14.394127
443.173119	14.523641
443.606385	14.673788
444.039636	14.812546
444.472874	14.983578
444.906099	15.136799
445.339309	15.323965
445.772505	15.550881
446.205687	15.771407
446.638855	15.995567
447.072009	16.228857
447.505149	16.486089
447.938275	16.726560
448.371387	16.964731
448.804485	17.196487
449.237569	17.420081
449.670638	17.616783
450.103694	17.802118
450.536735	17.978087
450.969762	18.154663
451.402774	18.347143
451.835773	18.542932
452.268757	18.750646
452.701727	18.981600
453.134683	19.197959
453.567624	19.432518
454.000551	19.641587
454.433464	19.846976
454.866362	20.019821
455.299246	20.198111
455.732116	20.374381
456.164971	20.545473
456.597811	20.729177
457.030638	20.903693
457.463449	21.076024
457.896246	21.266378
458.329029	21.452418
458.761797	21.636804
459.194551	21.800244
459.627290	21.974194
460.060014	22.163508
460.492724	22.360083
460.925419	22.556812
461.358099	22.773472
461.790765	22.961575
462.223416	23.148522
462.656052	23.336779
463.088674	23.531137
463.521281	23.713064
463.953873	23.896907
464.386450	24.080106
464.819012	24.259714
465.251560	24.435019
465.684093	24.634342
466.116611	24.818176
466.549114	25.008477
466.981602	25.213620
467.414075	25.425305
467.846533	25.619491
468.278977	25.821190
468.711405	26.006703
469.143818	26.187789
469.576216	26.359392
470.008600	26.514328
470.440968	26.653225
470.873321	26.802883
471.305659	26.921688
471.737982	27.056218
472.170289	27.153088
472.602582	27.259921
473.034859	27.377519
473.467122	27.487231
473.899369	27.601230
474.331600	27.717218
474.763817	27.832574
475.196018	27.992921
475.628204	28.169933
476.060375	28.335419
476.492530	28.529286
476.924670	28.724668
477.356795	28.906744
477.788904	29.070362
478.220998	29.219416
478.653076	29.356260
479.085139	29.462840
479.517186	29.584378
479.949219	29.711319
480.381235	29.842866
480.813236	29.976609
481.245221	30.144648
481.677191	30.329210
482.109146	30.529745
482.541084	30.729313
482.973008	30.923147
483.404915	31.106787
483.836807	31.265080
484.268683	31.407103
484.700544	31.533368
485.132388	31.623663
485.564217	31.719920
485.996031	31.801252
486.427828	31.842126
486.859610	31.881694
487.291376	31.891446
487.723126	31.912573
488.154860	31.911120
488.586579	31.914192
489.018281	31.920133
489.449968	31.955287
489.881639	32.021635
490.313293	32.108360
490.744932	32.230837
491.176555	32.377496
491.608162	32.515111
492.039753	32.652034
492.471328	32.774547
492.902886	32.853106
493.334429	32.919796
493.765956	32.932187
494.197466	32.926849
494.628960	32.905158
495.060439	32.876320
495.491901	32.842632
495.923347	32.848606
496.354776	32.868160
496.786190	32.909580
497.217587	32.985419
497.648968	33.058465
498.080332	33.130799
498.511681	33.193717
498.943013	33.250091
499.374328	33.275502
499.805628	33.280645
500.236911	33.251102
500.668177	33.207363
501.099427	33.123496
501.530661	33.024109
501.961878	32.891979
502.393079	32.722757
502.824264	32.546378
503.255431	32.322155
503.686583	32.098317
504.117717	31.850498
504.548835	31.606196
504.979937	31.388305
505.411022	31.191869
505.842090	31.034560
506.273142	30.908865
506.704177	30.785017
507.135195	30.698050
507.566197	30.633670
507.997182	30.544557
508.428150	30.452673
508.859102	30.356545
509.290036	30.208936
509.720954	30.039374
510.151855	29.855698
510.582739	29.656452
511.013607	29.453958
511.444457	29.271974
511.875291	29.116234
512.306107	28.991731
512.736907	28.895154
513.167690	28.841193
513.598456	28.815324
514.029205	28.819997
514.459936	28.833677
514.890651	28.866298
515.321349	28.898002
515.752030	28.954189
516.182693	29.005432
516.613340	29.065597
517.043969	29.121547
517.474582	29.195320
517.905177	29.264253
518.335755	29.340985
518.766315	29.427228
519.196859	29.505915
519.627385	29.596534
520.057894	29.707452
520.488386	29.829999
520.918860	29.955760
521.349318	30.126650
521.779757	30.328452
522.210180	30.552645
522.640585	30.825879
523.070973	31.138717
523.501343	31.475860
523.931696	31.836628
524.362031	32.212018
524.792349	32.588566
525.222650	32.956255
525.652933	33.294997
526.083198	33.604266
526.513446	33.881165
526.943677	34.112241
527.373890	34.315372
527.804085	34.505516
528.234262	34.686339
528.664422	34.869777
529.094565	35.063804
529.524689	35.276074
529.954796	35.526558
530.384885	35.814235
530.814957	36.136435
531.245011	36.499800
531.675047	36.884202
532.105065	37.287762
532.535065	37.705840
532.965048	38.119322
533.395013	38.532948
533.824959	38.913230
534.254888	39.293360
534.684799	39.631788
535.114693	39.936325
535.544568	40.212728
535.974425	40.444134
536.404264	40.639388
536.834086	40.789100
537.263889	40.904383
537.693674	40.987885
538.123441	41.049284
538.553190	41.089392
538.982921	41.120051
539.412634	41.156779
539.842329	41.188687
540.272006	41.245625
540.701664	41.304577
541.131304	41.368725
541.560926	41.434550
541.990530	41.509266
542.420116	41.580302
542.849683	41.624619
543.279232	41.639977
543.708763	41.621087
544.138275	41.564231
544.567769	41.462752
544.997245	41.305204
545.426702	41.106463
545.856141	40.873372
546.285562	40.622945
546.714964	40.332940
547.144347	40.052420
547.573713	39.763036
548.003059	39.502502
548.432387	39.265750
548.861697	39.064517
549.290988	38.909953
549.720260	38.806412
550.149514	38.770919
550.578750	38.789288
551.007966	38.870587
551.437164	39.000233
551.866344	39.168397
552.295504	39.378360
552.724646	39.603814
553.153769	39.838986
553.582874	40.073213
554.011960	40.284654
554.441027	40.468626
554.870075	40.624432
555.299104	40.742997
555.728115	40.807671
556.157106	40.837873
556.586079	40.826526
557.015033	40.781047
557.443968	40.686940
557.872884	40.583643
558.301781	40.478640
558.730659	40.350423
559.159518	40.219984
559.588358	40.071273
560.017180	39.930849
560.445982	39.784737
560.874765	39.637377
561.303528	39.482593
561.732273	39.317190
562.160999	39.151288
562.589705	38.969586
563.018393	38.767003
563.447061	38.548657
563.875710	38.314781
564.304340	38.062809
564.732950	37.801774
565.161542	37.527616
565.590114	37.247843
566.018666	36.968525
566.447200	36.700367
566.875714	36.435679
567.304208	36.202690
567.732684	35.987234
568.161140	35.812155
568.589576	35.676299
569.017993	35.596952
569.446391	35.567565
569.874769	35.602480
570.303128	35.696412
570.731467	35.878709
571.159787	36.102096
571.588087	36.397360
572.016368	36.776309
572.444629	37.207383
572.872870	37.693012
573.301092	38.235466
573.729294	38.807899
574.157476	39.407098
574.585639	40.006192
575.013782	40.616253
575.441906	41.195529
575.870009	41.743302
576.298093	42.259231
576.726157	42.729624
577.154202	43.161371
577.582226	43.548655
578.010231	43.892320
578.438216	44.204031
578.866181	44.472817
579.294126	44.714602
579.722051	44.933978
580.149957	45.131935
580.577842	45.296840
581.005707	45.446383
581.433553	45.567751
581.861378	45.657275
582.289184	45.705922
582.716969	45.720497
583.144734	45.696406
583.572479	45.631160
584.000205	45.512598
584.427910	45.351356
584.855594	45.129562
585.283259	44.861611
585.710904	44.547101
586.138528	44.201269
586.566132	43.803158
586.993716	43.375881
587.421280	42.912254
587.848823	42.430574
588.276346	41.923603
588.703849	41.406053
589.131332	40.884127
589.558794	40.357702
589.986236	39.840732
590.413657	39.323347
590.841058	38.820658
591.268438	38.346277
591.695799	37.907804
592.123138	37.516126
592.550458	37.165171
592.977756	36.862122
593.405034	36.624429
593.832292	36.466756
594.259529	36.384568
594.686746	36.380909
595.113942	36.455288
595.541117	36.606445
595.968272	36.837868
596.395406	37.128619
596.822519	37.482651
597.249612	37.884177
597.676684	38.337188
598.103735	38.822829
598.530766	39.326956
598.957775	39.851219
599.384764	40.385424
599.811733	40.937929
600.238680	41.498106
600.665606	42.056621
601.092512	42.624828
601.519397	43.191618
601.946261	43.764227
602.373104	44.353565
602.799926	44.942676
603.226727	45.523827
603.653507	46.113809
604.080266	46.703319
604.507004	47.267774
604.933721	47.805792
605.360417	48.311357
605.787092	48.783108
606.213746	49.213062
606.640379	49.582143
607.066991	49.892484
607.493581	50.150116
607.920150	50.337784
608.346699	50.464462
608.773226	50.535370
609.199731	50.555099
609.626216	50.524334
610.052679	50.442317
610.479121	50.334033
610.905542	50.170708
611.331941	49.988488
611.758319	49.770920
612.184676	49.530541
612.611011	49.264850
613.037325	48.967570
613.463617	48.649231
613.889888	48.307463
614.316138	47.940835
614.742366	47.566288
615.168573	47.174628
615.594758	46.761537
616.020921	46.357639
616.447063	45.965426
616.873184	45.586788
617.299283	45.226738
617.725360	44.907956
618.151416	44.625190
618.577450	44.379349
619.003462	44.189180
619.429453	44.045659
619.855422	43.964987
620.281369	43.931633
620.707295	43.948310
621.133199	44.016895
621.559081	44.121813
621.984941	44.260763
622.410779	44.421323
622.836596	44.594619
623.262391	44.796294
623.688163	44.994268
624.113914	45.204624
624.539644	45.419398
624.965351	45.630984
625.391036	45.835198
625.816699	46.035450
626.242340	46.235320
626.667960	46.433754
627.093557	46.643294
627.519132	46.847337
627.944685	47.047315
628.370216	47.247674
628.795725	47.445705
629.221212	47.620638
629.646677	47.782385
630.072119	47.914286
630.497540	48.019684
630.922938	48.089229
631.348314	48.123126
631.773668	48.114319
632.198999	48.054209
632.624308	47.957172
633.049595	47.811720
633.474860	47.619796
633.900102	47.389062
634.325322	47.122620
634.750520	46.838381
635.175695	46.527372
635.600848	46.201099
636.025978	45.878269
636.451086	45.542727
636.876171	45.220837
637.301234	44.912913
637.726275	44.622178
638.151293	44.360387
638.576288	44.124938
639.001261	43.914807
639.426211	43.739541
639.851139	43.586384
640.276044	43.457692
640.700927	43.365920
641.125787	43.294453
641.550624	43.243633
641.975438	43.218956
642.400230	43.215278
642.824999	43.230856
643.249745	43.279270
643.674469	43.352893
644.099169	43.449461
644.523847	43.576494
644.948502	43.739078
645.373135	43.949441
645.797744	44.183041
646.222330	44.459253
646.646894	44.780402
647.071435	45.144171
647.495953	45.536884
647.920447	45.955949
648.344919	46.402967
648.769368	46.873226
649.193794	47.347455
649.618197	47.837170
650.042576	48.311606
650.466933	48.787026
650.891267	49.230066
651.315577	49.638575
651.739864	50.019029
652.164129	50.359710
652.588370	50.648454
653.012587	50.896705
653.436782	51.088506
653.860953	51.236865
654.285102	51.337253
654.709226	51.389116
655.133328	51.391142
655.557406	51.359019
655.981461	51.283930
656.405493	51.162908
656.829501	50.993910
657.253486	50.770106
657.677448	50.505195
658.101386	50.201823
658.525301	49.841819
658.949192	49.450949
659.373060	49.018415
659.796904	48.541255
660.220725	48.021471
660.644522	47.473981
661.068296	46.901084
661.492046	46.314470
661.915772	45.718294
662.339475	45.127554
662.763154	44.537556
663.186810	43.971853
663.610442	43.427493
664.034050	42.923312
664.457635	42.463163
664.881196	42.055983
665.304733	41.702810
665.728247	41.418197
666.151736	41.186059
666.575202	41.030373
666.998644	40.929265
667.422062	40.901508
667.845457	40.939296
668.268827	41.038271
668.692174	41.196554
669.115496	41.408600
669.538795	41.667562
669.962070	41.975880
670.385321	42.335723
670.808547	42.720158
671.231750	43.128035
671.654929	43.561904
672.078084	44.005251
672.501214	44.454990
672.924321	44.917505
673.347404	45.387972
673.770462	45.865695
674.193496	46.338712
674.616506	46.815159
675.039492	47.276557
675.462454	47.730181
675.885391	48.177831
676.308305	48.626860
676.731194	49.065397
677.154058	49.495762
677.576899	49.921714
677.999715	50.333527
678.422507	50.730314
678.845274	51.109782
679.268017	51.483880
679.690736	51.822797
680.113430	52.135800
680.536100	52.405380
680.958746	52.641200
681.381367	52.831038
681.803963	52.984727
682.226535	53.097546
682.649083	53.174784
683.071605	53.213053
683.494104	53.217800
683.916578	53.203757
684.339027	53.165965
684.761451	53.111039
685.183851	53.045653
685.606227	52.961937
686.028577	52.873931
686.450903	52.774034
686.873204	52.647100
687.295481	52.506197
687.717733	52.343813
688.139959	52.175497
688.562162	51.987773
688.984339	51.792569
689.406492	51.569351
689.828619	51.327779
690.250722	51.062550
690.672800	50.779947
691.094853	50.476951
691.516881	50.176311
691.938884	49.859120
692.360863	49.531106
692.782816	49.224138
693.204744	48.920183
693.626647	48.648109
694.048526	48.408606
694.470379	48.211998
694.892207	48.055254
695.314010	47.944768
695.735788	47.886744
696.157540	47.886875
696.579268	47.943368
697.000970	48.049644
697.422648	48.207783
697.844300	48.416051
698.265926	48.668012
698.687528	48.971341
699.109104	49.309839
699.530655	49.684180
699.952181	50.096613
700.373681	50.535012
700.795156	50.991120
701.216606	51.457565
701.638030	51.940886
702.059429	52.406305
702.480803	52.863654
702.902151	53.299224
703.323473	53.720653
703.744770	54.100527
704.166042	54.450322
704.587288	54.749377
705.008509	55.007686
705.429704	55.216561
705.850873	55.373940
706.272017	55.492811
706.693135	55.564461
707.114228	55.580560
707.535295	55.549245
707.956336	55.479708
708.377352	55.369285
708.798342	55.217761
709.219306	55.043091
709.640245	54.854448
710.061157	54.641320
710.482044	54.417297
710.902905	54.182343
711.323741	53.941974
711.744550	53.703450
712.165334	53.457314
712.586092	53.216332
713.006823	52.975167
713.427529	52.743497
713.848209	52.526146
714.268863	52.318919
714.689492	52.115768
715.110094	51.935054
715.530670	51.766217
715.951220	51.626108
716.371744	51.496898
716.792242	51.402084
717.212714	51.317209
717.633159	51.255652
718.053579	51.225317
718.473973	51.209044
718.894340	51.212412
719.314681	51.226109
719.734996	51.238822
720.155285	51.265003
720.575547	51.295743
720.995784	51.320940
721.415994	51.338769
721.836177	51.350266
722.256335	51.328469
722.676466	51.266112
723.096570	51.184554
723.516649	51.061168
723.936701	50.909253
724.356726	50.712999
724.776725	50.473290
725.196698	50.199998
725.616644	49.882300
726.036564	49.536479
726.456457	49.167196
726.876324	48.774597
727.296164	48.359444
727.715977	47.940303
728.135764	47.520822
728.555525	47.101608
728.975258	46.692511
729.394966	46.302961
729.814646	45.931118
730.234300	45.589047
730.653927	45.280133
731.073527	44.992744
731.493101	44.764045
731.912648	44.559171
732.332168	44.408405
732.751661	44.305246
733.171128	44.236356
733.590568	44.217379
734.009980	44.233953
734.429366	44.295418
734.848726	44.397442
735.268058	44.523960
735.687363	44.690049
736.106641	44.879405
736.525893	45.097241
736.945117	45.314796
737.364314	45.549997
737.783485	45.800761
738.202628	46.046383
738.621744	46.305570
739.040834	46.554204
739.459896	46.786637
739.878931	47.005112
740.297939	47.215584
740.716919	47.406557
741.135873	47.556802
741.554799	47.694056
741.973698	47.799073
742.392570	47.873285
742.811415	47.912918
743.230232	47.921623
743.649022	47.900246
744.067785	47.851599
744.486521	47.754314
744.905229	47.627544
745.323909	47.481056
745.742563	47.296606
746.161189	47.110178
746.579787	46.898938
746.998358	46.672064
747.416902	46.428913
747.835418	46.177658
748.253907	45.939826
748.672368	45.699026
749.090802	45.473135
749.509208	45.258410
749.927586	45.071659
750.345937	44.909016
750.764261	44.768229
751.182556	44.669504
751.600824	44.592440
752.019065	44.555926
752.437277	44.559234
752.855462	44.604776
753.273620	44.682429
753.691749	44.789052
754.109851	44.945424
754.527925	45.127300
754.945971	45.343777
755.363989	45.590158
755.781980	45.854166
756.199943	46.146981
756.617877	46.441568
757.035784	46.739024
757.453663	47.047724
757.871514	47.359163
758.289337	47.637091
758.707132	47.907932
759.124899	48.130707
759.542639	48.329732
759.960350	48.498578
760.378033	48.629792
760.795688	48.712557
761.213314	48.755734
761.630913	48.758474
762.048484	48.715706
762.466026	48.626766
762.883541	48.503685
763.301027	48.341261
763.718485	48.153149
764.135914	47.940324
764.553316	47.694968
764.970689	47.443730
765.388034	47.180472
765.805351	46.902256
766.222639	46.625285
766.639899	46.339160
767.057131	46.062228
767.474334	45.801560
767.891509	45.542536
768.308655	45.298798
768.725773	45.080849
769.142863	44.885174
769.559924	44.709159
769.976957	44.568101
770.393961	44.448583
770.810936	44.359644
771.227883	44.310829
771.644802	44.286969
772.061692	44.316782
772.478553	44.367050
772.895386	44.452198
773.312190	44.576207
773.728965	44.742924
774.145712	44.929010
774.562430	45.135160
774.979119	45.377558
775.395780	45.632784
775.812411	45.901709
776.229014	46.196020
776.645589	46.487102
777.062134	46.782640
777.478651	47.074300
777.895138	47.363332
778.311597	47.643785
778.728027	47.915222
779.144428	48.173881
779.560800	48.437372
779.977143	48.680752
780.393458	48.898177
780.809743	49.104566
781.225999	49.277260
781.642226	49.428851
782.058425	49.531881
782.474594	49.626344
782.890734	49.680112
783.306845	49.707862
783.722926	49.696940
784.138979	49.639243
784.555003	49.546400
784.970997	49.407525
785.386962	49.241565
785.802898	49.035418
786.218805	48.798621
786.634682	48.526974
787.050531	48.237811
787.466349	47.937363
787.882139	47.600357
788.297899	47.280478
788.713630	46.959379
789.129332	46.628399
789.545004	46.303066
789.960647	45.988031
790.376260	45.717065
790.791844	45.447869
791.207399	45.192887
791.622924	44.959753
792.038419	44.758610
792.453885	44.571548
792.869321	44.406322
793.284728	44.271517
793.700106	44.164218
794.115453	44.076144
794.530771	44.024499
794.946060	44.014883
795.361319	44.015575
795.776548	44.052719
796.191747	44.112699
796.606917	44.195472
797.022057	44.301073
797.437167	44.444343
797.852248	44.603127
798.267298	44.778700
798.682319	44.972996
799.097310	45.174373
799.512271	45.383858
799.927203	45.610818
800.342104	45.826011
800.756976	46.041894
801.171818	46.251195
801.586629	46.435519
802.001411	46.604157
802.416163	46.776999
802.830885	46.937935
803.245577	47.061830
803.660238	47.168401
804.074870	47.258346
804.489472	47.341193
804.904043	47.383795
805.318585	47.404776
805.733096	47.399894
806.147577	47.370089
806.562028	47.316820
806.976449	47.251863
807.390840	47.142621
807.805200	47.012207
808.219530	46.855979
808.633830	46.665111
809.048100	46.453457
809.462339	46.225040
809.876548	45.977199
810.290727	45.714098
810.704875	45.433951
811.118993	45.149187
811.533080	44.858861
811.947137	44.567793
812.361164	44.268592
812.775160	43.968730
813.189126	43.684990
813.603061	43.413087
814.016966	43.144794
814.430840	42.883641
814.844684	42.659162
815.258497	42.437560
815.672280	42.230414
816.086032	42.047634
816.499753	41.884365
816.913444	41.758518
817.327104	41.623150
817.740733	41.524612
818.154331	41.457962
818.567899	41.407124
818.981436	41.395160
819.394943	41.399682
819.808418	41.428856
820.221863	41.488301
820.635277	41.557650
821.048660	41.662009
821.462013	41.779211
821.875334	41.916810
822.288625	42.066780
822.701884	42.242937
823.115113	42.403209
823.528311	42.579675
823.941478	42.727432
824.354614	42.867091
824.767718	42.990768
825.180792	43.099418
825.593835	43.181417
826.006847	43.231943
826.419827	43.244304
826.832777	43.224226
827.245695	43.182335
827.658582	43.087178
828.071438	42.949726
828.484263	42.769457
828.897057	42.542867
829.309819	42.284541
829.722551	41.965967
830.135251	41.631877
830.547919	41.249343
830.960557	40.830675
831.373163	40.395517
831.785738	39.914487
832.198281	39.424942
832.610793	38.933281
833.023274	38.433561
833.435723	37.932886
833.848141	37.439965
834.260528	36.965182
834.672883	36.492250
835.085206	36.050900
835.497498	35.614639
835.909758	35.229425
836.321987	34.859132
836.734185	34.552228
837.146350	34.282065
837.558485	34.053278
837.970587	33.867853
838.382658	33.704469
838.794697	33.595500
839.206705	33.523877
839.618681	33.482104
840.030625	33.484109
840.442538	33.519100
840.854418	33.583675
841.266267	33.678970
841.678084	33.819817
842.089870	33.980298
842.501623	34.160203
842.913345	34.365470
843.325035	34.591381
843.736693	34.835785
844.148319	35.101021
844.559913	35.379043
844.971475	35.650257
845.383005	35.921074
845.794504	36.203641
846.205970	36.508174
846.617404	36.798294
847.028806	37.093907
847.440176	37.391408
847.851514	37.672355
848.262820	37.950117
848.674094	38.219068
849.085336	38.478680
849.496546	38.712294
849.907723	38.905495
850.318868	39.084794
850.729981	39.241791
851.141062	39.384832
851.552110	39.482371
851.963127	39.554924
852.374111	39.631004
852.785062	39.661839
853.195982	39.655152
853.606869	39.650050
854.017723	39.613530
854.428546	39.531990
854.839336	39.434408
855.250093	39.328445
855.660818	39.211110
856.071511	39.056878
856.482171	38.884263
856.892799	38.694629
857.303394	38.475235
857.713956	38.252083
858.124486	38.027043
858.534984	37.770397
858.945449	37.475947
859.355881	37.163741
859.766280	36.825732
860.176647	36.479420
860.586982	36.124173
860.997283	35.757470
861.407552	35.357246
861.817789	34.955362
862.227992	34.547149
862.638163	34.150631
863.048301	33.731396
863.458406	33.295830
863.868478	32.884759
864.278518	32.479275
864.688524	32.081129
865.098498	31.669985
865.508439	31.283752
865.918347	30.922898
866.328222	30.559751
866.738064	30.214724
867.147873	29.910955
867.557649	29.618087
867.967392	29.349498
868.377102	29.089425
868.786779	28.881489
869.196423	28.698426
869.606034	28.542116
870.015612	28.434124
870.425156	28.349276
870.834668	28.281740
871.244146	28.258808
871.653591	28.251133
872.063003	28.268136
872.472382	28.310056
872.881728	28.370150
873.291040	28.429067
873.700319	28.493104
874.109564	28.567105
874.518777	28.635497
874.927956	28.693915
875.337102	28.762350
875.746214	28.815786
876.155293	28.872464
876.564338	28.900135
876.973350	28.901998
877.382329	28.893996
877.791274	28.872422
878.200186	28.817425
878.609064	28.749842
879.017909	28.647200
879.426720	28.525921
879.835497	28.372047
880.244241	28.205189
880.652952	28.020859
881.061629	27.810286
881.470272	27.583125
881.878881	27.337942
882.287457	27.080723
882.695999	26.785800
883.104507	26.497530
883.512982	26.202880
883.921423	25.898767
884.329830	25.602926
884.738203	25.308496
885.146543	25.027251
885.554849	24.739717
885.963120	24.463645
886.371358	24.218567
886.779563	23.984776
887.187733	23.772946
887.595869	23.565611
888.003971	23.379108
888.412040	23.235900
888.820074	23.102076
889.228074	22.990444
889.636041	22.911664
890.043973	22.839303
890.451871	22.786622
890.859736	22.761487
891.267566	22.746941
891.675362	22.761092
892.083124	22.784104
892.490851	22.821816
892.898545	22.865618
893.306204	22.925397
893.713829	22.991160
894.121420	23.063421
894.528977	23.149498
894.936499	23.238196
895.343987	23.346751
895.751441	23.444355
896.158860	23.545074
896.566246	23.636887
896.973596	23.724026
897.380913	23.817340
897.788195	23.884777
898.195442	23.958478
898.602655	24.021744
899.009834	24.075680
899.416978	24.119086
899.824088	24.145056
900.231163	24.185828
900.638204	24.193062
901.045210	24.188413
901.452181	24.165775
901.859118	24.115343
902.266021	24.085464
902.672888	24.045195
903.079721	23.992807
903.486520	23.924322
903.893283	23.842177
904.300012	23.745810
904.706707	23.643663
905.113366	23.543263
905.519991	23.441181
905.926581	23.313544
906.333136	23.193848
906.739656	23.059279
907.146142	22.908177
907.552592	22.774320
907.959008	22.625119
908.365389	22.477501
908.771735	22.330933
909.178046	22.184621
909.584322	22.045607
909.990563	21.891582
910.396769	21.753631
910.802940	21.609131
911.209076	21.473710
911.615177	21.322749
912.021243	21.182730
912.427274	21.041811
912.833270	20.889500
913.239231	20.733822
913.645156	20.589607
914.051046	20.446251
914.456902	20.326888
914.862721	20.174265
915.268506	20.035545
915.674256	19.900620
916.079970	19.768959
916.485649	19.631723
916.891292	19.500362
917.296901	19.374709
917.702474	19.249418
918.108011	19.123824
918.513514	19.003689
918.918980	18.886808
919.324412	18.779790
919.729808	18.680903
920.135169	18.571660
920.540494	18.471870
920.945783	18.387301
921.351037	18.298216
921.756256	18.221915
922.161439	18.161099
922.566586	18.117597
922.971698	18.078424
923.376775	18.025433
923.781815	17.996337
924.186820	17.962340
924.591790	17.954119
924.996723	17.943203
925.401621	17.962100
925.806484	17.980216
926.211310	17.980433
926.616101	18.000516
927.020856	18.034021
927.425575	18.047174
927.830259	18.060490
928.234906	18.065650
928.639518	18.082938
929.044094	18.093532
929.448634	18.115417
929.853138	18.114299
930.257606	18.105848
930.662038	18.092177
931.066434	18.074957
931.470795	18.050440
931.875119	18.028567
932.279407	17.998534
932.683659	17.954748
933.087875	17.894380
933.492055	17.833593
933.896199	17.774226
934.300307	17.683133
934.704379	17.591798
935.108414	17.481459
935.512414	17.369010
935.916377	17.273269
936.320304	17.169086
936.724195	17.057569
937.128049	16.928622
937.531867	16.795322
937.935649	16.621000
938.339395	16.470629
938.743104	16.326865
939.146777	16.172791
939.550414	16.006080
939.954014	15.869357
940.357578	15.723281
940.761105	15.588718
941.164596	15.430365
941.568050	15.284787
941.971468	15.128824
942.374850	14.994781
942.778195	14.871527
943.181503	14.740078
943.584775	14.630823
943.988010	14.509260
944.391209	14.378418
944.794371	14.267510
945.197496	14.164623
945.600585	14.072552
946.003637	13.974644
946.406653	13.884759
946.809632	13.781716
947.212574	13.694308
947.615479	13.594726
948.018347	13.485289
948.421179	13.399214
948.823974	13.291106
949.226732	13.214808
949.629453	13.121646
950.032138	13.046316
950.434785	12.978478
950.837396	12.926938
951.239969	12.864090
951.642506	12.796720
952.045006	12.738765
952.447469	12.678479
952.849895	12.612411
953.252283	12.529704
953.654635	12.479253
954.056950	12.427843
954.459227	12.397760
954.861468	12.366413
955.263671	12.299532
955.665838	12.294135
956.067967	12.259466
956.470059	12.237531
956.872114	12.227204
957.274131	12.212777
957.676112	12.189543
958.078055	12.182629
958.479961	12.158436
958.881829	12.131828
959.283661	12.171744
959.685455	12.167003
960.087211	12.174808
960.488931	12.212522
960.890613	12.207342
961.292257	12.194978
961.693864	12.199865
962.095434	12.188983
962.496966	12.175297
962.898461	12.183063
963.299918	12.204380
963.701338	12.223059
964.102720	12.245463
964.504065	12.232668
964.905372	12.217764
965.306641	12.219189
965.707873	12.243876
966.109068	12.275254
966.510224	12.294919
966.911343	12.273897
967.312425	12.274532
967.713468	12.330058
968.114474	12.286797
968.515442	12.283601
968.916373	12.306856
969.317265	12.331136
969.718120	12.314590
970.118937	12.312242
970.519716	12.339618
970.920458	12.371783
971.321161	12.380896
971.721827	12.390180
972.122454	12.405109
972.523044	12.437509
972.923596	12.462869
973.324110	12.499825
973.724585	12.570144
974.125023	12.579652
974.525423	12.621727
974.925785	12.692026
975.326108	12.744848
975.726394	12.724864
976.126642	12.745242
976.526851	12.747375
976.927022	12.814056
977.327155	12.888554
977.727250	12.940045
978.127307	12.968117
978.527325	12.987112
978.927306	13.026165
979.327248	13.112321
979.727151	13.159116
980.127017	13.190794
980.526844	13.260281
980.926633	13.318662
981.326383	13.393686
981.726095	13.388274
982.125769	13.471759
982.525404	13.545893
982.925001	13.554167
983.324560	13.571092
983.724079	13.595644
984.123561	13.619978
984.523004	13.654993
984.922408	13.691743
985.321774	13.706528
985.721102	13.704459
986.120390	13.713963
986.519641	13.816951
986.918852	13.810489
987.318025	13.809840
987.717159	13.794901
988.116255	13.907760
988.515312	13.984448
988.914330	14.045816
989.313310	14.055218
989.712250	14.057434
990.111152	14.131673
990.510015	14.144071
990.908840	14.262996
991.307625	14.307561
991.706372	14.300902
992.105080	14.323101
992.503749	14.253237
992.902379	14.270715
993.300970	14.376913
993.699522	14.359666
994.098035	14.489770
994.496510	14.511819
994.894945	14.630253
995.293341	14.734128
995.691698	14.839125
996.090016	14.931586
996.488296	14.995152
996.886535	15.141718
997.284736	15.245558
997.682898	15.241317
998.081021	15.377502
998.479104	15.488064
998.877148	15.632023
999.275153	15.776597
999.673119	15.880284
1000.071046	16.064963
1000.468933	16.113493
1000.866781	16.046032
1001.264590	16.145949
1001.662359	16.223971
1002.060089	16.402915
1002.457780	16.433722
1002.855431	16.649485
1003.253043	16.590019
1003.650615	16.807231
1004.048148	16.825449
1004.445642	17.047505
1004.843096	17.347183
1005.240511	17.518886
1005.637886	17.439983
1006.035221	17.754262
1006.432517	17.886363
1006.829774	18.056577
1007.226991	17.999523
1007.624168	18.191855
1008.021306	18.355120
1008.418404	18.522976
1008.815462	18.699044
1009.212481	18.909124
1009.609460	19.025026
1010.006399	19.389759
1010.403298	19.546059
1010.800158	19.739104
1011.196978	19.788354
1011.593758	19.841312
1011.990498	20.069452
1012.387199	20.186142
1012.783860	20.398271
1013.180480	20.776338
1013.577061	20.906053
1013.973602	21.293697
1014.370103	21.371789
1014.766564	21.574202
1015.162985	21.623400
1015.559366	21.812856
1015.955708	21.759297
1016.352009	22.235577
1016.748270	22.342359
1017.144491	22.341040
1017.540671	22.594827
1017.936812	22.972680
1018.332913	22.553340
1018.728973	22.644076
1019.124994	22.679325
1019.520974	23.200113
1019.916914	23.067541
1020.312814	22.984336
