Time1=100ms:Average1=5:Objective=10X:Aperture=1: (11/28/2018 10:20:24 AM)
11/28/2018 10:20:24 AM
Reflectance
10X
Ap#: 1
Avg1: 5.000000
Avg2: 0.000000
Int.Time1:100.000000

350.166136	39.377559
350.601937	39.581759
351.037728	39.927717
351.473509	39.703488
351.909281	39.758412
352.345042	39.696388
352.780794	39.713837
353.216536	39.854565
353.652267	39.685039
354.087989	39.642168
354.523701	39.655627
354.959403	39.812132
355.395095	39.864210
355.830777	39.913557
356.266449	40.155532
356.702110	40.552223
357.137762	40.953729
357.573404	40.681131
358.009035	40.436331
358.444656	40.498081
358.880268	40.412611
359.315869	40.615823
359.751459	40.735124
360.187040	40.780079
360.622610	40.891231
361.058170	41.170679
361.493720	41.547916
361.929260	41.671876
362.364789	42.049312
362.800308	42.100579
363.235816	42.171134
363.671314	41.888770
364.106802	41.597087
364.542279	41.662227
364.977746	41.864181
365.413203	41.610560
365.848649	41.985476
366.284084	42.184457
366.719509	42.158859
367.154924	42.095915
367.590328	42.099654
368.025721	42.564693
368.461104	42.732919
368.896477	42.525591
369.331838	42.196990
369.767189	42.223391
370.202530	42.013493
370.637859	41.758918
371.073178	42.091881
371.508486	41.940833
371.943784	41.670288
372.379071	41.563858
372.814347	41.472329
373.249612	41.517157
373.684866	41.627461
374.120110	41.593459
374.555343	41.559346
374.990565	41.269009
375.425776	41.408845
375.860976	41.379611
376.296165	41.310816
376.731343	41.378404
377.166511	41.258313
377.601667	41.671778
378.036812	41.792346
378.471946	41.662315
378.907070	41.809142
379.342182	41.529770
379.777283	41.217391
380.212373	41.453065
380.647452	41.538594
381.082520	41.663802
381.517576	41.333333
381.952622	41.190661
382.387656	41.189180
382.822679	41.374838
383.257691	41.328254
383.692692	41.389178
384.127681	41.204944
384.562659	41.197822
384.997626	41.170378
385.432581	41.278618
385.867525	41.431895
386.302458	41.557434
386.737379	41.409540
387.172289	41.630975
387.607188	41.810234
388.042075	41.683092
388.476951	41.816163
388.911815	41.788259
389.346668	41.536767
389.781509	41.571610
390.216338	41.573698
390.651157	41.557674
391.085963	41.452956
391.520758	41.329626
391.955541	41.281318
392.390313	41.421857
392.825073	41.415245
393.259821	41.665968
393.694558	41.536142
394.129283	41.260960
394.563996	41.009832
394.998698	41.200862
395.433388	41.197837
395.868066	40.979286
396.302732	40.686938
396.737386	40.581429
397.172029	40.184861
397.606659	40.062275
398.041278	39.930347
398.475885	40.035764
398.910480	39.788372
399.345063	39.350842
399.779634	38.963583
400.214194	38.554626
400.648741	37.972953
401.083276	37.394473
401.517799	36.488566
401.952310	35.647616
402.386809	34.364407
402.821296	33.257296
403.255771	31.930841
403.690234	30.484274
404.124684	29.227105
404.559123	27.891927
404.993549	26.529315
405.427963	25.349411
405.862365	24.044109
406.296754	22.931582
406.731131	21.734872
407.165496	20.716083
407.599849	19.719025
408.034190	18.780021
408.468518	17.874927
408.902833	17.123818
409.337137	16.394153
409.771428	15.648819
410.205706	14.915956
410.639973	14.335725
411.074226	13.813562
411.508467	13.218829
411.942696	12.734054
412.376912	12.308216
412.811116	11.954287
413.245307	11.620082
413.679486	11.332084
414.113652	11.017093
414.547805	10.713097
414.981946	10.535991
415.416074	10.318101
415.850190	10.149982
416.284293	9.977212
416.718383	9.835829
417.152460	9.766086
417.586525	9.660652
418.020577	9.544585
418.454616	9.434223
418.888643	9.332445
419.322656	9.240408
419.756657	9.165800
420.190645	9.069617
420.624620	8.967904
421.058582	8.914128
421.492531	8.831492
421.926468	8.753684
422.360391	8.691216
422.794301	8.642954
423.228199	8.634275
423.662083	8.640437
424.095955	8.654718
424.529813	8.671909
424.963658	8.720170
425.397491	8.718060
425.831310	8.752856
426.265116	8.778688
426.698909	8.805593
427.132689	8.823478
427.566455	8.877391
428.000209	8.934414
428.433949	8.972262
428.867676	9.045648
429.301389	9.108537
429.735090	9.184508
430.168777	9.253286
430.602451	9.302487
431.036111	9.327881
431.469759	9.389314
431.903392	9.457181
432.337013	9.512645
432.770620	9.586809
433.204213	9.668515
433.637794	9.780439
434.071360	9.936834
434.504914	10.097524
434.938453	10.293911
435.371979	10.493122
435.805492	10.706978
436.238991	10.944567
436.672477	11.156115
437.105949	11.358493
437.539407	11.570437
437.972852	11.797387
438.406283	12.008509
438.839700	12.242430
439.273104	12.489990
439.706494	12.756546
440.139871	13.053992
440.573233	13.359804
441.006582	13.660491
441.439917	13.965093
441.873238	14.246255
442.306546	14.522252
442.739839	14.794884
443.173119	15.052557
443.606385	15.316201
444.039636	15.566844
444.472874	15.854421
444.906099	16.131213
445.339309	16.444090
445.772505	16.789510
446.205687	17.144994
446.638855	17.522561
447.072009	17.916896
447.505149	18.300622
447.938275	18.706219
448.371387	19.103207
448.804485	19.492503
449.237569	19.867856
449.670638	20.226451
450.103694	20.568158
450.536735	20.897435
450.969762	21.234516
451.402774	21.570432
451.835773	21.929970
452.268757	22.310471
452.701727	22.669471
453.134683	23.049646
453.567624	23.426872
454.000551	23.803471
454.433464	24.166535
454.866362	24.518277
455.299246	24.874053
455.732116	25.216015
456.164971	25.545798
456.597811	25.875406
457.030638	26.190320
457.463449	26.522158
457.896246	26.852010
458.329029	27.164405
458.761797	27.473414
459.194551	27.758668
459.627290	28.059780
460.060014	28.358474
460.492724	28.668529
460.925419	28.978979
461.358099	29.285659
461.790765	29.588986
462.223416	29.895332
462.656052	30.171805
463.088674	30.456911
463.521281	30.732524
463.953873	31.003219
464.386450	31.255288
464.819012	31.497633
465.251560	31.751361
465.684093	32.002004
466.116611	32.292582
466.549114	32.580525
466.981602	32.854052
467.414075	33.138133
467.846533	33.418301
468.278977	33.673996
468.711405	33.922301
469.143818	34.131840
469.576216	34.333047
470.008600	34.511480
470.440968	34.681230
470.873321	34.809046
471.305659	34.935167
471.737982	35.064169
472.170289	35.176153
472.602582	35.293264
473.034859	35.405485
473.467122	35.521307
473.899369	35.661486
474.331600	35.813538
474.763817	35.978597
475.196018	36.161771
475.628204	36.375848
476.060375	36.614507
476.492530	36.859601
476.924670	37.100437
477.356795	37.315970
477.788904	37.507413
478.220998	37.685556
478.653076	37.829379
479.085139	37.970054
479.517186	38.083215
479.949219	38.190557
480.381235	38.329963
480.813236	38.486859
481.245221	38.667281
481.677191	38.877352
482.109146	39.097473
482.541084	39.337898
482.973008	39.568072
483.404915	39.769932
483.836807	39.940460
484.268683	40.106703
484.700544	40.237399
485.132388	40.326925
485.564217	40.387768
485.996031	40.442918
486.427828	40.458015
486.859610	40.476422
487.291376	40.457826
487.723126	40.449554
488.154860	40.439250
488.586579	40.464187
489.018281	40.492126
489.449968	40.556813
489.881639	40.653630
490.313293	40.807029
490.744932	41.008514
491.176555	41.228532
491.608162	41.456744
492.039753	41.653141
492.471328	41.823959
492.902886	41.960052
493.334429	42.049563
493.765956	42.081675
494.197466	42.095685
494.628960	42.093056
495.060439	42.096588
495.491901	42.124010
495.923347	42.192156
496.354776	42.293662
496.786190	42.464080
497.217587	42.679839
497.648968	42.913870
498.080332	43.150309
498.511681	43.383882
498.943013	43.617461
499.374328	43.784564
499.805628	43.929327
500.236911	44.022212
500.668177	44.077371
501.099427	44.071292
501.530661	44.045281
501.961878	43.955267
502.393079	43.845920
502.824264	43.714665
503.255431	43.560758
503.686583	43.397731
504.117717	43.233268
504.548835	43.097746
504.979937	42.974391
505.411022	42.922300
505.842090	42.906306
506.273142	42.918334
506.704177	42.962565
507.135195	43.016558
507.566197	43.052366
507.997182	43.056885
508.428150	43.020266
508.859102	42.925857
509.290036	42.761191
509.720954	42.546553
510.151855	42.267220
510.582739	41.959141
511.013607	41.638943
511.444457	41.320802
511.875291	41.056930
512.306107	40.816469
512.736907	40.648713
513.167690	40.508683
513.598456	40.405056
514.029205	40.334322
514.459936	40.275211
514.890651	40.206303
515.321349	40.122503
515.752030	40.019724
516.182693	39.888242
516.613340	39.714050
517.043969	39.506503
517.474582	39.278291
517.905177	39.012836
518.335755	38.745201
518.766315	38.462356
519.196859	38.182802
519.627385	37.908289
520.057894	37.653508
520.488386	37.424817
520.918860	37.248365
521.349318	37.123384
521.779757	37.044152
522.210180	37.042370
522.640585	37.111688
523.070973	37.264386
523.501343	37.485212
523.931696	37.755206
524.362031	38.063266
524.792349	38.417919
525.222650	38.761339
525.652933	39.113887
526.083198	39.447079
526.513446	39.777224
526.943677	40.097155
527.373890	40.395634
527.804085	40.694162
528.234262	40.995303
528.664422	41.320208
529.094565	41.669329
529.524689	42.050451
529.954796	42.478661
530.384885	42.935731
530.814957	43.435351
531.245011	43.971435
531.675047	44.523771
532.105065	45.076534
532.535065	45.618731
532.965048	46.137200
533.395013	46.631537
533.824959	47.086797
534.254888	47.492352
534.684799	47.842977
535.114693	48.159562
535.544568	48.415976
535.974425	48.621617
536.404264	48.759382
536.834086	48.862156
537.263889	48.916923
537.693674	48.926993
538.123441	48.891262
538.553190	48.835851
538.982921	48.762777
539.412634	48.673966
539.842329	48.581524
540.272006	48.480906
540.701664	48.376791
541.131304	48.280119
541.560926	48.178757
541.990530	48.075834
542.420116	47.961497
542.849683	47.814788
543.279232	47.647111
543.708763	47.462484
544.138275	47.224382
544.567769	46.952810
544.997245	46.637614
545.426702	46.292459
545.856141	45.924316
546.285562	45.556553
546.714964	45.172801
547.144347	44.805868
547.573713	44.457678
548.003059	44.147847
548.432387	43.882088
548.861697	43.645397
549.290988	43.464598
549.720260	43.340221
550.149514	43.263670
550.578750	43.226807
551.007966	43.234957
551.437164	43.279285
551.866344	43.359236
552.295504	43.434663
552.724646	43.524724
553.153769	43.599855
553.582874	43.654866
554.011960	43.682966
554.441027	43.670691
554.870075	43.619008
555.299104	43.522313
555.728115	43.375555
556.157106	43.184959
556.586079	42.950736
557.015033	42.687826
557.443968	42.391686
557.872884	42.081532
558.301781	41.770259
558.730659	41.443277
559.159518	41.115549
559.588358	40.788936
560.017180	40.477488
560.445982	40.180176
560.874765	39.884850
561.303528	39.594998
561.732273	39.300982
562.160999	39.010341
562.589705	38.715569
563.018393	38.413165
563.447061	38.109552
563.875710	37.804707
564.304340	37.511120
564.732950	37.221357
565.161542	36.929569
565.590114	36.663887
566.018666	36.418159
566.447200	36.200735
566.875714	36.014819
567.304208	35.874854
567.732684	35.771502
568.161140	35.715134
568.589576	35.713547
569.017993	35.766711
569.446391	35.889256
569.874769	36.075249
570.303128	36.313707
570.731467	36.626437
571.159787	36.984445
571.588087	37.400517
572.016368	37.870522
572.444629	38.378304
572.872870	38.924360
573.301092	39.487893
573.729294	40.026760
574.157476	40.559730
574.585639	41.048940
575.013782	41.494348
575.441906	41.881039
575.870009	42.186610
576.298093	42.420794
576.726157	42.559916
577.154202	42.619859
577.582226	42.601854
578.010231	42.517296
578.438216	42.372502
578.866181	42.163935
579.294126	41.908535
579.722051	41.615690
580.149957	41.295940
580.577842	40.942112
581.005707	40.576999
581.433553	40.188656
581.861378	39.779242
582.289184	39.358149
582.716969	38.921317
583.144734	38.470663
583.572479	38.009895
584.000205	37.536024
584.427910	37.060597
584.855594	36.567901
585.283259	36.086853
585.710904	35.612731
586.138528	35.143134
586.566132	34.680419
586.993716	34.256638
587.421280	33.852182
587.848823	33.481941
588.276346	33.143758
588.703849	32.851765
589.131332	32.602655
589.558794	32.396901
589.986236	32.249859
590.413657	32.154219
590.841058	32.109602
591.268438	32.120847
591.695799	32.184704
592.123138	32.304938
592.550458	32.475672
592.977756	32.713537
593.405034	32.991045
593.832292	33.332526
594.259529	33.716964
594.686746	34.151645
595.113942	34.621395
595.541117	35.120472
595.968272	35.635900
596.395406	36.160391
596.822519	36.674220
597.249612	37.173017
597.676684	37.648577
598.103735	38.086576
598.530766	38.470894
598.957775	38.806911
599.384764	39.080368
599.811733	39.289408
600.238680	39.445153
600.665606	39.533128
601.092512	39.582588
601.519397	39.578494
601.946261	39.531051
602.373104	39.449106
602.799926	39.332213
603.226727	39.178097
603.653507	39.004819
604.080266	38.802725
604.507004	38.561426
604.933721	38.288696
605.360417	37.993252
605.787092	37.666759
606.213746	37.303980
606.640379	36.912011
607.066991	36.489105
607.493581	36.042397
607.920150	35.569085
608.346699	35.075779
608.773226	34.573967
609.199731	34.066476
609.626216	33.562659
610.052679	33.072305
610.479121	32.608537
610.905542	32.153036
611.331941	31.734561
611.758319	31.342204
612.184676	30.981389
612.611011	30.652501
613.037325	30.363566
613.463617	30.103820
613.889888	29.877595
614.316138	29.676023
614.742366	29.510863
615.168573	29.376930
615.594758	29.273197
616.020921	29.207371
616.447063	29.177589
616.873184	29.179893
617.299283	29.225773
617.725360	29.319104
618.151416	29.455922
618.577450	29.633461
619.003462	29.860459
619.429453	30.126819
619.855422	30.444716
620.281369	30.789941
620.707295	31.174464
621.133199	31.588988
621.559081	32.031857
621.984941	32.489257
622.410779	32.953057
622.836596	33.408445
623.262391	33.860282
623.688163	34.290615
624.113914	34.708162
624.539644	35.110216
624.965351	35.495859
625.391036	35.845081
625.816699	36.171957
626.242340	36.484274
626.667960	36.769303
627.093557	37.044414
627.519132	37.290869
627.944685	37.523255
628.370216	37.731841
628.795725	37.929118
629.221212	38.094587
629.646677	38.236906
630.072119	38.350083
630.497540	38.425008
630.922938	38.454276
631.348314	38.445945
631.773668	38.394651
632.198999	38.287212
632.624308	38.139485
633.049595	37.939324
633.474860	37.702319
633.900102	37.431122
634.325322	37.120426
634.750520	36.788583
635.175695	36.438270
635.600848	36.081610
636.025978	35.729808
636.451086	35.371201
636.876171	35.023518
637.301234	34.690851
637.726275	34.361131
638.151293	34.039775
638.576288	33.740193
639.001261	33.446965
639.426211	33.165266
639.851139	32.890869
640.276044	32.620692
640.700927	32.360527
641.125787	32.094586
641.550624	31.833942
641.975438	31.569731
642.400230	31.305715
642.824999	31.038522
643.249745	30.772425
643.674469	30.510781
644.099169	30.264132
644.523847	30.030700
644.948502	29.808599
645.373135	29.618289
645.797744	29.440403
646.222330	29.292597
646.646894	29.168543
647.071435	29.062222
647.495953	28.986793
647.920447	28.928338
648.344919	28.890678
648.769368	28.875424
649.193794	28.874362
649.618197	28.898765
650.042576	28.932290
650.466933	28.983692
650.891267	29.049144
651.315577	29.123564
651.739864	29.214139
652.164129	29.321795
652.588370	29.443063
653.012587	29.573702
653.436782	29.716943
653.860953	29.876270
654.285102	30.060746
654.709226	30.253114
655.133328	30.451791
655.557406	30.664576
655.981461	30.888772
656.405493	31.128670
656.829501	31.365725
657.253486	31.595559
657.677448	31.820819
658.101386	32.041926
658.525301	32.246815
658.949192	32.431597
659.373060	32.595199
659.796904	32.735909
660.220725	32.846597
660.644522	32.938008
661.068296	33.009300
661.492046	33.049842
661.915772	33.064705
662.339475	33.058043
662.763154	33.033228
663.186810	32.997627
663.610442	32.953758
664.034050	32.907005
664.457635	32.866794
664.881196	32.824256
665.304733	32.786011
665.728247	32.756116
666.151736	32.746249
666.575202	32.743665
666.998644	32.750076
667.422062	32.762250
667.845457	32.786650
668.268827	32.820631
668.692174	32.855557
669.115496	32.895116
669.538795	32.919476
669.962070	32.946522
670.385321	32.968145
670.808547	32.974842
671.231750	32.968675
671.654929	32.945890
672.078084	32.917882
672.501214	32.877313
672.924321	32.826366
673.347404	32.774285
673.770462	32.705399
674.193496	32.634013
674.616506	32.568616
675.039492	32.507661
675.462454	32.445602
675.885391	32.385997
676.308305	32.338092
676.731194	32.297431
677.154058	32.263462
677.576899	32.236643
677.999715	32.215777
678.422507	32.204228
678.845274	32.195479
679.268017	32.192434
679.690736	32.191481
680.113430	32.197364
680.536100	32.201933
680.958746	32.210723
681.381367	32.217861
681.803963	32.229837
682.226535	32.244172
682.649083	32.264613
683.071605	32.291300
683.494104	32.324147
683.916578	32.362109
684.339027	32.407390
684.761451	32.455724
685.183851	32.508064
685.606227	32.559961
686.028577	32.611111
686.450903	32.666283
686.873204	32.717199
687.295481	32.759778
687.717733	32.790920
688.139959	32.806943
688.562162	32.815688
688.984339	32.814498
689.406492	32.793136
689.828619	32.756842
690.250722	32.701461
690.672800	32.618439
691.094853	32.522544
691.516881	32.417777
691.938884	32.287495
692.360863	32.137742
692.782816	31.988719
693.204744	31.824543
693.626647	31.659041
694.048526	31.486697
694.470379	31.322589
694.892207	31.164421
695.314010	31.016291
695.735788	30.879713
696.157540	30.759788
696.579268	30.655013
697.000970	30.575588
697.422648	30.514691
697.844300	30.482636
698.265926	30.480796
698.687528	30.505174
699.109104	30.563997
699.530655	30.639941
699.952181	30.748481
700.373681	30.875838
700.795156	31.024609
701.216606	31.194411
701.638030	31.386864
702.059429	31.580490
702.480803	31.785292
702.902151	31.984576
703.323473	32.183350
703.744770	32.386617
704.166042	32.581585
704.587288	32.757261
705.008509	32.932673
705.429704	33.097388
705.850873	33.250779
706.272017	33.396929
706.693135	33.530699
707.114228	33.659486
707.535295	33.776297
707.956336	33.890642
708.377352	33.983877
708.798342	34.071441
709.219306	34.151122
709.640245	34.236650
710.061157	34.314096
710.482044	34.387798
710.902905	34.455692
711.323741	34.512461
711.744550	34.568481
712.165334	34.609907
712.586092	34.661333
713.006823	34.709645
713.427529	34.762256
713.848209	34.820584
714.268863	34.879710
714.689492	34.943146
715.110094	35.015529
715.530670	35.091361
715.951220	35.176894
716.371744	35.272119
716.792242	35.369520
717.212714	35.468592
717.633159	35.582613
718.053579	35.694654
718.473973	35.804599
718.894340	35.904123
719.314681	36.001386
719.734996	36.082586
720.155285	36.159001
720.575547	36.214961
720.995784	36.248299
721.415994	36.266529
721.836177	36.275115
722.256335	36.249495
722.676466	36.184617
723.096570	36.097611
723.516649	35.986209
723.936701	35.848332
724.356726	35.681193
724.776725	35.487283
725.196698	35.273110
725.616644	35.025543
726.036564	34.757694
726.456457	34.469177
726.876324	34.164301
727.296164	33.848145
727.715977	33.508143
728.135764	33.166246
728.555525	32.819722
728.975258	32.473935
729.394966	32.131609
729.814646	31.801135
730.234300	31.483068
730.653927	31.176910
731.073527	30.884775
731.493101	30.624801
731.912648	30.386800
732.332168	30.177760
732.751661	30.000019
733.171128	29.850205
733.590568	29.735616
734.009980	29.655703
734.429366	29.611926
734.848726	29.587893
735.268058	29.595294
735.687363	29.634187
736.106641	29.694882
736.525893	29.777587
736.945117	29.871629
737.364314	29.984369
737.783485	30.110456
738.202628	30.249668
738.621744	30.395042
739.040834	30.541554
739.459896	30.690338
739.878931	30.837175
740.297939	30.980989
740.716919	31.128511
741.135873	31.264666
741.554799	31.396860
741.973698	31.517939
742.392570	31.625435
742.811415	31.721687
743.230232	31.796884
743.649022	31.866365
744.067785	31.927462
744.486521	31.964114
744.905229	31.985374
745.323909	31.993467
745.742563	31.995247
746.161189	31.982806
746.579787	31.960724
746.998358	31.924999
747.416902	31.874356
747.835418	31.822368
748.253907	31.771631
748.672368	31.721114
749.090802	31.677970
749.509208	31.631322
749.927586	31.605294
750.345937	31.585224
750.764261	31.577522
751.182556	31.581922
751.600824	31.600316
752.019065	31.639663
752.437277	31.686133
752.855462	31.748001
753.273620	31.818985
753.691749	31.902161
754.109851	31.998273
754.527925	32.094942
754.945971	32.207585
755.363989	32.316334
755.781980	32.433162
756.199943	32.561433
756.617877	32.675578
757.035784	32.785798
757.453663	32.893818
757.871514	32.998371
758.289337	33.090125
758.707132	33.154318
759.124899	33.205108
759.542639	33.237049
759.960350	33.243705
760.378033	33.240620
760.795688	33.195440
761.213314	33.132181
761.630913	33.037496
762.048484	32.903742
762.466026	32.745779
762.883541	32.553734
763.301027	32.340881
763.718485	32.105345
764.135914	31.851844
764.553316	31.574988
764.970689	31.281621
765.388034	30.986688
765.805351	30.683341
766.222639	30.382045
766.639899	30.076421
767.057131	29.778940
767.474334	29.497697
767.891509	29.220671
768.308655	28.962361
768.725773	28.720742
769.142863	28.505808
769.559924	28.307432
769.976957	28.136394
770.393961	27.980300
770.810936	27.857361
771.227883	27.752872
771.644802	27.683861
772.061692	27.642868
772.478553	27.622409
772.895386	27.637794
773.312190	27.678457
773.728965	27.759483
774.145712	27.867682
774.562430	28.003720
774.979119	28.177898
775.395780	28.385794
775.812411	28.616093
776.229014	28.871506
776.645589	29.142610
777.062134	29.430197
777.478651	29.730200
777.895138	30.044351
778.311597	30.368704
778.728027	30.692164
779.144428	31.014205
779.560800	31.329807
779.977143	31.639657
780.393458	31.929925
780.809743	32.211904
781.225999	32.470133
781.642226	32.701555
782.058425	32.900684
782.474594	33.083498
782.890734	33.232590
783.306845	33.364546
783.722926	33.451970
784.138979	33.513828
784.555003	33.536790
784.970997	33.521121
785.386962	33.486013
785.802898	33.416810
786.218805	33.310480
786.634682	33.179677
787.050531	33.008116
787.466349	32.825177
787.882139	32.604917
788.297899	32.366190
788.713630	32.116110
789.129332	31.855099
789.545004	31.586909
789.960647	31.313946
790.376260	31.054268
790.791844	30.789163
791.207399	30.530122
791.622924	30.284460
792.038419	30.049482
792.453885	29.837847
792.869321	29.640472
793.284728	29.463817
793.700106	29.298651
794.115453	29.170286
794.530771	29.051802
794.946060	28.959206
795.361319	28.875890
795.776548	28.811335
796.191747	28.751633
796.606917	28.707268
797.022057	28.655295
797.437167	28.616460
797.852248	28.583043
798.267298	28.534886
798.682319	28.487508
799.097310	28.435960
799.512271	28.362090
799.927203	28.295697
800.342104	28.210227
800.756976	28.124029
801.171818	28.020412
801.586629	27.903077
802.001411	27.766681
802.416163	27.621481
802.830885	27.469578
803.245577	27.300665
803.660238	27.120990
804.074870	26.931223
804.489472	26.728042
804.904043	26.521384
805.318585	26.300037
805.733096	26.065423
806.147577	25.825769
806.562028	25.579284
806.976449	25.327794
807.390840	25.077308
807.805200	24.816447
808.219530	24.556368
808.633830	24.297531
809.048100	24.042963
809.462339	23.793638
809.876548	23.558335
810.290727	23.335574
810.704875	23.107473
811.118993	22.902776
811.533080	22.704357
811.947137	22.519817
812.361164	22.356373
812.775160	22.192899
813.189126	22.044658
813.603061	21.909900
814.016966	21.787556
814.430840	21.680538
814.844684	21.587642
815.258497	21.514104
815.672280	21.447514
816.086032	21.404235
816.499753	21.378668
816.913444	21.363788
817.327104	21.370029
817.740733	21.382485
818.154331	21.414735
818.567899	21.477348
818.981436	21.553624
819.394943	21.640665
819.808418	21.743803
820.221863	21.874143
820.635277	22.020992
821.048660	22.180897
821.462013	22.361604
821.875334	22.544869
822.288625	22.746559
822.701884	22.965623
823.115113	23.178987
823.528311	23.410051
823.941478	23.643432
824.354614	23.874584
824.767718	24.107565
825.180792	24.346417
825.593835	24.582933
826.006847	24.808548
826.419827	25.012200
826.832777	25.212158
827.245695	25.387724
827.658582	25.558805
828.071438	25.700455
828.484263	25.818306
828.897057	25.903515
829.309819	25.972837
829.722551	26.020304
830.135251	26.029588
830.547919	26.013531
830.960557	25.972145
831.373163	25.888682
831.785738	25.784106
832.198281	25.678355
832.610793	25.541406
833.023274	25.392036
833.435723	25.218960
833.848141	25.042447
834.260528	24.854153
834.672883	24.662808
835.085206	24.469158
835.497498	24.278998
835.909758	24.100361
836.321987	23.922226
836.734185	23.758929
837.146350	23.613303
837.558485	23.479638
837.970587	23.359720
838.382658	23.249914
838.794697	23.165049
839.206705	23.105558
839.618681	23.055326
840.030625	23.037832
840.442538	23.029965
840.854418	23.042879
841.266267	23.070255
841.678084	23.124008
842.089870	23.188717
842.501623	23.256611
842.913345	23.348839
843.325035	23.453277
843.736693	23.572438
844.148319	23.702380
844.559913	23.853584
844.971475	23.994783
845.383005	24.145138
845.794504	24.279088
846.205970	24.430732
846.617404	24.583666
847.028806	24.713498
847.440176	24.853497
847.851514	24.983821
848.262820	25.086568
848.674094	25.189138
849.085336	25.280453
849.496546	25.345747
849.907723	25.390769
850.318868	25.419264
850.729981	25.425885
851.141062	25.427097
851.552110	25.397214
851.963127	25.344651
852.374111	25.286276
852.785062	25.210051
853.195982	25.108557
853.606869	24.995717
854.017723	24.881168
854.428546	24.742884
854.839336	24.593346
855.250093	24.447547
855.660818	24.294109
856.071511	24.141068
856.482171	23.977531
856.892799	23.815075
857.303394	23.629091
857.713956	23.450738
858.124486	23.291364
858.534984	23.138772
858.945449	22.988630
859.355881	22.818127
859.766280	22.674514
860.176647	22.535974
860.586982	22.402746
860.997283	22.286862
861.407552	22.162453
861.817789	22.054077
862.227992	21.955873
862.638163	21.871907
863.048301	21.805370
863.458406	21.748598
863.868478	21.695705
864.278518	21.673302
864.688524	21.657738
865.098498	21.653007
865.508439	21.648430
865.918347	21.674601
866.328222	21.712697
866.738064	21.762050
867.147873	21.828579
867.557649	21.906847
867.967392	21.995506
868.377102	22.093013
868.786779	22.209349
869.196423	22.343622
869.606034	22.492511
870.015612	22.661694
870.425156	22.838021
870.834668	23.024851
871.244146	23.230661
871.653591	23.438419
872.063003	23.677753
872.472382	23.916621
872.881728	24.175587
873.291040	24.431121
873.700319	24.694886
874.109564	24.983640
874.518777	25.270356
874.927956	25.557494
875.337102	25.848458
875.746214	26.132904
876.155293	26.427432
876.564338	26.715009
876.973350	26.982234
877.382329	27.264709
877.791274	27.520872
878.200186	27.785331
878.609064	28.026744
879.017909	28.248672
879.426720	28.457940
879.835497	28.662403
880.244241	28.841957
880.652952	29.017139
881.061629	29.184276
881.470272	29.330853
881.878881	29.452086
882.287457	29.562113
882.695999	29.653434
883.104507	29.744052
883.512982	29.810661
883.921423	29.858242
884.329830	29.907866
884.738203	29.934089
885.146543	29.965086
885.554849	29.983798
885.963120	29.983545
886.371358	29.998634
886.779563	29.986741
887.187733	29.989933
887.595869	29.982629
888.003971	29.969325
888.412040	29.983043
888.820074	29.983833
889.228074	30.000755
889.636041	30.032406
890.043973	30.059413
890.451871	30.106569
890.859736	30.140860
891.267566	30.189425
891.675362	30.253310
892.083124	30.326398
892.490851	30.404172
892.898545	30.499424
893.306204	30.597414
893.713829	30.692031
894.121420	30.808330
894.528977	30.920192
894.936499	31.051183
895.343987	31.195496
895.751441	31.322421
896.158860	31.462070
896.566246	31.599419
896.973596	31.720289
897.380913	31.869907
897.788195	31.997708
898.195442	32.118094
898.602655	32.263751
899.009834	32.377136
899.416978	32.510061
899.824088	32.602394
900.231163	32.731259
900.638204	32.848864
901.045210	32.935863
901.452181	33.010890
901.859118	33.074737
902.266021	33.140989
902.672888	33.180159
903.079721	33.206513
903.486520	33.245796
903.893283	33.263277
904.300012	33.288252
904.706707	33.273817
905.113366	33.250672
905.519991	33.228965
905.926581	33.180941
906.333136	33.120687
906.739656	33.052880
907.146142	33.002282
907.552592	32.912081
907.959008	32.826788
908.365389	32.747180
908.771735	32.646231
909.178046	32.561292
909.584322	32.473395
909.990563	32.376011
910.396769	32.295192
910.802940	32.209659
911.209076	32.122261
911.615177	32.046233
912.021243	31.952890
912.427274	31.886920
912.833270	31.799113
913.239231	31.721571
913.645156	31.636125
914.051046	31.550855
914.456902	31.479270
914.862721	31.393587
915.268506	31.314903
915.674256	31.265639
916.079970	31.198554
916.485649	31.135326
916.891292	31.065912
917.296901	31.020222
917.702474	30.953129
918.108011	30.892829
918.513514	30.834949
918.918980	30.798578
919.324412	30.764866
919.729808	30.714508
920.135169	30.701532
920.540494	30.676384
920.945783	30.653209
921.351037	30.637041
921.756256	30.639007
922.161439	30.632331
922.566586	30.633752
922.971698	30.624759
923.376775	30.605690
923.781815	30.604096
924.186820	30.602231
924.591790	30.621899
924.996723	30.616244
925.401621	30.625794
925.806484	30.612864
926.211310	30.610166
926.616101	30.627110
927.020856	30.625248
927.425575	30.612064
927.830259	30.626264
928.234906	30.609803
928.639518	30.606293
929.044094	30.602470
929.448634	30.591062
929.853138	30.583770
930.257606	30.591021
930.662038	30.590737
931.066434	30.587561
931.470795	30.576222
931.875119	30.563603
932.279407	30.568751
932.683659	30.542045
933.087875	30.520302
933.492055	30.509501
933.896199	30.484588
934.300307	30.441394
934.704379	30.430048
935.108414	30.399886
935.512414	30.372268
935.916377	30.368642
936.320304	30.337153
936.724195	30.293795
937.128049	30.257716
937.531867	30.244551
937.935649	30.202142
938.339395	30.175436
938.743104	30.151575
939.146777	30.116042
939.550414	30.090917
939.954014	30.068300
940.357578	30.028632
940.761105	30.004008
941.164596	29.959437
941.568050	29.915535
941.971468	29.862114
942.374850	29.820804
942.778195	29.766760
943.181503	29.714466
943.584775	29.688998
943.988010	29.633474
944.391209	29.565460
944.794371	29.515409
945.197496	29.443470
945.600585	29.380111
946.003637	29.308529
946.406653	29.238370
946.809632	29.136551
947.212574	29.051014
947.615479	28.930165
948.018347	28.832805
948.421179	28.712902
948.823974	28.624903
949.226732	28.550859
949.629453	28.430895
950.032138	28.328404
950.434785	28.203522
950.837396	28.141431
951.239969	28.030354
951.642506	27.937161
952.045006	27.837615
952.447469	27.735894
952.849895	27.629989
953.252283	27.525360
953.654635	27.450988
954.056950	27.355108
954.459227	27.306201
954.861468	27.236252
955.263671	27.158520
955.665838	27.074524
956.067967	26.979551
956.470059	26.907264
956.872114	26.848283
957.274131	26.746732
957.676112	26.695085
958.078055	26.620165
958.479961	26.559402
958.881829	26.474303
959.283661	26.434349
959.685455	26.364510
960.087211	26.321385
960.488931	26.258441
960.890613	26.197341
961.292257	26.095664
961.693864	26.025881
962.095434	25.944084
962.496966	25.855932
962.898461	25.805554
963.299918	25.710115
963.701338	25.645295
964.102720	25.526917
964.504065	25.421055
964.905372	25.350226
965.306641	25.278747
965.707873	25.185399
966.109068	25.051194
966.510224	25.014938
966.911343	24.885042
967.312425	24.791853
967.713468	24.730214
968.114474	24.614119
968.515442	24.525582
968.916373	24.458648
969.317265	24.337363
969.718120	24.234598
970.118937	24.187543
970.519716	24.103721
970.920458	24.026652
971.321161	24.000053
971.721827	23.924399
972.122454	23.847179
972.523044	23.813778
972.923596	23.755509
973.324110	23.743720
973.724585	23.731387
974.125023	23.659038
974.525423	23.634281
974.925785	23.614121
975.326108	23.590202
975.726394	23.509977
976.126642	23.465958
976.526851	23.458466
976.927022	23.448743
977.327155	23.414018
977.727250	23.390923
978.127307	23.373031
978.527325	23.372045
978.927306	23.335666
979.327248	23.320453
979.727151	23.280003
980.127017	23.246629
980.526844	23.270167
980.926633	23.251702
981.326383	23.215021
981.726095	23.233681
982.125769	23.288513
982.525404	23.217061
982.925001	23.161886
983.324560	23.085625
983.724079	22.993967
984.123561	22.957711
984.523004	22.963802
984.922408	22.900720
985.321774	22.875794
985.721102	22.762579
986.120390	22.669456
986.519641	22.654257
986.918852	22.565431
987.318025	22.455679
987.717159	22.354827
988.116255	22.343353
988.515312	22.316764
988.914330	22.268908
989.313310	22.206168
989.712250	22.093562
990.111152	22.036180
990.510015	22.027750
990.908840	21.982739
991.307625	21.857855
991.706372	21.778351
992.105080	21.696980
992.503749	21.610562
992.902379	21.592826
993.300970	21.580317
993.699522	21.491867
994.098035	21.400077
994.496510	21.260539
994.894945	21.180883
995.293341	21.238241
995.691698	21.233842
996.090016	21.336136
996.488296	21.295477
996.886535	21.325574
997.284736	21.286834
997.682898	21.193054
998.081021	21.286236
998.479104	21.309383
998.877148	21.450837
999.275153	21.453108
999.673119	21.514408
1000.071046	21.640633
1000.468933	21.716690
1000.866781	21.740310
1001.264590	21.798002
1001.662359	21.720974
1002.060089	21.966375
1002.457780	21.956141
1002.855431	21.946634
1003.253043	21.978124
1003.650615	22.109417
1004.048148	22.215334
1004.445642	22.282355
1004.843096	22.404073
1005.240511	22.509793
1005.637886	22.585854
1006.035221	22.821135
1006.432517	23.119557
1006.829774	23.362099
1007.226991	23.517944
1007.624168	23.527969
1008.021306	23.646724
1008.418404	23.788849
1008.815462	24.018333
1009.212481	23.892362
1009.609460	24.081310
1010.006399	24.462327
1010.403298	24.454729
1010.800158	24.830620
1011.196978	24.824063
1011.593758	25.239908
1011.990498	25.636644
1012.387199	25.866863
1012.783860	26.115394
1013.180480	26.229902
1013.577061	26.482238
1013.973602	26.875478
1014.370103	27.054727
1014.766564	27.399445
1015.162985	27.553931
1015.559366	27.832588
1015.955708	27.992514
1016.352009	28.262363
1016.748270	28.675268
1017.144491	28.930636
1017.540671	29.005214
1017.936812	29.054640
1018.332913	29.081633
1018.728973	29.161514
1019.124994	29.298523
1019.520974	29.747732
1019.916914	30.096051
1020.312814	30.651278
