Time1=100ms:Average1=5:Objective=10X:Aperture=1: (11/28/2018 10:18:27 AM)
11/28/2018 10:18:27 AM
Reflectance
10X
Ap#: 1
Avg1: 5.000000
Avg2: 0.000000
Int.Time1:100.000000

350.166136	39.082719
350.601937	39.279415
351.037728	39.247913
351.473509	39.403548
351.909281	39.542709
352.345042	39.617868
352.780794	39.774908
353.216536	39.469073
353.652267	39.396325
354.087989	39.712331
354.523701	40.077308
354.959403	39.777017
355.395095	39.714311
355.830777	40.063509
356.266449	40.411806
356.702110	40.790402
357.137762	40.891799
357.573404	41.045705
358.009035	40.739092
358.444656	40.596269
358.880268	40.814504
359.315869	40.829403
359.751459	40.949237
360.187040	40.664049
360.622610	40.641186
361.058170	40.767923
361.493720	40.773067
361.929260	40.680539
362.364789	41.147043
362.800308	41.219404
363.235816	41.283508
363.671314	41.142502
364.106802	41.206253
364.542279	41.271533
364.977746	41.233910
365.413203	40.963855
365.848649	41.064470
366.284084	41.201983
366.719509	41.450456
367.154924	41.376554
367.590328	41.131539
368.025721	41.191067
368.461104	41.650399
368.896477	41.484292
369.331838	41.290379
369.767189	41.478169
370.202530	41.338824
370.637859	41.442629
371.073178	41.118709
371.508486	41.242691
371.943784	41.148866
372.379071	40.877498
372.814347	41.124260
373.249612	41.360390
373.684866	41.627461
374.120110	41.663043
374.555343	41.733380
374.990565	41.705995
375.425776	41.697256
375.860976	41.379611
376.296165	41.363318
376.731343	41.395919
377.166511	41.328316
377.601667	41.181109
378.036812	41.321594
378.471946	41.114012
378.907070	40.980461
379.342182	40.764885
379.777283	40.739130
380.212373	40.639072
380.647452	40.666552
381.082520	40.778618
381.517576	40.361290
381.952622	40.251572
382.387656	40.281739
382.822679	40.345871
383.257691	39.908217
383.692692	40.062435
384.127681	39.718212
384.562659	39.927405
384.997626	40.074228
385.432581	40.069114
385.867525	40.139571
386.302458	39.979303
386.737379	39.853889
387.172289	39.952030
387.607188	39.993143
388.042075	40.106264
388.476951	40.321203
388.911815	40.278249
389.346668	40.350729
389.781509	40.481622
390.216338	40.280595
390.651157	40.283520
391.085963	40.301017
391.520758	40.343782
391.955541	40.465781
392.390313	40.557328
392.825073	40.574838
393.259821	40.601693
393.694558	40.598040
394.129283	40.434238
394.563996	40.468255
394.998698	40.744734
395.433388	40.702522
395.868066	40.682782
396.302732	40.604867
396.737386	40.761336
397.172029	40.298872
397.606659	40.288730
398.041278	39.954365
398.475885	39.821180
398.910480	39.670364
399.345063	39.304084
399.779634	38.856023
400.214194	38.026842
400.648741	37.248744
401.083276	36.391515
401.517799	35.334639
401.952310	34.220494
402.386809	33.125815
402.821296	31.894882
403.255771	30.551242
403.690234	29.365845
404.124684	28.070974
404.559123	26.778970
404.993549	25.352013
405.427963	24.017900
405.862365	22.927020
406.296754	21.932310
406.731131	20.741176
407.165496	19.769251
407.599849	18.786545
408.034190	17.779334
408.468518	16.894899
408.902833	16.120585
409.337137	15.383211
409.771428	14.641748
410.205706	14.007000
410.639973	13.433426
411.074226	12.930495
411.508467	12.491673
411.942696	12.096598
412.376912	11.738181
412.811116	11.386879
413.245307	11.137435
413.679486	10.905922
414.113652	10.678854
414.547805	10.462906
414.981946	10.287809
415.416074	10.120686
415.850190	9.950563
416.284293	9.778590
416.718383	9.639842
417.152460	9.534859
417.586525	9.426592
418.020577	9.338126
418.454616	9.248996
418.888643	9.176776
419.322656	9.085306
419.756657	8.995021
420.190645	8.905670
420.624620	8.800686
421.058582	8.742634
421.492531	8.654079
421.926468	8.580538
422.360391	8.541170
422.794301	8.505739
423.228199	8.488742
423.662083	8.462939
424.095955	8.487840
424.529813	8.475065
424.963658	8.500261
425.397491	8.479402
425.831310	8.475529
426.265116	8.507406
426.698909	8.508002
427.132689	8.531659
427.566455	8.561030
428.000209	8.601339
428.433949	8.629794
428.867676	8.675001
429.301389	8.721136
429.735090	8.798808
430.168777	8.848927
430.602451	8.892502
431.036111	8.913283
431.469759	8.956283
431.903392	8.995801
432.337013	9.051336
432.770620	9.119724
433.204213	9.197470
433.637794	9.307901
434.071360	9.425763
434.504914	9.560601
434.938453	9.717444
435.371979	9.883905
435.805492	10.053604
436.238991	10.247045
436.672477	10.432182
437.105949	10.634940
437.539407	10.823401
437.972852	11.025520
438.406283	11.211166
438.839700	11.446626
439.273104	11.693939
439.706494	11.941330
440.139871	12.219354
440.573233	12.502455
441.006582	12.788775
441.439917	13.101447
441.873238	13.401731
442.306546	13.686805
442.739839	13.988211
443.173119	14.261994
443.606385	14.548317
444.039636	14.825057
444.472874	15.125547
444.906099	15.411006
445.339309	15.740054
445.772505	16.091242
446.205687	16.456970
446.638855	16.854669
447.072009	17.266333
447.505149	17.699521
447.938275	18.141278
448.371387	18.583107
448.804485	19.033671
449.237569	19.474452
449.670638	19.883330
450.103694	20.272732
450.536735	20.634731
450.969762	21.001918
451.402774	21.380966
451.835773	21.779298
452.268757	22.162039
452.701727	22.560979
453.134683	22.985661
453.567624	23.392760
454.000551	23.798015
454.433464	24.206531
454.866362	24.557048
455.299246	24.908682
455.732116	25.245817
456.164971	25.553646
456.597811	25.849659
457.030638	26.157907
457.463449	26.453736
457.896246	26.772152
458.329029	27.088661
458.761797	27.406366
459.194551	27.731278
459.627290	28.058724
460.060014	28.396107
460.492724	28.743381
460.925419	29.087575
461.358099	29.425593
461.790765	29.743388
462.223416	30.051291
462.656052	30.324299
463.088674	30.588647
463.521281	30.857273
463.953873	31.118077
464.386450	31.362343
464.819012	31.629398
465.251560	31.892692
465.684093	32.186393
466.116611	32.484396
466.549114	32.788009
466.981602	33.088020
467.414075	33.381143
467.846533	33.636582
468.278977	33.920165
468.711405	34.172942
469.143818	34.393624
469.576216	34.597009
470.008600	34.800498
470.440968	34.950480
470.873321	35.137975
471.305659	35.304334
471.737982	35.461058
472.170289	35.595375
472.602582	35.720054
473.034859	35.849989
473.467122	35.962161
473.899369	36.061046
474.331600	36.175688
474.763817	36.300837
475.196018	36.460153
475.628204	36.639501
476.060375	36.848652
476.492530	37.071858
476.924670	37.296226
477.356795	37.498348
477.788904	37.690811
478.220998	37.851152
478.653076	38.001973
479.085139	38.128937
479.517186	38.241939
479.949219	38.347333
480.381235	38.482423
480.813236	38.644668
481.245221	38.849525
481.677191	39.044999
482.109146	39.260680
482.541084	39.499405
482.973008	39.741021
483.404915	39.971800
483.836807	40.178703
484.268683	40.345007
484.700544	40.467212
485.132388	40.573453
485.564217	40.665207
485.996031	40.725931
486.427828	40.759348
486.859610	40.775522
487.291376	40.786622
487.723126	40.796024
488.154860	40.800047
488.586579	40.831814
489.018281	40.866198
489.449968	40.936104
489.881639	41.058937
490.313293	41.211046
490.744932	41.409155
491.176555	41.630117
491.608162	41.863104
492.039753	42.075522
492.471328	42.260157
492.902886	42.398295
493.334429	42.493573
493.765956	42.539971
494.197466	42.553998
494.628960	42.562182
495.060439	42.573124
495.491901	42.608110
495.923347	42.694567
496.354776	42.799120
496.786190	42.945408
497.217587	43.157420
497.648968	43.383102
498.080332	43.624021
498.511681	43.849304
498.943013	44.060550
499.374328	44.250835
499.805628	44.393582
500.236911	44.510853
500.668177	44.588977
501.099427	44.621081
501.530661	44.620950
501.961878	44.574355
502.393079	44.491078
502.824264	44.378252
503.255431	44.219346
503.686583	44.071927
504.117717	43.916790
504.548835	43.768634
504.979937	43.642852
505.411022	43.550951
505.842090	43.507077
506.273142	43.519479
506.704177	43.549719
507.135195	43.603101
507.566197	43.644247
507.997182	43.673303
508.428150	43.665084
508.859102	43.607733
509.290036	43.473873
509.720954	43.285019
510.151855	43.057711
510.582739	42.777565
511.013607	42.492107
511.444457	42.198601
511.875291	41.941739
512.306107	41.709328
512.736907	41.524936
513.167690	41.403536
513.598456	41.310832
514.029205	41.248587
514.459936	41.193330
514.890651	41.130519
515.321349	41.056160
515.752030	40.978905
516.182693	40.875174
516.613340	40.752804
517.043969	40.582695
517.474582	40.392586
517.905177	40.167819
518.335755	39.929253
518.766315	39.669826
519.196859	39.385621
519.627385	39.085679
520.057894	38.791978
520.488386	38.522683
520.918860	38.289727
521.349318	38.081684
521.779757	37.931556
522.210180	37.854100
522.640585	37.851156
523.070973	37.944539
523.501343	38.097655
523.931696	38.320637
524.362031	38.586902
524.792349	38.909023
525.222650	39.239849
525.652933	39.570450
526.083198	39.879141
526.513446	40.164670
526.943677	40.433705
527.373890	40.675567
527.804085	40.896763
528.234262	41.135488
528.664422	41.374167
529.094565	41.624160
529.524689	41.899836
529.954796	42.208314
530.384885	42.548441
530.814957	42.930650
531.245011	43.339906
531.675047	43.767826
532.105065	44.212834
532.535065	44.664989
532.965048	45.106668
533.395013	45.533998
533.824959	45.910579
534.254888	46.248065
534.684799	46.531230
535.114693	46.775130
535.544568	46.960593
535.974425	47.081947
536.404264	47.144085
536.834086	47.155869
537.263889	47.120418
537.693674	47.044654
538.123441	46.929870
538.553190	46.789704
538.982921	46.638616
539.412634	46.509518
539.842329	46.383534
540.272006	46.271450
540.701664	46.182064
541.131304	46.130483
541.560926	46.094503
541.990530	46.088680
542.420116	46.097885
542.849683	46.104498
543.279232	46.102830
543.708763	46.101191
544.138275	46.069487
544.567769	46.008090
544.997245	45.896300
545.426702	45.748441
545.856141	45.563150
546.285562	45.346995
546.714964	45.107867
547.144347	44.863731
547.573713	44.618970
548.003059	44.403598
548.432387	44.200556
548.861697	44.005815
549.290988	43.853187
549.720260	43.727872
550.149514	43.638295
550.578750	43.577488
551.007966	43.546610
551.437164	43.545008
551.866344	43.568501
552.295504	43.603094
552.724646	43.625995
553.153769	43.657293
553.582874	43.654740
554.011960	43.630724
554.441027	43.575235
554.870075	43.475821
555.299104	43.329140
555.728115	43.137152
556.157106	42.907448
556.586079	42.654845
557.015033	42.370195
557.443968	42.069382
557.872884	41.778217
558.301781	41.508659
558.730659	41.253640
559.159518	41.026674
559.588358	40.825267
560.017180	40.653992
560.445982	40.523478
560.874765	40.420514
561.303528	40.330789
561.732273	40.260620
562.160999	40.204886
562.589705	40.154904
563.018393	40.108164
563.447061	40.061172
563.875710	39.996119
564.304340	39.929894
564.732950	39.850111
565.161542	39.752844
565.590114	39.649421
566.018666	39.529744
566.447200	39.394698
566.875714	39.268512
567.304208	39.144815
567.732684	39.021712
568.161140	38.917747
568.589576	38.832864
569.017993	38.785536
569.446391	38.767201
569.874769	38.793198
570.303128	38.852514
570.731467	38.968462
571.159787	39.130086
571.588087	39.329541
572.016368	39.585926
572.444629	39.877807
572.872870	40.203994
573.301092	40.545453
573.729294	40.894809
574.157476	41.244063
574.585639	41.577821
575.013782	41.883021
575.441906	42.167051
575.870009	42.399158
576.298093	42.596675
576.726157	42.739708
577.154202	42.848594
577.582226	42.923199
578.010231	42.962721
578.438216	42.983596
578.866181	42.982193
579.294126	42.980736
579.722051	42.968066
580.149957	42.958745
580.577842	42.943261
581.005707	42.933348
581.433553	42.919433
581.861378	42.899556
582.289184	42.866887
582.716969	42.827826
583.144734	42.774728
583.572479	42.709200
584.000205	42.612377
584.427910	42.491660
584.855594	42.344684
585.283259	42.172428
585.710904	41.974616
586.138528	41.766268
586.566132	41.548916
586.993716	41.311831
587.421280	41.067736
587.848823	40.821674
588.276346	40.572536
588.703849	40.307530
589.131332	40.061596
589.558794	39.801922
589.986236	39.551148
590.413657	39.305976
590.841058	39.058652
591.268438	38.822491
591.695799	38.602283
592.123138	38.410839
592.550458	38.231100
592.977756	38.089354
593.405034	37.988690
593.832292	37.930336
594.259529	37.911234
594.686746	37.937239
595.113942	38.012427
595.541117	38.126613
595.968272	38.282404
596.395406	38.457655
596.822519	38.651688
597.249612	38.853525
597.676684	39.059336
598.103735	39.258178
598.530766	39.440955
598.957775	39.599387
599.384764	39.730984
599.811733	39.838498
600.238680	39.927967
600.665606	39.988271
601.092512	40.030205
601.519397	40.054250
601.946261	40.082378
602.373104	40.093311
602.799926	40.105321
603.226727	40.107408
603.653507	40.114628
604.080266	40.121620
604.507004	40.123371
604.933721	40.108325
605.360417	40.069304
605.787092	40.005574
606.213746	39.918152
606.640379	39.788034
607.066991	39.625120
607.493581	39.436348
607.920150	39.197140
608.346699	38.921461
608.773226	38.614500
609.199731	38.280666
609.626216	37.925567
610.052679	37.555815
610.479121	37.178177
610.905542	36.788968
611.331941	36.403477
611.758319	36.018093
612.184676	35.640527
612.611011	35.267024
613.037325	34.907443
613.463617	34.558102
613.889888	34.215344
614.316138	33.881589
614.742366	33.560079
615.168573	33.246622
615.594758	32.943917
616.020921	32.670100
616.447063	32.428136
616.873184	32.206558
617.299283	32.011983
617.725360	31.859041
618.151416	31.755564
618.577450	31.694323
619.003462	31.694891
619.429453	31.741993
619.855422	31.837201
620.281369	31.980265
620.707295	32.164482
621.133199	32.407657
621.559081	32.689023
621.984941	32.995719
622.410779	33.316650
622.836596	33.651813
623.262391	33.996734
623.688163	34.338121
624.113914	34.677852
624.539644	35.013301
624.965351	35.338561
625.391036	35.653157
625.816699	35.954724
626.242340	36.233151
626.667960	36.498922
627.093557	36.758400
627.519132	37.005273
627.944685	37.250020
628.370216	37.488368
628.795725	37.715490
629.221212	37.910998
629.646677	38.079455
630.072119	38.223646
630.497540	38.344260
630.922938	38.423913
631.348314	38.458966
631.773668	38.455873
632.198999	38.399065
632.624308	38.297054
633.049595	38.152527
633.474860	37.965343
633.900102	37.739982
634.325322	37.476789
634.750520	37.177727
635.175695	36.860362
635.600848	36.536245
636.025978	36.200184
636.451086	35.858396
636.876171	35.524885
637.301234	35.195306
637.726275	34.870658
638.151293	34.550476
638.576288	34.243065
639.001261	33.944213
639.426211	33.659073
639.851139	33.374486
640.276044	33.101842
640.700927	32.835059
641.125787	32.568664
641.550624	32.297702
641.975438	32.026758
642.400230	31.762712
642.824999	31.495138
643.249745	31.231381
643.674469	30.966064
644.099169	30.714398
644.523847	30.470530
644.948502	30.239192
645.373135	30.025148
645.797744	29.820417
646.222330	29.631353
646.646894	29.461174
647.071435	29.310618
647.495953	29.170575
647.920447	29.054073
648.344919	28.951468
648.769368	28.861635
649.193794	28.782078
649.618197	28.715809
650.042576	28.664818
650.466933	28.628133
650.891267	28.597109
651.315577	28.584397
651.739864	28.584177
652.164129	28.601138
652.588370	28.633841
653.012587	28.676588
653.436782	28.727957
653.860953	28.794474
654.285102	28.870115
654.709226	28.963508
655.133328	29.068661
655.557406	29.187880
655.981461	29.330716
656.405493	29.489907
656.829501	29.651135
657.253486	29.815235
657.677448	29.983207
658.101386	30.151646
658.525301	30.314047
658.949192	30.470850
659.373060	30.625082
659.796904	30.768605
660.220725	30.897902
660.644522	31.015678
661.068296	31.117188
661.492046	31.212345
661.915772	31.293090
662.339475	31.371837
662.763154	31.445039
663.186810	31.513733
663.610442	31.586142
664.034050	31.670255
664.457635	31.760449
664.881196	31.866427
665.304733	31.984072
665.728247	32.124946
666.151736	32.290069
666.575202	32.480163
666.998644	32.690038
667.422062	32.924517
667.845457	33.180564
668.268827	33.456272
668.692174	33.739900
669.115496	34.021846
669.538795	34.297707
669.962070	34.583644
670.385321	34.856492
670.808547	35.104747
671.231750	35.329657
671.654929	35.532326
672.078084	35.713462
672.501214	35.859038
672.924321	35.976832
673.347404	36.069873
673.770462	36.135503
674.193496	36.190294
674.616506	36.224700
675.039492	36.243676
675.462454	36.246616
675.885391	36.237425
676.308305	36.217859
676.731194	36.195313
677.154058	36.166025
677.576899	36.129560
677.999715	36.085663
678.422507	36.038392
678.845274	35.984564
679.268017	35.921512
679.690736	35.845328
680.113430	35.756632
680.536100	35.650167
680.958746	35.529505
681.381367	35.389735
681.803963	35.248854
682.226535	35.099005
682.649083	34.950991
683.071605	34.794584
683.494104	34.637489
683.916578	34.494928
684.339027	34.359657
684.761451	34.231879
685.183851	34.116547
685.606227	34.009118
686.028577	33.912017
686.450903	33.822922
686.873204	33.746236
687.295481	33.659045
687.717733	33.577495
688.139959	33.504281
688.562162	33.429174
688.984339	33.353935
689.406492	33.276213
689.828619	33.191668
690.250722	33.091877
690.672800	32.989802
691.094853	32.879522
691.516881	32.757667
691.938884	32.614890
692.360863	32.461798
692.782816	32.306818
693.204744	32.141861
693.626647	31.979545
694.048526	31.817383
694.470379	31.658222
694.892207	31.502484
695.314010	31.361092
695.735788	31.224524
696.157540	31.102115
696.579268	30.993743
697.000970	30.907820
697.422648	30.839911
697.844300	30.796563
698.265926	30.771169
698.687528	30.781106
699.109104	30.815797
699.530655	30.873447
699.952181	30.952158
700.373681	31.063407
700.795156	31.184254
701.216606	31.319810
701.638030	31.468355
702.059429	31.626085
702.480803	31.784468
702.902151	31.931655
703.323473	32.083906
703.744770	32.219794
704.166042	32.349926
704.587288	32.466435
705.008509	32.577327
705.429704	32.674041
705.850873	32.751164
706.272017	32.816103
706.693135	32.868856
707.114228	32.906750
707.535295	32.943165
707.956336	32.966771
708.377352	32.981005
708.798342	32.987660
709.219306	32.994819
709.640245	33.003720
710.061157	33.006520
710.482044	33.013026
710.902905	33.019715
711.323741	33.027467
711.744550	33.031332
712.165334	33.025402
712.586092	33.018775
713.006823	33.014518
713.427529	33.000056
713.848209	32.994429
714.268863	32.983664
714.689492	32.976737
715.110094	32.968791
715.530670	32.966407
715.951220	32.983106
716.371744	32.999143
716.792242	33.036194
717.212714	33.070226
717.633159	33.118369
718.053579	33.173678
718.473973	33.242621
718.894340	33.313980
719.314681	33.394490
719.734996	33.467612
720.155285	33.540805
720.575547	33.609202
720.995784	33.663727
721.415994	33.707759
721.836177	33.740787
722.256335	33.743243
722.676466	33.719040
723.096570	33.671263
723.516649	33.591446
723.936701	33.483375
724.356726	33.343980
724.776725	33.173113
725.196698	32.982117
725.616644	32.765697
726.036564	32.525545
726.456457	32.277709
726.876324	32.006061
727.296164	31.725601
727.715977	31.428943
728.135764	31.130421
728.555525	30.829529
728.975258	30.519968
729.394966	30.216433
729.814646	29.905410
730.234300	29.608871
730.653927	29.322884
731.073527	29.045899
731.493101	28.782508
731.912648	28.540603
732.332168	28.315827
732.751661	28.121135
733.171128	27.950906
733.590568	27.806966
734.009980	27.689712
734.429366	27.596796
734.848726	27.532585
735.268058	27.495033
735.687363	27.488864
736.106641	27.501689
736.525893	27.546043
736.945117	27.610520
737.364314	27.691403
737.783485	27.792264
738.202628	27.903948
738.621744	28.026287
739.040834	28.157817
739.459896	28.289271
739.878931	28.429983
740.297939	28.567100
740.716919	28.703082
741.135873	28.831699
741.554799	28.952113
741.973698	29.062709
742.392570	29.159443
742.811415	29.247680
743.230232	29.322585
743.649022	29.383896
744.067785	29.432644
744.486521	29.460063
744.905229	29.469856
745.323909	29.473742
745.742563	29.464153
746.161189	29.436169
746.579787	29.396287
746.998358	29.352110
747.416902	29.294588
747.835418	29.235459
748.253907	29.170014
748.672368	29.105142
749.090802	29.042068
749.509208	28.974639
749.927586	28.915180
750.345937	28.865426
750.764261	28.813000
751.182556	28.780098
751.600824	28.749799
752.019065	28.730193
752.437277	28.721346
752.855462	28.722469
753.273620	28.723079
753.691749	28.748166
754.109851	28.779254
754.527925	28.813485
754.945971	28.865745
755.363989	28.925286
755.781980	28.991921
756.199943	29.058075
756.617877	29.116092
757.035784	29.167048
757.453663	29.222212
757.871514	29.272537
758.289337	29.307834
758.707132	29.322038
759.124899	29.331764
759.542639	29.314677
759.960350	29.284091
760.378033	29.241064
760.795688	29.162314
761.213314	29.072034
761.630913	28.949865
762.048484	28.806613
762.466026	28.643746
762.883541	28.453786
763.301027	28.250856
763.718485	28.043458
764.135914	27.806974
764.553316	27.557241
764.970689	27.303396
765.388034	27.038205
765.805351	26.769735
766.222639	26.508467
766.639899	26.236051
767.057131	25.966766
767.474334	25.709531
767.891509	25.452122
768.308655	25.205335
768.725773	24.973270
769.142863	24.759193
769.559924	24.560782
769.976957	24.382603
770.393961	24.223232
770.810936	24.086568
771.227883	23.969854
771.644802	23.877742
772.061692	23.808660
772.478553	23.761283
772.895386	23.732330
773.312190	23.726923
773.728965	23.750428
774.145712	23.802615
774.562430	23.872734
774.979119	23.969527
775.395780	24.083408
775.812411	24.217955
776.229014	24.366964
776.645589	24.524312
777.062134	24.700528
777.478651	24.891473
777.895138	25.086368
778.311597	25.291786
778.728027	25.496329
779.144428	25.708655
779.560800	25.911134
779.977143	26.114465
780.393458	26.309170
780.809743	26.496846
781.225999	26.676477
781.642226	26.836619
782.058425	26.983276
782.474594	27.123234
782.890734	27.252659
783.306845	27.358713
783.722926	27.441953
784.138979	27.505586
784.555003	27.550724
784.970997	27.575408
785.386962	27.592592
785.802898	27.585179
786.218805	27.568260
786.634682	27.535425
787.050531	27.475423
787.466349	27.418700
787.882139	27.345773
788.297899	27.269084
788.713630	27.191047
789.129332	27.111335
789.545004	27.031419
789.960647	26.959837
790.376260	26.898506
790.791844	26.843535
791.207399	26.796858
791.622924	26.755821
792.038419	26.724716
792.453885	26.713957
792.869321	26.721274
793.284728	26.748732
793.700106	26.783901
794.115453	26.837073
794.530771	26.899096
794.946060	26.979341
795.361319	27.067667
795.776548	27.167624
796.191747	27.275154
796.606917	27.391496
797.022057	27.507199
797.437167	27.623123
797.852248	27.730397
798.267298	27.830401
798.682319	27.933227
799.097310	28.021515
799.512271	28.100743
799.927203	28.173715
800.342104	28.229755
800.756976	28.264323
801.171818	28.284328
801.586629	28.284308
802.001411	28.262530
802.416163	28.219427
802.830885	28.170279
803.245577	28.102745
803.660238	28.016524
804.074870	27.915300
804.489472	27.804349
804.904043	27.678380
805.318585	27.543590
805.733096	27.387560
806.147577	27.216519
806.562028	27.040435
806.976449	26.848969
807.390840	26.656288
807.805200	26.443850
808.219530	26.226581
808.633830	25.998262
809.048100	25.767889
809.462339	25.535531
809.876548	25.304730
810.290727	25.078546
810.704875	24.847290
811.118993	24.618531
811.533080	24.385313
811.947137	24.154915
812.361164	23.927979
812.775160	23.705227
813.189126	23.490458
813.603061	23.289229
814.016966	23.095325
814.430840	22.910550
814.844684	22.731584
815.258497	22.577827
815.672280	22.419219
816.086032	22.276389
816.499753	22.140326
816.913444	22.021701
817.327104	21.919788
817.740733	21.834268
818.154331	21.760404
818.567899	21.709509
818.981436	21.673646
819.394943	21.655023
819.808418	21.658296
820.221863	21.670346
820.635277	21.706988
821.048660	21.762998
821.462013	21.830368
821.875334	21.915040
822.288625	22.019203
822.701884	22.137129
823.115113	22.270270
823.528311	22.421986
823.941478	22.574235
824.354614	22.746090
824.767718	22.916021
825.180792	23.084601
825.593835	23.256106
826.006847	23.413727
826.419827	23.573290
826.832777	23.715720
827.245695	23.849643
827.658582	23.968275
828.071438	24.060147
828.484263	24.129108
828.897057	24.170143
829.309819	24.197274
829.722551	24.194409
830.135251	24.164853
830.547919	24.111202
830.960557	24.031276
831.373163	23.923759
831.785738	23.794554
832.198281	23.654192
832.610793	23.493589
833.023274	23.331274
833.435723	23.151617
833.848141	22.961365
834.260528	22.768983
834.672883	22.579524
835.085206	22.384642
835.497498	22.190731
835.909758	22.002007
836.321987	21.820117
836.734185	21.660399
837.146350	21.506221
837.558485	21.374355
837.970587	21.262060
838.382658	21.164335
838.794697	21.088993
839.206705	21.026598
839.618681	20.994786
840.030625	20.972241
840.442538	20.984980
840.854418	21.011952
841.266267	21.066353
841.678084	21.157851
842.089870	21.266027
842.501623	21.381949
842.913345	21.515402
843.325035	21.662816
843.736693	21.813678
844.148319	21.981761
844.559913	22.159551
844.971475	22.330766
845.383005	22.509816
845.794504	22.681096
846.205970	22.856755
846.617404	23.018967
847.028806	23.180323
847.440176	23.326626
847.851514	23.468154
848.262820	23.603091
848.674094	23.723006
849.085336	23.828190
849.496546	23.914673
849.907723	23.974026
850.318868	24.028463
850.729981	24.054129
851.141062	24.066123
851.552110	24.063035
851.963127	24.038622
852.374111	23.992625
852.785062	23.928833
853.195982	23.841091
853.606869	23.743413
854.017723	23.633523
854.428546	23.482230
854.839336	23.333854
855.250093	23.183417
855.660818	23.033986
856.071511	22.854160
856.482171	22.705981
856.892799	22.535989
857.303394	22.373932
857.713956	22.208200
858.124486	22.054780
858.534984	21.909186
858.945449	21.756530
859.355881	21.616048
859.766280	21.479374
860.176647	21.358443
860.586982	21.235902
860.997283	21.117947
861.407552	21.002620
861.817789	20.906683
862.227992	20.820677
862.638163	20.758644
863.048301	20.681628
863.458406	20.625329
863.868478	20.568817
864.278518	20.529630
864.688524	20.505281
865.098498	20.477501
865.508439	20.469161
865.918347	20.466941
866.328222	20.480442
866.738064	20.509794
867.147873	20.556879
867.557649	20.597768
867.967392	20.657904
868.377102	20.726023
868.786779	20.823792
869.196423	20.920798
869.606034	21.030769
870.015612	21.151680
870.425156	21.294669
870.834668	21.440586
871.244146	21.600092
871.653591	21.764870
872.063003	21.951377
872.472382	22.143786
872.881728	22.348631
873.291040	22.546441
873.700319	22.752281
874.109564	22.964418
874.518777	23.179240
874.927956	23.393770
875.337102	23.598686
875.746214	23.819030
876.155293	24.029377
876.564338	24.257302
876.973350	24.463223
877.382329	24.655022
877.791274	24.848692
878.200186	25.041497
878.609064	25.228592
879.017909	25.405979
879.426720	25.558930
879.835497	25.714453
880.244241	25.851170
880.652952	25.981417
881.061629	26.096060
881.470272	26.205231
881.878881	26.283946
882.287457	26.373091
882.695999	26.428789
883.104507	26.487117
883.512982	26.533725
883.921423	26.576407
884.329830	26.624120
884.738203	26.648801
885.146543	26.668433
885.554849	26.681653
885.963120	26.695155
886.371358	26.714613
886.779563	26.731829
887.187733	26.754794
887.595869	26.782217
888.003971	26.811880
888.412040	26.836345
888.820074	26.859652
889.228074	26.893770
889.636041	26.924645
890.043973	26.975477
890.451871	27.036442
890.859736	27.091944
891.267566	27.153034
891.675362	27.212440
892.083124	27.275407
892.490851	27.352741
892.898545	27.432629
893.306204	27.511583
893.713829	27.588048
894.121420	27.669453
894.528977	27.763695
894.936499	27.869331
895.343987	28.000063
895.751441	28.103773
896.158860	28.209681
896.566246	28.329198
896.973596	28.444495
897.380913	28.567388
897.788195	28.688320
898.195442	28.811695
898.602655	28.941393
899.009834	29.072514
899.416978	29.191361
899.824088	29.299810
900.231163	29.421767
900.638204	29.524079
901.045210	29.627291
901.452181	29.734955
901.859118	29.812577
902.266021	29.911162
902.672888	29.997713
903.079721	30.082229
903.486520	30.153272
903.893283	30.216157
904.300012	30.271726
904.706707	30.325397
905.113366	30.349959
905.519991	30.405878
905.926581	30.440877
906.333136	30.449288
906.739656	30.465140
907.146142	30.467718
907.552592	30.452027
907.959008	30.418677
908.365389	30.396741
908.771735	30.364390
909.178046	30.310024
909.584322	30.272487
909.990563	30.210320
910.396769	30.163380
910.802940	30.089728
911.209076	30.031300
911.615177	29.955884
912.021243	29.896006
912.427274	29.825984
912.833270	29.743291
913.239231	29.702502
913.645156	29.653987
914.051046	29.603905
914.456902	29.569443
914.862721	29.534880
915.268506	29.491438
915.674256	29.440701
916.079970	29.423235
916.485649	29.406608
916.891292	29.374335
917.296901	29.365566
917.702474	29.355209
918.108011	29.333398
918.513514	29.315498
918.918980	29.316455
919.324412	29.308272
919.729808	29.302255
920.135169	29.298249
920.540494	29.293212
920.945783	29.285314
921.351037	29.286501
921.756256	29.283649
922.161439	29.256682
922.566586	29.263230
922.971698	29.250170
923.376775	29.245667
923.781815	29.246296
924.186820	29.226901
924.591790	29.224845
924.996723	29.229796
925.401621	29.244378
925.806484	29.227167
926.211310	29.206972
926.616101	29.187617
927.020856	29.149602
927.425575	29.106165
927.830259	29.077391
928.234906	29.046248
928.639518	29.002216
929.044094	28.959979
929.448634	28.943419
929.853138	28.900572
930.257606	28.879848
930.662038	28.847162
931.066434	28.812599
931.470795	28.774709
931.875119	28.730631
932.279407	28.706505
932.683659	28.667395
933.087875	28.625996
933.492055	28.595204
933.896199	28.558063
934.300307	28.528567
934.704379	28.509622
935.108414	28.483914
935.512414	28.460945
935.916377	28.450061
936.320304	28.429335
936.724195	28.418547
937.128049	28.403485
937.531867	28.386957
937.935649	28.348908
938.339395	28.315374
938.743104	28.309116
939.146777	28.307695
939.550414	28.315810
939.954014	28.323408
940.357578	28.329227
940.761105	28.318250
941.164596	28.310128
941.568050	28.307245
941.971468	28.296642
942.374850	28.266788
942.778195	28.237361
943.181503	28.218624
943.584775	28.234078
943.988010	28.252103
944.391209	28.242258
944.794371	28.226047
945.197496	28.186895
945.600585	28.164380
946.003637	28.143041
946.406653	28.103893
946.809632	28.051223
947.212574	28.008487
947.615479	27.944105
948.018347	27.873087
948.421179	27.798898
948.823974	27.721085
949.226732	27.659772
949.629453	27.570217
950.032138	27.468155
950.434785	27.388566
950.837396	27.305802
951.239969	27.209763
951.642506	27.120301
952.045006	27.015312
952.447469	26.920270
952.849895	26.799755
953.252283	26.728368
953.654635	26.635529
954.056950	26.509680
954.459227	26.417838
954.861468	26.367133
955.263671	26.258064
955.665838	26.206409
956.067967	26.082215
956.470059	25.975626
956.872114	25.909611
957.274131	25.848980
957.676112	25.794815
958.078055	25.719735
958.479961	25.647348
958.881829	25.602212
959.283661	25.564905
959.685455	25.528365
960.087211	25.484718
960.488931	25.476076
960.890613	25.427491
961.292257	25.349355
961.693864	25.318274
962.095434	25.274260
962.496966	25.201171
962.898461	25.113164
963.299918	25.068300
963.701338	24.976159
964.102720	24.881886
964.504065	24.813164
964.905372	24.699592
965.306641	24.591923
965.707873	24.516682
966.109068	24.418866
966.510224	24.384970
966.911343	24.274426
967.312425	24.182843
967.713468	24.124667
968.114474	23.962145
968.515442	23.859647
968.916373	23.774290
969.317265	23.660364
969.718120	23.516096
970.118937	23.414980
970.519716	23.346835
970.920458	23.242914
971.321161	23.152946
971.721827	23.039861
972.122454	22.925864
972.523044	22.871212
972.923596	22.773871
973.324110	22.717986
973.724585	22.665844
974.125023	22.553617
974.525423	22.485393
974.925785	22.457342
975.326108	22.420185
975.726394	22.340644
976.126642	22.275969
976.526851	22.213155
976.927022	22.158652
977.327155	22.159638
977.727250	22.138528
978.127307	22.059254
978.527325	22.038247
978.927306	21.956171
979.327248	21.953983
979.727151	21.878292
980.127017	21.836670
980.526844	21.790951
980.926633	21.726291
981.326383	21.683876
981.726095	21.650740
982.125769	21.615699
982.525404	21.544642
982.925001	21.453230
983.324560	21.429694
983.724079	21.327212
984.123561	21.303406
984.523004	21.283307
984.922408	21.212464
985.321774	21.166956
985.721102	21.062929
986.120390	20.973094
986.519641	20.926525
986.918852	20.806435
987.318025	20.745415
987.717159	20.658476
988.116255	20.603055
988.515312	20.644872
988.914330	20.646476
989.313310	20.619608
989.712250	20.507179
990.111152	20.484565
990.510015	20.490614
990.908840	20.440334
991.307625	20.391625
991.706372	20.359214
992.105080	20.314377
992.503749	20.214540
992.902379	20.212400
993.300970	20.236713
993.699522	20.183338
994.098035	20.138978
994.496510	20.093722
994.894945	20.155784
995.293341	20.226709
995.691698	20.190875
996.090016	20.256347
996.488296	20.233127
996.886535	20.265115
997.284736	20.251628
997.682898	20.171403
998.081021	20.202044
998.479104	20.297802
998.877148	20.448010
999.275153	20.583220
999.673119	20.593518
1000.071046	20.678597
1000.468933	20.782383
1000.866781	20.730648
1001.264590	20.724195
1001.662359	20.701116
1002.060089	20.947182
1002.457780	20.959079
1002.855431	20.985446
1003.253043	20.943385
1003.650615	21.138729
1004.048148	21.112561
1004.445642	21.280150
1004.843096	21.512283
1005.240511	21.722860
1005.637886	21.911221
1006.035221	22.111993
1006.432517	22.433360
1006.829774	22.739058
1007.226991	22.825654
1007.624168	22.992313
1008.021306	23.231942
1008.418404	23.303099
1008.815462	23.582037
1009.212481	23.647730
1009.609460	23.769653
1010.006399	23.978541
1010.403298	24.164246
1010.800158	24.410962
1011.196978	24.433092
1011.593758	24.564413
1011.990498	24.898027
1012.387199	25.322059
1012.783860	25.473020
1013.180480	25.707943
1013.577061	25.826216
1013.973602	26.148252
1014.370103	26.233493
1014.766564	26.595007
1015.162985	26.873857
1015.559366	27.285340
1015.955708	27.382212
1016.352009	27.712912
1016.748270	27.948392
1017.144491	28.034682
1017.540671	28.033943
1017.936812	28.154814
1018.332913	28.362709
1018.728973	28.258719
1019.124994	28.270042
1019.520974	28.458050
1019.916914	28.464705
1020.312814	28.408904
