Time1=100ms:Average1=5:Objective=10X:Aperture=1: (11/28/2018 10:19:28 AM)
11/28/2018 10:19:28 AM
Reflectance
10X
Ap#: 1
Avg1: 5.000000
Avg2: 0.000000
Int.Time1:100.000000

350.166136	38.181818
350.601937	38.187621
351.037728	38.051803
351.473509	38.040963
351.909281	38.170837
352.345042	38.588379
352.780794	38.649450
353.216536	38.566673
353.652267	38.678915
354.087989	38.756359
354.523701	38.961609
354.959403	38.609428
355.395095	38.576845
355.830777	38.802152
356.266449	38.980205
356.702110	39.396613
357.137762	39.830134
357.573404	39.649653
358.009035	39.643811
358.444656	39.230563
358.880268	39.715995
359.315869	39.725905
359.751459	39.727005
360.187040	39.637629
360.622610	39.694588
361.058170	39.684955
361.493720	39.989312
361.929260	40.037510
362.364789	40.459175
362.800308	40.231420
363.235816	40.005326
363.671314	39.987562
364.106802	39.927163
364.542279	40.330314
364.977746	40.621394
365.413203	40.600638
365.848649	40.329437
366.284084	40.281466
366.719509	40.281590
367.154924	40.053286
367.590328	39.790390
368.025721	39.844027
368.461104	40.266193
368.896477	40.116484
369.331838	40.014083
369.767189	39.996493
370.202530	39.665294
370.637859	39.307679
371.073178	39.663335
371.508486	39.828955
371.943784	39.966977
372.379071	39.322328
372.814347	39.105465
373.249612	39.261453
373.684866	39.632340
374.120110	39.636427
374.555343	39.758093
374.990565	39.853173
375.425776	39.783255
375.860976	39.914537
376.296165	40.007000
376.731343	39.950959
377.166511	39.901995
377.601667	40.094629
378.036812	39.900619
378.471946	39.695387
378.907070	39.619679
379.342182	39.443720
379.777283	39.582609
380.212373	39.825078
380.647452	39.829045
381.082520	40.099691
381.517576	40.129032
381.952622	39.872491
382.387656	39.987901
382.822679	39.948119
383.257691	39.890900
383.692692	39.776275
384.127681	39.856513
384.562659	39.823697
384.997626	39.504574
385.432581	39.429806
385.867525	39.605411
386.302458	39.686099
386.737379	39.630425
387.172289	39.746445
387.607188	39.727436
388.042075	39.626360
388.476951	39.842816
388.911815	39.726841
389.346668	39.579803
389.781509	39.594423
390.216338	39.536849
390.651157	39.287824
391.085963	39.115446
391.520758	39.256825
391.955541	39.280309
392.390313	39.281518
392.825073	39.381461
393.259821	39.436856
393.694558	39.257894
394.129283	39.348643
394.563996	39.426762
394.998698	39.467573
395.433388	39.687126
395.868066	39.768562
396.302732	39.718495
396.737386	39.820910
397.172029	40.030132
397.606659	39.706418
398.041278	39.393939
398.475885	39.495331
398.910480	39.339942
399.345063	39.000156
399.779634	38.940535
400.214194	38.464148
400.648741	37.573899
401.083276	36.846093
401.517799	35.943073
401.952310	34.781874
402.386809	33.738592
402.821296	32.526092
403.255771	31.261945
403.690234	30.035767
404.124684	28.911310
404.559123	27.539407
404.993549	25.931246
405.427963	24.666020
405.862365	23.460922
406.296754	22.376431
406.731131	21.100901
407.165496	20.106932
407.599849	19.032745
408.034190	18.008063
408.468518	17.061768
408.902833	16.216482
409.337137	15.440262
409.771428	14.673550
410.205706	13.975452
410.639973	13.343379
411.074226	12.829328
411.508467	12.329548
411.942696	11.888634
412.376912	11.545333
412.811116	11.222664
413.245307	10.911863
413.679486	10.625395
414.113652	10.389258
414.547805	10.167617
414.981946	9.991625
415.416074	9.854224
415.850190	9.710332
416.284293	9.578194
416.718383	9.466763
417.152460	9.410290
417.586525	9.320913
418.020577	9.252980
418.454616	9.203960
418.888643	9.120679
419.322656	9.043991
419.756657	8.974082
420.190645	8.919596
420.624620	8.825799
421.058582	8.766964
421.492531	8.698432
421.926468	8.634891
422.360391	8.585911
422.794301	8.575942
423.228199	8.585418
423.662083	8.599750
424.095955	8.625328
424.529813	8.655791
424.963658	8.709630
425.397491	8.726986
425.831310	8.734890
426.265116	8.780949
426.698909	8.806925
427.132689	8.865790
427.566455	8.907398
428.000209	8.954230
428.433949	9.007962
428.867676	9.093922
429.301389	9.178277
429.735090	9.268719
430.168777	9.348406
430.602451	9.404212
431.036111	9.447367
431.469759	9.525569
431.903392	9.585750
432.337013	9.663284
432.770620	9.762900
433.204213	9.872997
433.637794	10.000450
434.071360	10.154790
434.504914	10.327827
434.938453	10.535052
435.371979	10.756102
435.805492	10.989377
436.238991	11.218270
436.672477	11.452603
437.105949	11.691271
437.539407	11.920287
437.972852	12.141954
438.406283	12.364176
438.839700	12.617352
439.273104	12.894290
439.706494	13.169620
440.139871	13.466638
440.573233	13.772452
441.006582	14.103915
441.439917	14.431349
441.873238	14.743215
442.306546	14.998707
442.739839	15.280625
443.173119	15.546123
443.606385	15.815972
444.039636	16.082915
444.472874	16.351824
444.906099	16.639221
445.339309	16.972997
445.772505	17.332110
446.205687	17.682175
446.638855	18.052101
447.072009	18.452157
447.505149	18.856569
447.938275	19.262880
448.371387	19.659839
448.804485	20.045420
449.237569	20.420136
449.670638	20.781699
450.103694	21.108654
450.536735	21.419087
450.969762	21.745970
451.402774	22.077614
451.835773	22.423545
452.268757	22.777271
452.701727	23.143912
453.134683	23.507448
453.567624	23.861543
454.000551	24.201775
454.433464	24.520099
454.866362	24.825084
455.299246	25.119784
455.732116	25.410694
456.164971	25.667916
456.597811	25.920653
457.030638	26.192381
457.463449	26.451326
457.896246	26.740209
458.329029	27.010738
458.761797	27.267416
459.194551	27.518559
459.627290	27.796965
460.060014	28.073788
460.492724	28.344113
460.925419	28.602993
461.358099	28.869405
461.790765	29.134646
462.223416	29.383415
462.656052	29.618831
463.088674	29.839875
463.521281	30.073021
463.953873	30.292175
464.386450	30.507945
464.819012	30.732524
465.251560	30.943047
465.684093	31.171718
466.116611	31.403634
466.549114	31.650357
466.981602	31.901754
467.414075	32.152013
467.846533	32.402904
468.278977	32.643942
468.711405	32.865784
469.143818	33.070276
469.576216	33.266549
470.008600	33.460074
470.440968	33.608493
470.873321	33.761426
471.305659	33.883580
471.737982	34.010646
472.170289	34.112449
472.602582	34.200808
473.034859	34.287695
473.467122	34.373728
473.899369	34.449122
474.331600	34.561063
474.763817	34.679828
475.196018	34.813394
475.628204	34.988713
476.060375	35.195252
476.492530	35.400782
476.924670	35.598710
477.356795	35.777786
477.788904	35.941387
478.220998	36.081782
478.653076	36.209795
479.085139	36.310668
479.517186	36.408301
479.949219	36.496703
480.381235	36.618597
480.813236	36.747432
481.245221	36.898816
481.677191	37.087023
482.109146	37.278295
482.541084	37.484475
482.973008	37.680483
483.404915	37.849293
483.836807	38.003170
484.268683	38.125742
484.700544	38.231361
485.132388	38.297142
485.564217	38.356144
485.996031	38.391895
486.427828	38.396147
486.859610	38.380951
487.291376	38.376489
487.723126	38.355429
488.154860	38.336060
488.586579	38.330137
489.018281	38.338617
489.449968	38.367862
489.881639	38.463628
490.313293	38.599242
490.744932	38.775516
491.176555	38.972288
491.608162	39.173770
492.039753	39.361286
492.471328	39.509815
492.902886	39.619240
493.334429	39.679563
493.765956	39.689071
494.197466	39.661239
494.628960	39.625601
495.060439	39.567368
495.491901	39.545260
495.923347	39.553442
496.354776	39.596160
496.786190	39.696954
497.217587	39.826944
497.648968	39.995191
498.080332	40.145026
498.511681	40.301775
498.943013	40.430928
499.374328	40.532170
499.805628	40.595062
500.236911	40.619376
500.668177	40.615534
501.099427	40.550479
501.530661	40.453186
501.961878	40.313491
502.393079	40.143538
502.824264	39.940501
503.255431	39.691678
503.686583	39.439939
504.117717	39.191502
504.548835	38.951065
504.979937	38.736459
505.411022	38.552094
505.842090	38.423474
506.273142	38.324399
506.704177	38.256997
507.135195	38.201070
507.566197	38.154884
507.997182	38.077908
508.428150	37.966545
508.859102	37.818324
509.290036	37.610569
509.720954	37.364601
510.151855	37.076787
510.582739	36.763722
511.013607	36.441143
511.444457	36.152834
511.875291	35.901051
512.306107	35.694662
512.736907	35.557159
513.167690	35.486604
513.598456	35.468102
514.029205	35.480740
514.459936	35.518906
514.890651	35.578631
515.321349	35.638187
515.752030	35.696442
516.182693	35.744845
516.613340	35.778511
517.043969	35.784987
517.474582	35.776987
517.905177	35.745203
518.335755	35.708514
518.766315	35.674147
519.196859	35.634236
519.627385	35.597208
520.057894	35.572415
520.488386	35.576940
520.918860	35.617245
521.349318	35.706569
521.779757	35.846879
522.210180	36.051794
522.640585	36.321887
523.070973	36.655495
523.501343	37.038167
523.931696	37.475456
524.362031	37.942624
524.792349	38.433271
525.222650	38.905736
525.652933	39.365433
526.083198	39.787103
526.513446	40.169513
526.943677	40.527197
527.373890	40.845895
527.804085	41.153133
528.234262	41.449766
528.664422	41.751956
529.094565	42.068888
529.524689	42.404399
529.954796	42.783488
530.384885	43.176140
530.814957	43.606217
531.245011	44.063178
531.675047	44.515969
532.105065	44.962958
532.535065	45.387481
532.965048	45.783359
533.395013	46.132137
533.824959	46.414028
534.254888	46.644859
534.684799	46.802355
535.114693	46.919211
535.544568	46.965448
535.974425	46.949377
536.404264	46.883777
536.834086	46.776352
537.263889	46.629666
537.693674	46.454943
538.123441	46.251442
538.553190	46.069704
538.982921	45.890925
539.412634	45.733554
539.842329	45.604922
540.272006	45.503087
540.701664	45.429219
541.131304	45.405139
541.560926	45.389502
541.990530	45.404955
542.420116	45.424873
542.849683	45.447395
543.279232	45.445364
543.708763	45.431254
544.138275	45.365034
544.567769	45.254254
544.997245	45.097444
545.426702	44.906531
545.856141	44.679903
546.285562	44.415388
546.714964	44.131856
547.144347	43.846263
547.573713	43.554857
548.003059	43.286414
548.432387	43.021453
548.861697	42.769925
549.290988	42.557353
549.720260	42.363626
550.149514	42.206240
550.578750	42.076943
551.007966	41.968401
551.437164	41.884936
551.866344	41.784090
552.295504	41.703596
552.724646	41.604457
553.153769	41.501301
553.582874	41.372943
554.011960	41.223244
554.441027	41.022254
554.870075	40.804708
555.299104	40.554058
555.728115	40.284968
556.157106	39.989028
556.586079	39.682062
557.015033	39.375523
557.443968	39.088049
557.872884	38.822281
558.301781	38.596701
558.730659	38.399775
559.159518	38.245843
559.588358	38.138824
560.017180	38.079071
560.445982	38.056657
560.874765	38.073175
561.303528	38.113199
561.732273	38.173917
562.160999	38.253847
562.589705	38.333083
563.018393	38.415848
563.447061	38.491824
563.875710	38.534291
564.304340	38.562077
564.732950	38.562940
565.161542	38.546695
565.590114	38.496760
566.018666	38.420642
566.447200	38.309718
566.875714	38.177561
567.304208	38.026488
567.732684	37.867679
568.161140	37.696689
568.589576	37.527259
569.017993	37.352939
569.446391	37.196766
569.874769	37.068899
570.303128	36.965393
570.731467	36.896454
571.159787	36.854452
571.588087	36.853757
572.016368	36.891258
572.444629	36.967924
572.872870	37.081705
573.301092	37.233343
573.729294	37.392586
574.157476	37.573768
574.585639	37.766611
575.013782	37.962763
575.441906	38.150530
575.870009	38.323323
576.298093	38.484424
576.726157	38.625506
577.154202	38.771019
577.582226	38.903659
578.010231	39.040673
578.438216	39.173698
578.866181	39.309428
579.294126	39.460631
579.722051	39.624944
580.149957	39.794548
580.577842	39.974488
581.005707	40.166428
581.433553	40.360509
581.861378	40.542752
582.289184	40.722500
582.716969	40.884219
583.144734	41.020353
583.572479	41.137767
584.000205	41.212001
584.427910	41.256611
584.855594	41.257809
585.283259	41.218728
585.710904	41.137124
586.138528	41.017320
586.566132	40.848295
586.993716	40.656181
587.421280	40.428093
587.848823	40.169594
588.276346	39.886648
588.703849	39.570014
589.131332	39.239893
589.558794	38.889679
589.986236	38.528113
590.413657	38.152194
590.841058	37.768927
591.268438	37.385064
591.695799	37.016258
592.123138	36.663370
592.550458	36.335939
592.977756	36.036623
593.405034	35.769189
593.832292	35.558405
594.259529	35.393577
594.686746	35.286232
595.113942	35.229419
595.541117	35.225023
595.968272	35.263307
596.395406	35.346372
596.822519	35.468812
597.249612	35.630703
597.676684	35.827434
598.103735	36.031167
598.530766	36.251549
598.957775	36.481856
599.384764	36.714326
599.811733	36.954979
600.238680	37.201474
600.665606	37.432851
601.092512	37.658196
601.519397	37.874066
601.946261	38.100160
602.373104	38.322177
602.799926	38.540048
603.226727	38.741215
603.653507	38.939765
604.080266	39.131889
604.507004	39.303345
604.933721	39.447452
605.360417	39.563272
605.787092	39.639587
606.213746	39.674645
606.640379	39.672878
607.066991	39.614297
607.493581	39.502892
607.920150	39.331471
608.346699	39.117224
608.773226	38.855388
609.199731	38.556660
609.626216	38.224660
610.052679	37.850964
610.479121	37.454016
610.905542	37.027591
611.331941	36.596573
611.758319	36.148693
612.184676	35.689802
612.611011	35.219994
613.037325	34.745648
613.463617	34.262441
613.889888	33.784638
614.316138	33.310466
614.742366	32.852273
615.168573	32.400146
615.594758	31.959329
616.020921	31.542342
616.447063	31.157499
616.873184	30.804429
617.299283	30.483989
617.725360	30.211538
618.151416	29.989323
618.577450	29.827214
619.003462	29.718243
619.429453	29.673194
619.855422	29.697102
620.281369	29.777459
620.707295	29.921984
621.133199	30.131533
621.559081	30.390243
621.984941	30.689908
622.410779	31.042831
622.836596	31.422860
623.262391	31.832515
623.688163	32.260952
624.113914	32.705718
624.539644	33.164732
624.965351	33.621116
625.391036	34.077482
625.816699	34.528748
626.242340	34.973087
626.667960	35.407255
627.093557	35.825848
627.519132	36.233461
627.944685	36.624836
628.370216	37.003993
628.795725	37.367437
629.221212	37.691107
629.646677	37.984458
630.072119	38.237183
630.497540	38.448067
630.922938	38.611149
631.348314	38.716312
631.773668	38.750498
632.198999	38.724847
632.624308	38.641172
633.049595	38.487167
633.474860	38.274912
633.900102	38.009361
634.325322	37.690811
634.750520	37.328617
635.175695	36.930153
635.600848	36.501180
636.025978	36.051979
636.451086	35.587439
636.876171	35.112009
637.301234	34.637599
637.726275	34.163243
638.151293	33.703406
638.576288	33.256837
639.001261	32.829926
639.426211	32.415533
639.851139	32.026561
640.276044	31.659109
640.700927	31.315908
641.125787	30.991445
641.550624	30.678015
641.975438	30.383687
642.400230	30.114068
642.824999	29.865143
643.249745	29.634681
643.674469	29.429150
644.099169	29.245440
644.523847	29.090674
644.948502	28.971610
645.373135	28.888954
645.797744	28.826458
646.222330	28.793367
646.646894	28.786959
647.071435	28.796941
647.495953	28.820504
647.920447	28.860521
648.344919	28.908306
648.769368	28.958164
649.193794	29.004598
649.618197	29.050760
650.042576	29.087948
650.466933	29.113689
650.891267	29.121385
651.315577	29.110488
651.739864	29.083029
652.164129	29.038599
652.588370	28.982239
653.012587	28.902554
653.436782	28.809856
653.860953	28.704502
654.285102	28.586651
654.709226	28.469153
655.133328	28.341132
655.557406	28.220696
655.981461	28.092870
656.405493	27.976655
656.829501	27.857535
657.253486	27.739809
657.677448	27.622365
658.101386	27.507080
658.525301	27.393040
658.949192	27.277266
659.373060	27.164660
659.796904	27.055617
660.220725	26.956038
660.644522	26.866384
661.068296	26.796365
661.492046	26.751320
661.915772	26.722392
662.339475	26.730281
662.763154	26.765088
663.186810	26.834647
663.610442	26.950941
664.034050	27.110589
664.457635	27.324173
664.881196	27.592137
665.304733	27.905316
665.728247	28.267332
666.151736	28.677195
666.575202	29.133854
666.998644	29.632264
667.422062	30.160482
667.845457	30.719906
668.268827	31.312210
668.692174	31.919063
669.115496	32.541820
669.538795	33.170996
669.962070	33.807825
670.385321	34.433589
670.808547	35.043264
671.231750	35.616485
671.654929	36.149390
672.078084	36.657265
672.501214	37.114921
672.924321	37.529143
673.347404	37.897396
673.770462	38.215993
674.193496	38.476617
674.616506	38.688667
675.039492	38.855751
675.462454	38.969341
675.885391	39.037504
676.308305	39.068729
676.731194	39.045765
677.154058	38.988405
677.576899	38.887782
677.999715	38.744465
678.422507	38.574237
678.845274	38.370295
679.268017	38.140828
679.690736	37.873661
680.113430	37.583130
680.536100	37.272992
680.958746	36.938277
681.381367	36.573866
681.803963	36.202142
682.226535	35.820901
682.649083	35.428863
683.071605	35.033805
683.494104	34.635427
683.916578	34.256265
684.339027	33.896860
684.761451	33.567341
685.183851	33.259832
685.606227	32.982069
686.028577	32.729456
686.450903	32.514589
686.873204	32.327749
687.295481	32.167179
687.717733	32.038147
688.139959	31.929721
688.562162	31.845617
688.984339	31.780346
689.406492	31.727160
689.828619	31.689007
690.250722	31.650264
690.672800	31.617380
691.094853	31.585760
691.516881	31.559464
691.938884	31.529396
692.360863	31.494888
692.782816	31.469084
693.204744	31.439316
693.626647	31.411450
694.048526	31.383631
694.470379	31.369575
694.892207	31.354392
695.314010	31.343167
695.735788	31.342813
696.157540	31.344188
696.579268	31.355685
697.000970	31.365418
697.422648	31.385133
697.844300	31.402616
698.265926	31.419064
698.687528	31.444750
699.109104	31.471888
699.530655	31.487868
699.952181	31.517501
700.373681	31.548719
700.795156	31.573356
701.216606	31.602460
701.638030	31.620600
702.059429	31.638012
702.480803	31.643732
702.902151	31.646735
703.323473	31.640974
703.744770	31.621469
704.166042	31.592439
704.587288	31.544056
705.008509	31.487030
705.429704	31.416654
705.850873	31.333427
706.272017	31.233465
706.693135	31.130023
707.114228	31.024275
707.535295	30.913634
707.956336	30.804845
708.377352	30.698897
708.798342	30.587154
709.219306	30.487908
709.640245	30.414486
710.061157	30.353480
710.482044	30.309172
710.902905	30.289852
711.323741	30.291720
711.744550	30.320890
712.165334	30.365815
712.586092	30.439166
713.006823	30.524099
713.427529	30.635909
713.848209	30.764420
714.268863	30.907603
714.689492	31.069417
715.110094	31.239070
715.530670	31.422441
715.951220	31.616602
716.371744	31.818064
716.792242	32.033245
717.212714	32.250524
717.633159	32.480859
718.053579	32.715563
718.473973	32.966022
718.894340	33.213540
719.314681	33.465974
719.734996	33.708814
720.155285	33.948649
720.575547	34.179949
720.995784	34.396421
721.415994	34.595234
721.836177	34.779052
722.256335	34.930400
722.676466	35.035906
723.096570	35.114517
723.516649	35.152534
723.936701	35.153316
724.356726	35.107589
724.776725	35.011860
725.196698	34.883676
725.616644	34.710799
726.036564	34.495432
726.456457	34.240465
726.876324	33.964016
727.296164	33.649902
727.715977	33.315934
728.135764	32.971833
728.555525	32.618563
728.975258	32.252379
729.394966	31.894245
729.814646	31.534876
730.234300	31.189107
730.653927	30.847421
731.073527	30.514584
731.493101	30.188448
731.912648	29.884009
732.332168	29.598995
732.751661	29.341616
733.171128	29.107220
733.590568	28.895611
734.009980	28.715114
734.429366	28.561396
734.848726	28.434934
735.268058	28.344904
735.687363	28.284862
736.106641	28.251685
736.525893	28.244936
736.945117	28.257671
737.364314	28.297206
737.783485	28.364135
738.202628	28.444861
738.621744	28.544599
739.040834	28.655782
739.459896	28.777264
739.878931	28.897360
740.297939	29.031061
740.716919	29.168299
741.135873	29.299876
741.554799	29.425505
741.973698	29.545550
742.392570	29.653460
742.811415	29.754309
743.230232	29.842721
743.649022	29.912186
744.067785	29.971511
744.486521	30.014332
744.905229	30.045218
745.323909	30.062894
745.742563	30.066361
746.161189	30.052477
746.579787	30.024227
746.998358	29.975485
747.416902	29.913381
747.835418	29.845946
748.253907	29.769149
748.672368	29.684445
749.090802	29.591516
749.509208	29.494348
749.927586	29.396133
750.345937	29.299178
750.764261	29.199520
751.182556	29.105931
751.600824	29.012857
752.019065	28.931164
752.437277	28.859913
752.855462	28.795943
753.273620	28.741785
753.691749	28.698491
754.109851	28.660821
754.527925	28.631398
754.945971	28.610991
755.363989	28.597470
755.781980	28.585217
756.199943	28.575085
756.617877	28.572371
757.035784	28.568692
757.453663	28.567068
757.871514	28.555530
758.289337	28.539993
758.707132	28.510234
759.124899	28.476461
759.542639	28.438283
759.960350	28.390272
760.378033	28.336140
760.795688	28.262058
761.213314	28.174147
761.630913	28.076256
762.048484	27.968163
762.466026	27.851587
762.883541	27.719943
763.301027	27.579024
763.718485	27.426968
764.135914	27.274768
764.553316	27.111448
764.970689	26.952942
765.388034	26.780549
765.805351	26.605183
766.222639	26.425279
766.639899	26.245555
767.057131	26.072444
767.474334	25.906384
767.891509	25.754127
768.308655	25.605267
768.725773	25.469519
769.142863	25.345880
769.559924	25.237090
769.976957	25.143518
770.393961	25.061332
770.810936	25.000119
771.227883	24.949691
771.644802	24.919909
772.061692	24.901955
772.478553	24.895941
772.895386	24.902272
773.312190	24.925489
773.728965	24.966640
774.145712	25.021443
774.562430	25.091531
774.979119	25.173208
775.395780	25.262894
775.812411	25.370361
776.229014	25.488043
776.645589	25.612991
777.062134	25.734165
777.478651	25.862823
777.895138	25.992843
778.311597	26.125344
778.728027	26.264532
779.144428	26.407836
779.560800	26.537925
779.977143	26.670929
780.393458	26.794822
780.809743	26.904530
781.225999	27.002232
781.642226	27.093926
782.058425	27.171793
782.474594	27.234735
782.890734	27.285362
783.306845	27.325051
783.722926	27.341107
784.138979	27.349238
784.555003	27.334615
784.970997	27.314485
785.386962	27.277728
785.802898	27.225934
786.218805	27.166026
786.634682	27.092535
787.050531	27.012862
787.466349	26.925073
787.882139	26.828840
788.297899	26.739559
788.713630	26.640468
789.129332	26.546284
789.545004	26.451886
789.960647	26.368517
790.376260	26.310040
790.791844	26.252527
791.207399	26.220714
791.622924	26.190872
792.038419	26.171960
792.453885	26.186373
792.869321	26.202720
793.284728	26.244868
793.700106	26.298382
794.115453	26.380295
794.530771	26.470404
794.946060	26.576183
795.361319	26.695524
795.776548	26.826141
796.191747	26.962922
796.606917	27.115773
797.022057	27.264357
797.437167	27.425180
797.852248	27.583216
798.267298	27.740696
798.682319	27.902597
799.097310	28.058028
799.512271	28.211157
799.927203	28.356586
800.342104	28.492865
800.756976	28.621025
801.171818	28.729872
801.586629	28.832067
802.001411	28.913693
802.416163	28.981651
802.830885	29.031290
803.245577	29.054514
803.660238	29.067435
804.074870	29.049504
804.489472	29.028992
804.904043	28.988535
805.318585	28.913236
805.733096	28.825446
806.147577	28.707428
806.562028	28.581514
806.976449	28.434528
807.390840	28.272569
807.805200	28.095945
808.219530	27.901776
808.633830	27.691396
809.048100	27.475661
809.462339	27.246336
809.876548	27.005910
810.290727	26.763796
810.704875	26.508285
811.118993	26.251943
811.533080	25.988365
811.947137	25.718177
812.361164	25.447027
812.775160	25.166024
813.189126	24.889465
813.603061	24.612660
814.016966	24.338987
814.430840	24.063213
814.844684	23.790374
815.258497	23.534809
815.672280	23.291191
816.086032	23.049156
816.499753	22.817385
816.913444	22.611568
817.327104	22.406670
817.740733	22.221439
818.154331	22.060038
818.567899	21.914760
818.981436	21.789396
819.394943	21.679609
819.808418	21.589673
820.221863	21.519585
820.635277	21.465495
821.048660	21.427432
821.462013	21.414211
821.875334	21.409306
822.288625	21.420414
822.701884	21.454160
823.115113	21.495546
823.528311	21.542407
823.941478	21.603377
824.354614	21.673026
824.767718	21.738920
825.180792	21.802333
825.593835	21.879665
826.006847	21.948345
826.419827	22.014048
826.832777	22.069707
827.245695	22.131727
827.658582	22.184895
828.071438	22.204891
828.484263	22.213371
828.897057	22.210802
829.309819	22.188225
829.722551	22.148427
830.135251	22.090606
830.547919	22.010637
830.960557	21.905822
831.373163	21.786210
831.785738	21.659509
832.198281	21.524755
832.610793	21.378582
833.023274	21.227689
833.435723	21.072615
833.848141	20.923399
834.260528	20.763798
834.672883	20.621875
835.085206	20.486193
835.497498	20.369713
835.909758	20.264744
836.321987	20.181488
836.734185	20.108844
837.146350	20.059678
837.558485	20.038707
837.970587	20.041135
838.382658	20.068422
838.794697	20.118817
839.206705	20.194715
839.618681	20.288705
840.030625	20.408993
840.442538	20.554851
840.854418	20.720827
841.266267	20.895786
841.678084	21.098723
842.089870	21.323062
842.501623	21.551595
842.913345	21.801558
843.325035	22.060091
843.736693	22.334916
844.148319	22.618128
844.559913	22.910756
844.971475	23.189667
845.383005	23.469179
845.794504	23.751905
846.205970	24.025814
846.617404	24.288199
847.028806	24.539044
847.440176	24.777070
847.851514	25.000992
848.262820	25.192822
848.674094	25.357745
849.085336	25.500231
849.496546	25.614217
849.907723	25.704615
850.318868	25.770733
850.729981	25.809443
851.141062	25.803033
851.552110	25.774312
851.963127	25.711525
852.374111	25.639402
852.785062	25.535657
853.195982	25.396881
853.606869	25.250992
854.017723	25.094772
854.428546	24.912863
854.839336	24.712607
855.250093	24.506246
855.660818	24.299767
856.071511	24.072592
856.482171	23.840591
856.892799	23.597112
857.303394	23.339808
857.713956	23.095051
858.124486	22.859570
858.534984	22.600115
858.945449	22.351461
859.355881	22.109290
859.766280	21.861416
860.176647	21.618553
860.586982	21.381204
860.997283	21.154975
861.407552	20.942322
861.817789	20.740300
862.227992	20.548767
862.638163	20.366441
863.048301	20.198754
863.458406	20.038719
863.868478	19.897026
864.278518	19.763567
864.688524	19.647753
865.098498	19.538179
865.508439	19.428380
865.918347	19.346334
866.328222	19.264284
866.738064	19.204506
867.147873	19.157729
867.557649	19.118053
867.967392	19.102371
868.377102	19.076724
868.786779	19.083256
869.196423	19.111096
869.606034	19.144158
870.015612	19.209442
870.425156	19.279008
870.834668	19.363881
871.244146	19.475415
871.653591	19.587853
872.063003	19.718889
872.472382	19.883431
872.881728	20.046555
873.291040	20.228883
873.700319	20.416083
874.109564	20.609476
874.518777	20.816404
874.927956	21.026559
875.337102	21.243700
875.746214	21.457959
876.155293	21.680698
876.564338	21.906000
876.973350	22.127802
877.382329	22.347040
877.791274	22.571171
878.200186	22.790293
878.609064	22.989735
879.017909	23.205727
879.426720	23.399954
879.835497	23.595882
880.244241	23.776168
880.652952	23.949676
881.061629	24.128191
881.470272	24.295217
881.878881	24.423503
882.287457	24.581527
882.695999	24.699386
883.104507	24.820544
883.512982	24.936799
883.921423	25.043514
884.329830	25.160872
884.738203	25.267417
885.146543	25.368324
885.554849	25.461885
885.963120	25.549875
886.371358	25.643754
886.779563	25.732468
887.187733	25.826832
887.595869	25.916347
888.003971	25.996178
888.412040	26.106389
888.820074	26.192394
889.228074	26.282263
889.636041	26.389123
890.043973	26.504507
890.451871	26.616107
890.859736	26.743889
891.267566	26.889247
891.675362	27.027531
892.083124	27.176897
892.490851	27.326010
892.898545	27.486641
893.306204	27.650139
893.713829	27.798277
894.121420	27.966133
894.528977	28.154334
894.936499	28.316618
895.343987	28.509241
895.751441	28.695778
896.158860	28.863438
896.566246	29.019124
896.973596	29.166215
897.380913	29.308275
897.788195	29.431616
898.195442	29.558137
898.602655	29.671713
899.009834	29.768916
899.416978	29.865093
899.824088	29.932992
900.231163	30.026626
900.638204	30.090314
901.045210	30.118222
901.452181	30.150974
901.859118	30.174746
902.266021	30.169967
902.672888	30.157301
903.079721	30.130084
903.486520	30.068513
903.893283	30.003406
904.300012	29.924510
904.706707	29.835248
905.113366	29.717322
905.519991	29.608866
905.926581	29.476021
906.333136	29.342154
906.739656	29.193836
907.146142	29.029497
907.552592	28.873052
907.959008	28.714246
908.365389	28.528312
908.771735	28.360323
909.178046	28.215889
909.584322	28.064828
909.990563	27.907506
910.396769	27.777952
910.802940	27.643546
911.209076	27.520502
911.615177	27.402648
912.021243	27.292117
912.427274	27.207914
912.833270	27.103638
913.239231	27.022112
913.645156	26.941421
914.051046	26.887197
914.456902	26.835220
914.862721	26.802364
915.268506	26.760328
915.674256	26.744405
916.079970	26.733164
916.485649	26.727826
916.891292	26.728383
917.296901	26.726901
917.702474	26.743745
918.108011	26.747429
918.513514	26.750850
918.918980	26.767536
919.324412	26.792685
919.729808	26.816449
920.135169	26.837808
920.540494	26.858346
920.945783	26.887920
921.351037	26.907127
921.756256	26.917318
922.161439	26.927060
922.566586	26.949810
922.971698	26.941759
923.376775	26.941409
923.781815	26.944970
924.186820	26.931700
924.591790	26.911629
924.996723	26.886451
925.401621	26.865164
925.806484	26.839950
926.211310	26.795866
926.616101	26.748481
927.020856	26.696332
927.425575	26.625589
927.830259	26.569526
928.234906	26.484587
928.639518	26.420449
929.044094	26.357417
929.448634	26.282702
929.853138	26.209332
930.257606	26.144209
930.662038	26.105362
931.066434	26.052840
931.470795	26.021150
931.875119	25.978704
932.279407	25.935265
932.683659	25.916562
933.087875	25.881422
933.492055	25.871293
933.896199	25.869050
934.300307	25.866993
934.704379	25.878241
935.108414	25.889707
935.512414	25.900828
935.916377	25.940857
936.320304	25.976827
936.724195	26.024959
937.128049	26.075206
937.531867	26.120725
937.935649	26.161170
938.339395	26.219637
938.743104	26.290484
939.146777	26.344607
939.550414	26.411858
939.954014	26.475260
940.357578	26.530292
940.761105	26.592417
941.164596	26.646541
941.568050	26.675682
941.971468	26.715397
942.374850	26.744057
942.778195	26.757503
943.181503	26.730460
943.584775	26.731985
943.988010	26.681322
944.391209	26.633249
944.794371	26.598575
945.197496	26.513294
945.600585	26.441251
946.003637	26.351403
946.406653	26.225655
946.809632	26.115542
947.212574	26.002999
947.615479	25.867610
948.018347	25.744232
948.421179	25.585824
948.823974	25.418948
949.226732	25.266987
949.629453	25.091391
950.032138	24.922417
950.434785	24.753504
950.837396	24.581813
951.239969	24.424645
951.642506	24.280684
952.045006	24.116121
952.447469	23.963679
952.849895	23.820958
953.252283	23.694723
953.654635	23.571744
954.056950	23.460546
954.459227	23.355054
954.861468	23.264143
955.263671	23.156912
955.665838	23.104728
956.067967	23.023657
956.470059	22.981847
956.872114	22.910494
957.274131	22.828227
957.676112	22.798373
958.078055	22.774063
958.479961	22.724310
958.881829	22.706153
959.283661	22.678259
959.685455	22.658415
960.087211	22.637192
960.488931	22.643739
960.890613	22.616905
961.292257	22.568823
961.693864	22.551674
962.095434	22.525862
962.496966	22.482688
962.898461	22.463731
963.299918	22.453076
963.701338	22.407098
964.102720	22.342777
964.504065	22.289526
964.905372	22.227727
965.306641	22.132456
965.707873	22.062677
966.109068	21.982380
966.510224	21.916311
966.911343	21.821603
967.312425	21.728169
967.713468	21.641809
968.114474	21.510983
968.515442	21.427537
968.916373	21.313407
969.317265	21.217980
969.718120	21.157358
970.118937	21.086527
970.519716	20.976198
970.920458	20.928030
971.321161	20.880860
971.721827	20.797613
972.122454	20.683482
972.523044	20.620511
972.923596	20.543942
973.324110	20.482501
973.724585	20.483680
974.125023	20.366508
974.525423	20.351013
974.925785	20.319815
975.326108	20.270777
975.726394	20.190778
976.126642	20.088399
976.526851	20.057597
976.927022	20.040639
977.327155	20.022336
977.727250	19.978291
978.127307	19.951527
978.527325	19.910117
978.927306	19.852808
979.327248	19.798015
979.727151	19.763227
980.127017	19.732171
980.526844	19.680689
980.926633	19.609337
981.326383	19.581423
981.726095	19.534956
982.125769	19.494685
982.525404	19.396839
982.925001	19.287358
983.324560	19.239592
983.724079	19.126582
984.123561	19.055554
984.523004	19.005254
984.922408	18.930885
985.321774	18.839977
985.721102	18.732688
986.120390	18.598668
986.519641	18.601628
986.918852	18.474453
987.318025	18.368416
987.717159	18.289839
988.116255	18.212638
988.515312	18.227958
988.914330	18.171229
989.313310	18.047115
989.712250	17.943782
990.111152	17.947846
990.510015	17.880354
990.908840	17.806358
991.307625	17.700385
991.706372	17.632088
992.105080	17.611719
992.503749	17.553845
992.902379	17.541051
993.300970	17.537195
993.699522	17.453042
994.098035	17.486258
994.496510	17.442036
994.894945	17.399750
995.293341	17.506986
995.691698	17.410301
996.090016	17.457962
996.488296	17.446566
996.886535	17.519129
997.284736	17.516830
997.682898	17.512404
998.081021	17.552823
998.479104	17.589222
998.877148	17.657009
999.275153	17.642407
999.673119	17.722063
1000.071046	17.815765
1000.468933	17.865650
1000.866781	17.859082
1001.264590	17.888457
1001.662359	17.979603
1002.060089	18.194489
1002.457780	18.178581
1002.855431	18.286841
1003.253043	18.339444
1003.650615	18.522644
1004.048148	18.587276
1004.445642	18.584219
1004.843096	18.754912
1005.240511	18.963346
1005.637886	18.957907
1006.035221	19.271752
1006.432517	19.432191
1006.829774	19.581286
1007.226991	19.857563
1007.624168	19.991004
1008.021306	20.215351
1008.418404	20.345613
1008.815462	20.554405
1009.212481	20.621546
1009.609460	20.699600
1010.006399	21.023136
1010.403298	21.234799
1010.800158	21.650319
1011.196978	21.654590
1011.593758	21.867796
1011.990498	22.285305
1012.387199	22.365360
1012.783860	22.763373
1013.180480	23.176146
1013.577061	23.257829
1013.973602	23.545547
1014.370103	23.644964
1014.766564	24.001387
1015.162985	24.102377
1015.559366	24.356405
1015.955708	24.469037
1016.352009	24.871223
1016.748270	25.286208
1017.144491	25.433526
1017.540671	25.355281
1017.936812	25.964874
1018.332913	25.962430
1018.728973	26.156320
1019.124994	26.450422
1019.520974	26.573129
1019.916914	26.650404
1020.312814	26.776587
