Time1=100ms:Average1=5:Objective=10X:Aperture=1: (11/28/2018 10:22:18 AM)
11/28/2018 10:22:18 AM
Reflectance
10X
Ap#: 1
Avg1: 5.000000
Avg2: 0.000000
Int.Time1:100.000000

350.166136	52.039312
350.601937	51.860250
351.037728	52.009294
351.473509	51.546833
351.909281	51.415013
352.345042	51.422090
352.780794	51.125458
353.216536	51.200280
353.652267	51.321085
354.087989	51.420803
354.523701	51.497848
354.959403	51.092968
355.395095	50.780354
355.830777	51.089353
356.266449	51.334394
356.702110	51.429076
357.137762	51.605768
357.573404	51.111506
358.009035	50.721282
358.444656	50.638222
358.880268	50.504599
359.315869	50.440509
359.751459	50.789544
360.187040	50.437344
360.622610	50.509019
361.058170	50.443032
361.493720	50.632348
361.929260	50.745735
362.364789	51.304270
362.800308	51.428571
363.235816	51.233801
363.671314	51.448117
364.106802	51.518920
364.542279	51.553898
364.977746	52.019530
365.413203	51.709780
365.848649	51.700319
366.284084	51.929545
366.719509	51.961392
367.154924	51.785080
367.590328	51.620925
368.025721	51.728111
368.461104	52.404614
368.896477	52.391458
369.331838	51.896840
369.767189	52.139225
370.202530	52.238675
370.637859	52.275523
371.073178	52.603893
371.508486	52.936556
371.943784	53.098114
372.379071	53.162467
372.814347	53.036895
373.249612	53.065668
373.684866	53.389092
374.120110	53.135601
374.555343	53.150017
374.990565	53.382276
375.425776	53.391016
375.860976	53.047877
376.296165	52.940147
376.731343	53.165776
377.166511	52.721386
377.601667	53.036012
378.036812	53.003226
378.471946	52.671889
378.907070	53.044313
379.342182	52.829205
379.777283	53.034783
380.212373	53.039487
380.647452	52.961492
381.082520	53.308697
381.517576	52.997849
381.952622	52.976652
382.387656	52.934059
382.822679	53.307393
383.257691	52.930990
383.692692	53.113077
384.127681	53.003717
384.562659	52.873563
384.997626	52.770585
385.432581	52.734341
385.867525	52.744034
386.302458	52.854433
386.737379	52.763214
387.172289	52.792530
387.607188	52.815634
388.042075	52.652327
388.476951	52.434649
388.911815	52.256532
389.346668	52.456794
389.781509	52.598226
390.216338	52.290399
390.651157	52.316260
391.085963	52.064239
391.520758	52.140209
391.955541	51.942156
392.390313	51.628336
392.825073	51.727036
393.259821	51.437191
393.694558	51.394589
394.129283	51.490605
394.563996	51.233128
394.998698	51.517665
395.433388	51.294011
395.868066	51.208664
396.302732	50.986910
396.737386	50.893405
397.172029	50.527302
397.606659	50.479194
398.041278	50.474361
398.475885	50.272203
398.910480	49.913461
399.345063	49.645418
399.779634	49.127996
400.214194	48.544824
400.648741	47.860627
401.083276	47.063280
401.517799	45.803902
401.952310	44.629692
402.386809	43.282269
402.821296	41.650522
403.255771	39.957597
403.690234	38.500625
404.124684	36.838302
404.559123	35.194138
404.993549	33.272899
405.427963	31.724792
405.862365	30.352376
406.296754	29.045905
406.731131	27.547459
407.165496	26.178574
407.599849	24.898443
408.034190	23.697678
408.468518	22.486359
408.902833	21.476081
409.337137	20.536050
409.771428	19.668621
410.205706	18.920491
410.639973	18.272031
411.074226	17.642470
411.508467	17.042417
411.942696	16.570847
412.376912	16.192110
412.811116	15.832688
413.245307	15.566953
413.679486	15.374055
414.113652	15.152886
414.547805	14.978149
414.981946	14.889901
415.416074	14.763345
415.850190	14.625323
416.284293	14.566800
416.718383	14.538667
417.152460	14.561605
417.586525	14.554777
418.020577	14.531248
418.454616	14.590794
418.888643	14.604866
419.322656	14.645264
419.756657	14.609793
420.190645	14.660269
420.624620	14.710891
421.058582	14.756793
421.492531	14.803060
421.926468	14.883841
422.360391	14.986059
422.794301	15.129291
423.228199	15.265390
423.662083	15.431640
424.095955	15.626712
424.529813	15.829141
424.963658	16.061000
425.397491	16.233434
425.831310	16.414369
426.265116	16.596133
426.698909	16.759719
427.132689	16.916755
427.566455	17.105342
428.000209	17.293747
428.433949	17.509485
428.867676	17.730058
429.301389	17.965525
429.735090	18.167229
430.168777	18.358216
430.602451	18.512111
431.036111	18.659556
431.469759	18.826037
431.903392	18.969463
432.337013	19.108016
432.770620	19.248324
433.204213	19.423663
433.637794	19.591666
434.071360	19.797485
434.504914	20.027555
434.938453	20.270866
435.371979	20.544859
435.805492	20.825298
436.238991	21.065113
436.672477	21.335032
437.105949	21.584275
437.539407	21.789752
437.972852	21.991857
438.406283	22.149001
438.839700	22.336312
439.273104	22.552980
439.706494	22.800631
440.139871	23.040733
440.573233	23.295409
441.006582	23.543453
441.439917	23.785534
441.873238	23.982530
442.306546	24.163865
442.739839	24.332683
443.173119	24.465661
443.606385	24.573332
444.039636	24.688533
444.472874	24.819518
444.906099	24.967344
445.339309	25.131473
445.772505	25.312206
446.205687	25.526292
446.638855	25.752841
447.072009	25.990438
447.505149	26.235830
447.938275	26.469899
448.371387	26.695595
448.804485	26.898941
449.237569	27.097012
449.670638	27.280598
450.103694	27.408843
450.536735	27.533744
450.969762	27.676352
451.402774	27.822588
451.835773	27.995226
452.268757	28.184477
452.701727	28.342941
453.134683	28.523661
453.567624	28.701952
454.000551	28.867854
454.433464	29.008641
454.866362	29.128299
455.299246	29.231287
455.732116	29.329440
456.164971	29.394425
456.597811	29.457112
457.030638	29.549053
457.463449	29.631374
457.896246	29.722848
458.329029	29.797073
458.761797	29.879241
459.194551	29.967665
459.627290	30.057034
460.060014	30.151786
460.492724	30.268191
460.925419	30.375526
461.358099	30.498592
461.790765	30.622459
462.223416	30.738373
462.656052	30.796849
463.088674	30.873832
463.521281	30.960055
463.953873	31.009723
464.386450	31.054992
464.819012	31.085866
465.251560	31.120673
465.684093	31.170500
466.116611	31.227805
466.549114	31.266908
466.981602	31.305070
467.414075	31.344080
467.846533	31.383728
468.278977	31.401714
468.711405	31.402904
469.143818	31.385011
469.576216	31.366552
470.008600	31.338245
470.440968	31.282557
470.873321	31.215459
471.305659	31.121566
471.737982	31.037781
472.170289	30.929658
472.602582	30.806745
473.034859	30.665449
473.467122	30.521115
473.899369	30.357362
474.331600	30.203860
474.763817	30.050255
475.196018	29.906697
475.628204	29.771720
476.060375	29.665827
476.492530	29.561671
476.924670	29.443951
477.356795	29.312672
477.788904	29.173875
478.220998	29.039208
478.653076	28.881251
479.085139	28.710138
479.517186	28.538602
479.949219	28.374914
480.381235	28.234212
480.813236	28.103711
481.245221	28.016393
481.677191	27.964697
482.109146	27.940823
482.541084	27.936458
482.973008	27.963695
483.404915	27.994634
483.836807	28.030098
484.268683	28.077273
484.700544	28.140741
485.132388	28.181437
485.564217	28.244057
485.996031	28.338564
486.427828	28.435307
486.859610	28.545368
487.291376	28.669577
487.723126	28.815331
488.154860	28.979737
488.586579	29.189256
489.018281	29.436093
489.449968	29.718530
489.881639	30.063158
490.313293	30.454622
490.744932	30.923191
491.176555	31.420154
491.608162	31.939389
492.039753	32.460229
492.471328	32.986405
492.902886	33.490694
493.334429	33.969980
493.765956	34.416503
494.197466	34.855126
494.628960	35.294143
495.060439	35.739073
495.491901	36.215711
495.923347	36.725153
496.354776	37.257185
496.786190	37.848771
497.217587	38.472799
497.648968	39.104013
498.080332	39.733646
498.511681	40.367330
498.943013	40.969152
499.374328	41.520652
499.805628	42.033080
500.236911	42.517401
500.668177	42.961708
501.099427	43.351476
501.530661	43.696699
501.961878	43.990738
502.393079	44.240844
502.824264	44.479223
503.255431	44.662845
503.686583	44.837817
504.117717	44.994889
504.548835	45.154068
504.979937	45.335346
505.411022	45.563115
505.842090	45.825250
506.273142	46.119010
506.704177	46.457828
507.135195	46.821308
507.566197	47.196151
507.997182	47.544015
508.428150	47.847452
508.859102	48.107635
509.290036	48.309406
509.720954	48.441461
510.151855	48.512989
510.582739	48.545421
511.013607	48.581596
511.444457	48.628604
511.875291	48.693992
512.306107	48.801562
512.736907	48.971499
513.167690	49.185931
513.598456	49.429579
514.029205	49.700446
514.459936	49.981993
514.890651	50.249906
515.321349	50.483047
515.752030	50.683391
516.182693	50.823496
516.613340	50.907263
517.043969	50.914639
517.474582	50.876065
517.905177	50.765079
518.335755	50.596961
518.766315	50.387112
519.196859	50.110828
519.627385	49.819739
520.057894	49.496028
520.488386	49.166358
520.918860	48.852354
521.349318	48.552400
521.779757	48.297622
522.210180	48.094706
522.640585	47.957181
523.070973	47.897287
523.501343	47.909013
523.931696	47.988720
524.362031	48.099786
524.792349	48.238130
525.222650	48.383781
525.652933	48.524019
526.083198	48.642004
526.513446	48.738842
526.943677	48.825178
527.373890	48.869941
527.804085	48.907184
528.234262	48.962022
528.664422	49.056129
529.094565	49.182303
529.524689	49.360000
529.954796	49.598220
530.384885	49.900788
530.814957	50.254707
531.245011	50.670515
531.675047	51.119660
532.105065	51.586966
532.535065	52.072763
532.965048	52.546058
533.395013	52.987231
533.824959	53.373361
534.254888	53.692968
534.684799	53.933011
535.114693	54.122706
535.544568	54.241180
535.974425	54.284258
536.404264	54.252891
536.834086	54.148058
537.263889	53.974371
537.693674	53.740318
538.123441	53.476549
538.553190	53.203007
538.982921	52.915552
539.412634	52.638022
539.842329	52.381466
540.272006	52.150226
540.701664	51.991031
541.131304	51.875393
541.560926	51.814520
541.990530	51.768920
542.420116	51.783406
542.849683	51.809776
543.279232	51.863427
543.708763	51.913875
544.138275	51.957201
544.567769	51.987538
544.997245	51.990128
545.426702	51.973421
545.856141	51.938705
546.285562	51.884286
546.714964	51.808927
547.144347	51.746972
547.573713	51.691889
548.003059	51.673913
548.432387	51.687091
548.861697	51.702398
549.290988	51.740185
549.720260	51.823181
550.149514	51.933665
550.578750	52.059342
551.007966	52.215776
551.437164	52.372255
551.866344	52.513001
552.295504	52.635347
552.724646	52.714908
553.153769	52.744813
553.582874	52.707982
554.011960	52.588586
554.441027	52.383497
554.870075	52.089603
555.299104	51.729039
555.728115	51.270000
556.157106	50.758941
556.586079	50.173063
557.015033	49.552879
557.443968	48.906354
557.872884	48.255935
558.301781	47.628523
558.730659	47.011063
559.159518	46.427708
559.588358	45.899585
560.017180	45.433446
560.445982	45.028909
560.874765	44.696310
561.303528	44.415373
561.732273	44.184833
562.160999	44.022707
562.589705	43.926487
563.018393	43.867062
563.447061	43.859974
563.875710	43.898544
564.304340	43.977886
564.732950	44.092300
565.161542	44.247526
565.590114	44.427089
566.018666	44.628876
566.447200	44.862190
566.875714	45.116266
567.304208	45.399311
567.732684	45.697159
568.161140	46.019934
568.589576	46.360173
569.017993	46.727336
569.446391	47.103664
569.874769	47.514377
570.303128	47.945311
570.731467	48.392078
571.159787	48.835263
571.588087	49.284171
572.016368	49.736741
572.444629	50.174760
572.872870	50.593096
573.301092	50.966796
573.729294	51.283975
574.157476	51.531444
574.585639	51.696324
575.013782	51.767100
575.441906	51.740173
575.870009	51.598847
576.298093	51.357361
576.726157	51.019211
577.154202	50.587235
577.582226	50.082771
578.010231	49.507894
578.438216	48.875100
578.866181	48.214635
579.294126	47.538268
579.722051	46.844672
580.149957	46.161035
580.577842	45.468270
581.005707	44.799698
581.433553	44.140417
581.861378	43.504335
582.289184	42.884697
582.716969	42.282460
583.144734	41.700375
583.572479	41.134418
584.000205	40.600774
584.427910	40.094766
584.855594	39.623115
585.283259	39.182189
585.710904	38.794448
586.138528	38.445196
586.566132	38.165563
586.993716	37.942213
587.421280	37.782305
587.848823	37.686149
588.276346	37.665300
588.703849	37.698921
589.131332	37.802510
589.558794	37.964779
589.986236	38.178978
590.413657	38.455151
590.841058	38.765589
591.268438	39.134384
591.695799	39.551832
592.123138	40.016795
592.550458	40.505099
592.977756	41.049368
593.405034	41.615829
593.832292	42.236466
594.259529	42.881559
594.686746	43.558229
595.113942	44.249476
595.541117	44.947418
595.968272	45.643383
596.395406	46.312605
596.822519	46.948676
597.249612	47.524710
597.676684	48.046261
598.103735	48.482397
598.530766	48.839089
598.957775	49.091610
599.384764	49.243147
599.811733	49.305112
600.238680	49.278823
600.665606	49.165981
601.092512	48.982667
601.519397	48.719109
601.946261	48.417405
602.373104	48.066625
602.799926	47.675699
603.226727	47.252212
603.653507	46.809778
604.080266	46.352879
604.507004	45.863687
604.933721	45.348634
605.360417	44.815288
605.787092	44.289016
606.213746	43.743284
606.640379	43.186153
607.066991	42.611666
607.493581	42.055245
607.920150	41.495387
608.346699	40.944694
608.773226	40.422850
609.199731	39.941486
609.626216	39.504527
610.052679	39.129209
610.479121	38.821690
610.905542	38.578426
611.331941	38.408192
611.758319	38.316400
612.184676	38.306437
612.611011	38.372338
613.037325	38.499136
613.463617	38.695151
613.889888	38.942556
614.316138	39.233114
614.742366	39.570536
615.168573	39.939516
615.594758	40.337746
616.020921	40.774618
616.447063	41.233159
616.873184	41.712690
617.299283	42.201570
617.725360	42.713957
618.151416	43.250980
618.577450	43.794777
619.003462	44.341415
619.429453	44.900587
619.855422	45.468590
620.281369	46.025255
620.707295	46.556721
621.133199	47.072399
621.559081	47.562547
621.984941	48.001264
622.410779	48.383732
622.836596	48.687609
623.262391	48.927727
623.688163	49.089462
624.113914	49.176575
624.539644	49.196866
624.965351	49.146584
625.391036	49.029498
625.816699	48.839595
626.242340	48.601047
626.667960	48.315007
627.093557	47.994291
627.519132	47.652677
627.944685	47.288827
628.370216	46.922821
628.795725	46.548708
629.221212	46.159249
629.646677	45.775312
630.072119	45.380944
630.497540	44.998732
630.922938	44.630045
631.348314	44.266577
631.773668	43.912911
632.198999	43.578082
632.624308	43.250068
633.049595	42.945434
633.474860	42.674568
633.900102	42.444364
634.325322	42.256468
634.750520	42.122831
635.175695	42.052554
635.600848	42.039454
636.025978	42.117906
636.451086	42.261211
636.876171	42.478759
637.301234	42.778016
637.726275	43.132990
638.151293	43.547096
638.576288	44.012475
639.001261	44.540046
639.426211	45.103223
639.851139	45.690742
640.276044	46.296545
640.700927	46.914997
641.125787	47.524224
641.550624	48.104274
641.975438	48.660185
642.400230	49.182655
642.824999	49.646900
643.249745	50.081361
643.674469	50.462050
644.099169	50.784835
644.523847	51.058013
644.948502	51.278524
645.373135	51.453637
645.797744	51.578900
646.222330	51.647148
646.646894	51.662795
647.071435	51.619216
647.495953	51.516035
647.920447	51.352332
648.344919	51.128703
648.769368	50.857198
649.193794	50.511763
649.618197	50.113929
650.042576	49.656400
650.466933	49.151432
650.891267	48.601027
651.315577	48.010651
651.739864	47.394000
652.164129	46.746777
652.588370	46.086757
653.012587	45.414993
653.436782	44.743873
653.860953	44.076972
654.285102	43.432962
654.709226	42.815217
655.133328	42.222773
655.557406	41.678134
655.981461	41.178322
656.405493	40.721497
656.829501	40.304470
657.253486	39.927273
657.677448	39.591364
658.101386	39.301870
658.525301	39.039471
658.949192	38.805861
659.373060	38.616989
659.796904	38.458111
660.220725	38.334763
660.644522	38.244258
661.068296	38.187582
661.492046	38.165350
661.915772	38.180448
662.339475	38.240980
662.763154	38.335387
663.186810	38.482896
663.610442	38.676815
664.034050	38.927232
664.457635	39.230644
664.881196	39.585025
665.304733	39.988529
665.728247	40.447102
666.151736	40.957468
666.575202	41.513264
666.998644	42.117212
667.422062	42.757126
667.845457	43.416111
668.268827	44.103259
668.692174	44.794396
669.115496	45.496232
669.538795	46.183186
669.962070	46.865660
670.385321	47.522104
670.808547	48.143755
671.231750	48.722282
671.654929	49.262991
672.078084	49.757842
672.501214	50.199927
672.924321	50.596785
673.347404	50.939023
673.770462	51.238029
674.193496	51.497225
674.616506	51.707944
675.039492	51.875706
675.462454	52.000924
675.885391	52.091920
676.308305	52.148315
676.731194	52.170731
677.154058	52.170366
677.576899	52.139220
677.999715	52.084007
678.422507	52.018681
678.845274	51.932350
679.268017	51.831660
679.690736	51.708001
680.113430	51.572043
680.536100	51.423978
680.958746	51.279793
681.381367	51.119036
681.803963	50.958189
682.226535	50.801422
682.649083	50.653127
683.071605	50.516734
683.494104	50.400170
683.916578	50.305413
684.339027	50.241227
684.761451	50.201336
685.183851	50.198916
685.606227	50.210724
686.028577	50.246899
686.450903	50.315034
686.873204	50.391377
687.295481	50.478149
687.717733	50.583209
688.139959	50.691986
688.562162	50.799029
688.984339	50.906548
689.406492	51.001480
689.828619	51.082681
690.250722	51.127885
690.672800	51.160672
691.094853	51.162514
691.516881	51.136118
691.938884	51.066538
692.360863	50.971295
692.782816	50.860120
693.204744	50.717644
693.626647	50.554620
694.048526	50.372601
694.470379	50.191175
694.892207	50.008910
695.314010	49.824370
695.735788	49.653891
696.157540	49.484813
696.579268	49.336556
697.000970	49.201547
697.422648	49.076244
697.844300	48.964331
698.265926	48.869377
698.687528	48.803461
699.109104	48.754495
699.530655	48.710708
699.952181	48.692889
700.373681	48.681048
700.795156	48.675961
701.216606	48.671272
701.638030	48.676532
702.059429	48.672727
702.480803	48.661788
702.902151	48.638674
703.323473	48.616923
703.744770	48.568679
704.166042	48.507941
704.587288	48.431597
705.008509	48.346280
705.429704	48.242082
705.850873	48.117614
706.272017	47.983979
706.693135	47.832574
707.114228	47.677177
707.535295	47.505786
707.956336	47.328243
708.377352	47.147420
708.798342	46.944263
709.219306	46.750960
709.640245	46.559385
710.061157	46.374008
710.482044	46.198394
710.902905	46.036609
711.323741	45.883036
711.744550	45.742890
712.165334	45.611424
712.586092	45.504564
713.006823	45.405732
713.427529	45.332836
713.848209	45.276727
714.268863	45.244260
714.689492	45.222643
715.110094	45.235189
715.530670	45.266245
715.951220	45.330089
716.371744	45.406532
716.792242	45.512088
717.212714	45.636278
717.633159	45.775860
718.053579	45.944703
718.473973	46.122227
718.894340	46.312617
719.314681	46.507209
719.734996	46.711050
720.155285	46.913686
720.575547	47.126292
720.995784	47.326141
721.415994	47.519268
721.836177	47.710274
722.256335	47.871081
722.676466	47.998685
723.096570	48.107503
723.516649	48.184090
723.936701	48.226166
724.356726	48.229286
724.776725	48.191468
725.196698	48.120431
725.616644	48.006456
726.036564	47.857852
726.456457	47.675864
726.876324	47.476098
727.296164	47.252982
727.715977	47.011030
728.135764	46.751161
728.555525	46.488118
728.975258	46.212719
729.394966	45.956378
729.814646	45.715908
730.234300	45.490685
730.653927	45.290646
731.073527	45.105751
731.493101	44.959578
731.912648	44.848888
732.332168	44.786923
732.751661	44.771184
733.171128	44.795170
733.590568	44.858826
734.009980	44.973831
734.429366	45.126718
734.848726	45.321451
735.268058	45.566061
735.687363	45.854808
736.106641	46.169768
736.525893	46.515800
736.945117	46.884941
737.364314	47.275506
737.783485	47.681881
738.202628	48.093193
738.621744	48.517553
739.040834	48.945124
739.459896	49.354212
739.878931	49.747923
740.297939	50.124503
740.716919	50.483573
741.135873	50.811349
741.554799	51.103917
741.973698	51.362216
742.392570	51.572732
742.811415	51.741163
743.230232	51.863156
743.649022	51.948214
744.067785	51.985330
744.486521	51.974683
744.905229	51.921986
745.323909	51.823629
745.742563	51.687024
746.161189	51.521254
746.579787	51.326006
746.998358	51.094831
747.416902	50.831842
747.835418	50.559509
748.253907	50.269237
748.672368	49.964012
749.090802	49.662640
749.509208	49.356527
749.927586	49.061711
750.345937	48.779296
750.764261	48.511263
751.182556	48.274594
751.600824	48.056427
752.019065	47.861820
752.437277	47.701029
752.855462	47.573141
753.273620	47.478151
753.691749	47.424113
754.109851	47.407298
754.527925	47.429643
754.945971	47.483724
755.363989	47.575511
755.781980	47.680703
756.199943	47.836670
756.617877	47.982793
757.035784	48.153133
757.453663	48.331102
757.871514	48.510679
758.289337	48.683453
758.707132	48.840889
759.124899	48.974451
759.542639	49.085974
759.960350	49.175677
760.378033	49.245771
760.795688	49.270331
761.213314	49.255475
761.630913	49.199707
762.048484	49.096774
762.466026	48.953505
762.883541	48.772204
763.301027	48.551813
763.718485	48.295892
764.135914	48.004193
764.553316	47.679855
764.970689	47.333962
765.388034	46.979526
765.805351	46.600851
766.222639	46.217874
766.639899	45.813451
767.057131	45.406070
767.474334	45.000354
767.891509	44.603072
768.308655	44.218276
768.725773	43.854470
769.142863	43.497700
769.559924	43.182112
769.976957	42.892764
770.393961	42.636190
770.810936	42.409974
771.227883	42.225424
771.644802	42.070930
772.061692	41.966184
772.478553	41.892624
772.895386	41.851052
773.312190	41.856275
773.728965	41.902783
774.145712	41.991247
774.562430	42.118258
774.979119	42.282249
775.395780	42.478998
775.812411	42.702903
776.229014	42.946464
776.645589	43.207078
777.062134	43.491030
777.478651	43.774839
777.895138	44.066644
778.311597	44.356546
778.728027	44.649340
779.144428	44.921928
779.560800	45.189033
779.977143	45.438596
780.393458	45.667019
780.809743	45.865187
781.225999	46.022125
781.642226	46.150072
782.058425	46.231979
782.474594	46.272670
782.890734	46.264180
783.306845	46.218933
783.722926	46.130587
784.138979	45.974686
784.555003	45.780905
784.970997	45.540620
785.386962	45.260512
785.802898	44.945341
786.218805	44.580793
786.634682	44.185946
787.050531	43.762560
787.466349	43.317669
787.882139	42.855720
788.297899	42.390435
788.713630	41.925042
789.129332	41.471008
789.545004	41.032896
789.960647	40.608259
790.376260	40.220809
790.791844	39.871098
791.207399	39.547335
791.622924	39.253292
792.038419	39.001793
792.453885	38.795524
792.869321	38.640313
793.284728	38.531835
793.700106	38.476190
794.115453	38.464218
794.530771	38.486317
794.946060	38.548785
795.361319	38.651973
795.776548	38.781082
796.191747	38.924226
796.606917	39.091105
797.022057	39.284357
797.437167	39.496005
797.852248	39.702633
798.267298	39.921531
798.682319	40.129532
799.097310	40.335982
799.512271	40.517735
799.927203	40.696600
800.342104	40.855495
800.756976	40.993036
801.171818	41.097033
801.586629	41.173695
802.001411	41.217407
802.416163	41.236279
802.830885	41.222977
803.245577	41.181399
803.660238	41.094120
804.074870	40.986991
804.489472	40.846075
804.904043	40.679367
805.318585	40.484567
805.733096	40.253305
806.147577	40.000730
806.562028	39.720761
806.976449	39.430476
807.390840	39.124034
807.805200	38.812651
808.219530	38.484736
808.633830	38.150079
809.048100	37.813294
809.462339	37.475427
809.876548	37.143691
810.290727	36.811282
810.704875	36.483350
811.118993	36.156983
811.533080	35.854956
811.947137	35.557508
812.361164	35.274991
812.775160	34.994110
813.189126	34.747599
813.603061	34.507365
814.016966	34.290842
814.430840	34.086868
814.844684	33.903049
815.258497	33.749014
815.672280	33.606990
816.086032	33.490001
816.499753	33.402802
816.913444	33.341472
817.327104	33.302231
817.740733	33.284310
818.154331	33.290808
818.567899	33.322845
818.981436	33.370275
819.394943	33.446677
819.808418	33.547266
820.221863	33.677949
820.635277	33.817467
821.048660	33.976971
821.462013	34.166046
821.875334	34.371333
822.288625	34.608544
822.701884	34.847392
823.115113	35.105112
823.528311	35.383885
823.941478	35.663674
824.354614	35.955223
824.767718	36.260271
825.180792	36.567199
825.593835	36.881122
826.006847	37.167555
826.419827	37.461443
826.832777	37.753457
827.245695	38.026649
827.658582	38.295933
828.071438	38.531867
828.484263	38.749400
828.897057	38.930027
829.309819	39.096346
829.722551	39.233150
830.135251	39.335500
830.547919	39.407366
830.960557	39.456112
831.373163	39.473475
831.785738	39.454625
832.198281	39.429442
832.610793	39.367485
833.023274	39.291539
833.435723	39.199437
833.848141	39.103020
834.260528	38.989198
834.672883	38.882051
835.085206	38.751641
835.497498	38.630897
835.909758	38.522351
836.321987	38.411009
836.734185	38.328198
837.146350	38.239852
837.558485	38.178707
837.970587	38.135295
838.382658	38.107229
838.794697	38.110043
839.206705	38.111934
839.618681	38.138303
840.030625	38.199951
840.442538	38.270052
840.854418	38.350590
841.266267	38.454594
841.678084	38.598673
842.089870	38.755034
842.501623	38.905479
842.913345	39.087147
843.325035	39.285030
843.736693	39.491599
844.148319	39.705568
844.559913	39.942194
844.971475	40.158395
845.383005	40.383010
845.794504	40.597901
846.205970	40.827098
846.617404	41.042366
847.028806	41.251608
847.440176	41.423351
847.851514	41.592210
848.262820	41.749151
848.674094	41.874677
849.085336	41.987046
849.496546	42.067497
849.907723	42.107253
850.318868	42.120728
850.729981	42.094136
851.141062	42.037938
851.552110	41.936446
851.963127	41.814676
852.374111	41.649276
852.785062	41.440084
853.195982	41.203455
853.606869	40.947585
854.017723	40.666544
854.428546	40.330864
854.839336	39.972044
855.250093	39.609285
855.660818	39.218801
856.071511	38.800581
856.482171	38.364855
856.892799	37.922265
857.303394	37.457724
857.713956	36.984723
858.124486	36.523080
858.534984	36.041235
858.945449	35.543091
859.355881	35.046612
859.766280	34.559065
860.176647	34.103715
860.586982	33.643675
860.997283	33.188659
861.407552	32.743795
861.817789	32.325037
862.227992	31.912517
862.638163	31.558569
863.048301	31.197492
863.458406	30.874318
863.868478	30.569849
864.278518	30.303895
864.688524	30.073987
865.098498	29.874560
865.508439	29.720803
865.918347	29.592729
866.328222	29.508330
866.738064	29.445447
867.147873	29.429566
867.557649	29.445343
867.967392	29.487870
868.377102	29.557449
868.786779	29.673250
869.196423	29.832922
869.606034	30.008857
870.015612	30.221192
870.425156	30.477694
870.834668	30.730637
871.244146	31.030806
871.653591	31.339276
872.063003	31.671435
872.472382	32.019245
872.881728	32.365913
873.291040	32.728487
873.700319	33.096435
874.109564	33.472666
874.518777	33.836520
874.927956	34.190771
875.337102	34.523051
875.746214	34.854360
876.155293	35.165327
876.564338	35.472373
876.973350	35.753697
877.382329	35.998216
877.791274	36.229977
878.200186	36.415672
878.609064	36.589358
879.017909	36.726780
879.426720	36.841922
879.835497	36.914613
880.244241	36.950947
880.652952	36.974357
881.061629	36.986300
881.470272	36.945888
881.878881	36.862641
882.287457	36.773108
882.695999	36.636413
883.104507	36.477974
883.512982	36.334049
883.921423	36.154230
884.329830	35.996994
884.738203	35.824849
885.146543	35.631157
885.554849	35.437674
885.963120	35.232580
886.371358	35.056611
886.779563	34.867891
887.187733	34.691121
887.595869	34.507944
888.003971	34.355405
888.412040	34.211726
888.820074	34.067925
889.228074	33.943620
889.636041	33.822668
890.043973	33.728310
890.451871	33.628766
890.859736	33.542166
891.267566	33.452887
891.675362	33.366632
892.083124	33.289073
892.490851	33.233710
892.898545	33.181653
893.306204	33.124367
893.713829	33.050323
894.121420	32.994989
894.528977	32.938863
894.936499	32.887263
895.343987	32.851411
895.751441	32.811481
896.158860	32.744316
896.566246	32.681435
896.973596	32.570824
897.380913	32.463004
897.788195	32.357028
898.195442	32.243516
898.602655	32.136117
899.009834	31.992141
899.416978	31.852690
899.824088	31.691881
900.231163	31.566590
900.638204	31.402690
901.045210	31.235024
901.452181	31.078070
901.859118	30.881264
902.266021	30.710252
902.672888	30.517792
903.079721	30.336134
903.486520	30.154875
903.893283	29.980484
904.300012	29.798367
904.706707	29.614967
905.113366	29.431466
905.519991	29.247387
905.926581	29.077012
906.333136	28.898429
906.739656	28.743516
907.146142	28.569713
907.552592	28.405069
907.959008	28.225048
908.365389	28.051784
908.771735	27.873702
909.178046	27.702747
909.584322	27.555408
909.990563	27.402056
910.396769	27.246348
910.802940	27.084035
911.209076	26.916365
911.615177	26.744410
912.021243	26.567108
912.427274	26.425324
912.833270	26.247706
913.239231	26.094250
913.645156	25.922530
914.051046	25.770509
914.456902	25.638499
914.862721	25.489521
915.268506	25.354518
915.674256	25.225759
916.079970	25.102580
916.485649	24.964112
916.891292	24.848615
917.296901	24.735578
917.702474	24.611748
918.108011	24.496858
918.513514	24.371826
918.918980	24.277201
919.324412	24.163239
919.729808	24.075936
920.135169	23.985287
920.540494	23.916201
920.945783	23.830986
921.351037	23.762250
921.756256	23.701207
922.161439	23.642168
922.566586	23.590548
922.971698	23.544360
923.376775	23.503391
923.781815	23.477543
924.186820	23.445182
924.591790	23.441516
924.996723	23.411843
925.401621	23.420365
925.806484	23.391553
926.211310	23.386110
926.616101	23.369276
927.020856	23.359515
927.425575	23.328511
927.830259	23.313881
928.234906	23.290567
928.639518	23.270087
929.044094	23.269175
929.448634	23.258470
929.853138	23.246581
930.257606	23.239799
930.662038	23.237454
931.066434	23.226301
931.470795	23.208311
931.875119	23.194462
932.279407	23.183090
932.683659	23.144851
933.087875	23.110625
933.492055	23.089166
933.896199	23.052519
934.300307	23.014449
934.704379	22.972687
935.108414	22.917911
935.512414	22.857782
935.916377	22.806302
936.320304	22.744334
936.724195	22.685889
937.128049	22.606504
937.531867	22.521539
937.935649	22.419253
938.339395	22.331791
938.743104	22.237403
939.146777	22.145909
939.550414	22.048136
939.954014	21.974931
940.357578	21.879242
940.761105	21.785110
941.164596	21.666560
941.568050	21.542944
941.971468	21.432377
942.374850	21.314025
942.778195	21.195193
943.181503	21.086735
943.584775	20.989892
943.988010	20.867645
944.391209	20.769777
944.794371	20.657328
945.197496	20.561706
945.600585	20.444603
946.003637	20.339447
946.406653	20.244564
946.809632	20.132434
947.212574	20.067802
947.615479	19.968070
948.018347	19.863878
948.421179	19.779393
948.823974	19.693119
949.226732	19.609265
949.629453	19.531084
950.032138	19.467732
950.434785	19.393077
950.837396	19.349818
951.239969	19.289548
951.642506	19.205729
952.045006	19.143499
952.447469	19.061003
952.849895	18.994538
953.252283	18.920709
953.654635	18.879846
954.056950	18.831145
954.459227	18.767432
954.861468	18.733877
955.263671	18.686029
955.665838	18.651988
956.067967	18.596425
956.470059	18.553216
956.872114	18.493755
957.274131	18.435688
957.676112	18.397350
958.078055	18.370209
958.479961	18.314911
958.881829	18.259507
959.283661	18.216359
959.685455	18.151053
960.087211	18.131111
960.488931	18.128979
960.890613	18.110989
961.292257	18.069757
961.693864	18.077144
962.095434	18.043892
962.496966	18.002366
962.898461	17.978409
963.299918	17.946298
963.701338	17.930737
964.102720	17.923438
964.504065	17.896987
964.905372	17.865485
965.306641	17.826599
965.707873	17.823941
966.109068	17.783366
966.510224	17.787654
966.911343	17.790158
967.312425	17.774259
967.713468	17.767018
968.114474	17.698661
968.515442	17.673813
968.916373	17.645586
969.317265	17.580347
969.718120	17.536707
970.118937	17.478280
970.519716	17.409667
970.920458	17.377849
971.321161	17.368977
971.721827	17.332562
972.122454	17.256649
972.523044	17.206267
972.923596	17.159673
973.324110	17.103035
973.724585	17.047268
974.125023	16.954589
974.525423	16.885381
974.925785	16.847999
975.326108	16.817015
975.726394	16.710948
976.126642	16.632023
976.526851	16.586105
976.927022	16.532930
977.327155	16.484984
977.727250	16.447244
978.127307	16.359534
978.527325	16.345394
978.927306	16.275795
979.327248	16.182489
979.727151	16.067889
980.127017	16.039766
980.526844	15.983111
980.926633	15.920889
981.326383	15.895193
981.726095	15.878118
982.125769	15.851579
982.525404	15.834999
982.925001	15.795044
983.324560	15.767478
983.724079	15.690566
984.123561	15.684865
984.523004	15.710906
984.922408	15.675529
985.321774	15.667244
985.721102	15.557337
986.120390	15.555796
986.519641	15.583922
986.918852	15.598259
987.318025	15.605681
987.717159	15.535549
988.116255	15.609503
988.515312	15.649554
988.914330	15.629420
989.313310	15.599280
989.712250	15.590262
990.111152	15.647788
990.510015	15.693298
990.908840	15.732835
991.307625	15.691808
991.706372	15.641108
992.105080	15.659616
992.503749	15.608844
992.902379	15.652862
993.300970	15.773276
993.699522	15.747281
994.098035	15.776605
994.496510	15.785908
994.894945	15.903452
995.293341	16.097926
995.691698	16.170016
996.090016	16.283383
996.488296	16.339952
996.886535	16.419873
997.284736	16.569915
997.682898	16.589986
998.081021	16.746035
998.479104	16.795084
998.877148	16.939323
999.275153	17.046831
999.673119	17.079465
1000.071046	17.262336
1000.468933	17.399820
1000.866781	17.500814
1001.264590	17.699778
1001.662359	17.800631
1002.060089	17.988327
1002.457780	18.039111
1002.855431	18.183748
1003.253043	18.243117
1003.650615	18.522644
1004.048148	18.796085
1004.445642	19.102024
1004.843096	19.376772
1005.240511	19.529938
1005.637886	19.510532
1006.035221	19.940476
1006.432517	20.352147
1006.829774	20.761580
1007.226991	20.888040
1007.624168	21.070494
1008.021306	21.384280
1008.418404	21.544943
1008.815462	21.850073
1009.212481	21.994201
1009.609460	22.127640
1010.006399	22.469704
1010.403298	22.898922
1010.800158	23.308727
1011.196978	23.473909
1011.593758	23.610143
1011.990498	24.225554
1012.387199	24.646728
1012.783860	25.000000
1013.180480	25.353972
1013.577061	25.467261
1013.973602	26.148252
1014.370103	26.739373
1014.766564	27.122053
1015.162985	27.502742
1015.559366	27.855711
1015.955708	27.984376
1016.352009	28.416896
1016.748270	28.657096
1017.144491	28.786127
1017.540671	29.301707
1017.936812	29.781006
1018.332913	29.812152
1018.728973	29.940638
1019.124994	30.102848
1019.520974	30.527211
1019.916914	30.858363
1020.312814	30.651278
