Time1=100ms:Average1=5:Objective=10X:Aperture=1: (11/28/2018 10:29:38 AM)
11/28/2018 10:29:38 AM
Reflectance
10X
Ap#: 1
Avg1: 5.000000
Avg2: 0.000000
Int.Time1:100.000000

350.166136	59.729730
350.601937	59.528009
351.037728	59.607607
351.473509	59.628074
351.909281	59.094047
352.345042	59.343919
352.780794	59.719072
353.216536	59.444542
353.652267	59.133858
354.087989	59.068584
354.523701	59.263814
354.959403	59.292424
355.395095	59.201129
355.830777	59.371968
356.266449	59.552846
356.702110	59.588920
357.137762	59.842520
357.573404	60.145830
358.009035	59.813001
358.444656	59.368026
358.880268	59.096186
359.315869	59.357480
359.751459	59.407619
360.187040	59.112817
360.622610	59.233792
361.058170	59.420030
361.493720	59.093338
361.929260	59.373046
362.364789	59.808826
362.800308	59.715176
363.235816	59.692881
363.671314	59.719261
364.106802	59.682004
364.542279	59.474338
364.977746	59.298713
365.413203	59.753721
365.848649	59.785689
366.284084	59.391043
366.719509	59.505889
367.154924	59.626998
367.590328	59.685585
368.025721	59.987593
368.461104	60.124224
368.896477	60.104130
369.331838	59.493002
369.767189	59.442399
370.202530	59.318321
370.637859	59.198735
371.073178	58.925127
371.508486	58.722402
371.943784	58.833753
372.379071	58.861859
372.814347	58.710407
373.249612	58.752831
373.684866	58.877853
374.120110	58.884926
374.555343	59.067177
374.990565	59.290334
375.425776	58.993183
375.860976	58.908171
376.296165	59.284214
376.731343	59.348454
377.166511	59.362968
377.601667	59.677561
378.036812	59.864005
378.471946	59.886858
378.907070	59.673761
379.342182	59.574098
379.777283	59.730435
380.212373	59.594735
380.647452	59.324814
381.082520	59.298728
381.517576	58.821505
381.952622	58.938572
382.387656	58.949097
382.822679	59.213143
383.257691	59.277860
383.692692	59.061741
384.127681	59.097588
384.562659	59.467635
384.997626	59.554635
385.432581	59.732181
385.867525	59.834583
386.302458	59.882718
386.737379	60.025784
387.172289	60.116498
387.607188	60.023999
388.042075	59.970863
388.476951	59.883820
388.911815	59.738717
389.346668	59.691630
389.781509	59.569075
390.216338	59.313725
390.651157	59.083622
391.085963	58.967460
391.520758	58.990563
391.955541	58.844796
392.390313	58.863522
392.825073	58.979746
393.259821	58.870360
393.694558	58.857526
394.129283	59.056367
394.563996	58.940177
394.998698	59.089401
395.433388	58.913609
395.868066	58.637730
396.302732	58.685215
396.737386	58.400458
397.172029	58.540657
397.606659	58.243358
398.041278	57.567751
398.475885	57.552156
398.910480	57.229958
399.345063	56.838373
399.779634	56.426706
400.214194	55.586971
400.648741	54.770174
401.083276	53.723212
401.517799	52.454717
401.952310	51.095705
402.386809	49.436115
402.821296	47.762640
403.255771	45.714883
403.690234	43.814579
404.124684	41.719745
404.559123	39.766833
404.993549	37.619496
405.427963	35.573828
405.862365	33.699536
406.296754	31.894406
406.731131	30.211561
407.165496	28.711183
407.599849	27.141934
408.034190	25.673319
408.468518	24.449065
408.902833	23.307966
409.337137	22.329732
409.771428	21.224810
410.205706	20.328289
410.639973	19.459171
411.074226	18.779311
411.508467	18.089008
411.942696	17.438873
412.376912	16.903945
412.811116	16.374730
413.245307	15.889558
413.679486	15.479104
414.113652	15.091800
414.547805	14.774131
414.981946	14.509968
415.416074	14.256679
415.850190	14.044688
416.284293	13.823741
416.718383	13.659695
417.152460	13.546323
417.586525	13.436142
418.020577	13.301536
418.454616	13.221568
418.888643	13.142136
419.322656	13.073927
419.756657	13.006694
420.190645	12.973325
420.624620	12.882519
421.058582	12.846623
421.492531	12.810041
421.926468	12.770226
422.360391	12.758284
422.794301	12.725368
423.228199	12.729994
423.662083	12.732553
424.095955	12.733006
424.529813	12.714307
424.963658	12.761890
425.397491	12.765847
425.831310	12.794372
426.265116	12.836616
426.698909	12.880373
427.132689	12.926387
427.566455	12.978506
428.000209	13.019850
428.433949	13.051997
428.867676	13.101482
429.301389	13.148623
429.735090	13.233764
430.168777	13.311752
430.602451	13.369965
431.036111	13.409754
431.469759	13.472127
431.903392	13.521436
432.337013	13.586036
432.770620	13.633696
433.204213	13.682040
433.637794	13.723333
434.071360	13.777719
434.504914	13.838086
434.938453	13.895995
435.371979	13.948210
435.805492	14.000000
436.238991	14.064330
436.672477	14.140534
437.105949	14.214993
437.539407	14.283968
437.972852	14.364287
438.406283	14.399620
438.839700	14.481685
439.273104	14.528226
439.706494	14.573127
440.139871	14.614338
440.573233	14.665608
441.006582	14.700382
441.439917	14.762413
441.873238	14.807878
442.306546	14.857311
442.739839	14.931456
443.173119	14.960164
443.606385	14.991560
444.039636	15.021060
444.472874	15.056106
444.906099	15.096646
445.339309	15.130744
445.772505	15.193789
446.205687	15.248006
446.638855	15.292355
447.072009	15.335871
447.505149	15.401431
447.938275	15.450474
448.371387	15.509808
448.804485	15.562997
449.237569	15.615142
449.670638	15.673188
450.103694	15.703473
450.536735	15.732621
450.969762	15.778277
451.402774	15.798946
451.835773	15.829337
452.268757	15.855389
452.701727	15.881878
453.134683	15.904179
453.567624	15.937381
454.000551	15.974198
454.433464	16.008567
454.866362	16.029545
455.299246	16.065674
455.732116	16.100142
456.164971	16.120518
456.597811	16.149387
457.030638	16.196559
457.463449	16.225292
457.896246	16.272243
458.329029	16.308233
458.761797	16.331006
459.194551	16.330930
459.627290	16.350690
460.060014	16.365255
460.492724	16.392439
460.925419	16.413988
461.358099	16.445329
461.790765	16.467489
462.223416	16.475222
462.656052	16.483079
463.088674	16.474923
463.521281	16.484995
463.953873	16.484252
464.386450	16.474193
464.819012	16.469563
465.251560	16.460462
465.684093	16.429087
466.116611	16.408075
466.549114	16.385117
466.981602	16.350961
467.414075	16.312637
467.846533	16.275568
468.278977	16.236121
468.711405	16.192029
469.143818	16.154553
469.576216	16.099185
470.008600	16.055938
470.440968	15.989214
470.873321	15.927268
471.305659	15.859485
471.737982	15.779103
472.170289	15.702432
472.602582	15.618466
473.034859	15.521416
473.467122	15.442199
473.899369	15.353188
474.331600	15.266076
474.763817	15.173829
475.196018	15.097066
475.628204	15.038469
476.060375	14.985404
476.492530	14.944345
476.924670	14.916516
477.356795	14.882952
477.788904	14.856363
478.220998	14.839721
478.653076	14.836811
479.085139	14.842490
479.517186	14.863531
479.949219	14.885447
480.381235	14.915381
480.813236	14.939684
481.245221	14.984207
481.677191	15.045919
482.109146	15.125942
482.541084	15.208975
482.973008	15.312391
483.404915	15.420184
483.836807	15.573658
484.268683	15.753669
484.700544	15.953125
485.132388	16.177447
485.564217	16.431799
485.996031	16.702798
486.427828	16.988214
486.859610	17.291216
487.291376	17.593347
487.723126	17.901581
488.154860	18.220460
488.586579	18.524201
489.018281	18.816867
489.449968	19.107209
489.881639	19.400301
490.313293	19.694907
490.744932	20.005068
491.176555	20.322261
491.608162	20.648759
492.039753	20.975104
492.471328	21.322725
492.902886	21.669033
493.334429	22.020358
493.765956	22.365857
494.197466	22.712744
494.628960	23.041458
495.060439	23.346198
495.491901	23.636368
495.923347	23.922502
496.354776	24.188586
496.786190	24.452143
497.217587	24.683305
497.648968	24.898024
498.080332	25.109383
498.511681	25.313757
498.943013	25.515966
499.374328	25.718493
499.805628	25.927709
500.236911	26.126722
500.668177	26.339297
501.099427	26.568724
501.530661	26.784636
501.961878	27.027584
502.393079	27.271883
502.824264	27.527153
503.255431	27.770490
503.686583	28.000356
504.117717	28.209825
504.548835	28.415403
504.979937	28.599738
505.411022	28.772136
505.842090	28.932249
506.273142	29.065183
506.704177	29.189298
507.135195	29.310274
507.566197	29.422044
507.997182	29.530267
508.428150	29.638703
508.859102	29.757239
509.290036	29.872667
509.720954	29.999907
510.151855	30.128564
510.582739	30.254810
511.013607	30.398864
511.444457	30.536213
511.875291	30.680110
512.306107	30.805261
512.736907	30.930860
513.167690	31.059324
513.598456	31.165921
514.029205	31.262361
514.459936	31.338500
514.890651	31.410737
515.321349	31.464801
515.752030	31.517697
516.182693	31.550354
516.613340	31.593656
517.043969	31.629974
517.474582	31.694693
517.905177	31.755429
518.335755	31.847337
518.766315	31.954627
519.196859	32.064849
519.627385	32.199159
520.057894	32.355157
520.488386	32.537925
520.918860	32.747079
521.349318	32.981986
521.779757	33.236107
522.210180	33.502747
522.640585	33.785187
523.070973	34.084658
523.501343	34.397550
523.931696	34.732871
524.362031	35.062190
524.792349	35.416661
525.222650	35.781132
525.652933	36.149705
526.083198	36.536129
526.513446	36.928200
526.943677	37.348362
527.373890	37.769570
527.804085	38.203979
528.234262	38.651349
528.664422	39.108943
529.094565	39.570935
529.524689	40.049129
529.954796	40.533114
530.384885	41.027078
530.814957	41.516530
531.245011	42.024891
531.675047	42.521187
532.105065	43.026408
532.535065	43.548897
532.965048	44.082998
533.395013	44.617495
533.824959	45.145162
534.254888	45.682996
534.684799	46.251774
535.114693	46.832047
535.544568	47.409228
535.974425	48.000316
536.404264	48.608174
536.834086	49.226874
537.263889	49.858410
537.693674	50.516358
538.123441	51.174014
538.553190	51.843996
538.982921	52.537965
539.412634	53.243893
539.842329	53.943541
540.272006	54.666271
540.701664	55.394286
541.131304	56.118176
541.560926	56.844070
541.990530	57.578340
542.420116	58.305240
542.849683	59.014738
543.279232	59.710182
543.708763	60.405512
544.138275	61.088001
544.567769	61.752543
544.997245	62.410099
545.426702	63.046846
545.856141	63.668797
546.285562	64.278070
546.714964	64.862062
547.144347	65.452461
547.573713	66.020205
548.003059	66.549415
548.432387	67.072072
548.861697	67.579564
549.290988	68.062909
549.720260	68.520554
550.149514	68.968442
550.578750	69.389294
551.007966	69.784467
551.437164	70.160076
551.866344	70.518531
552.295504	70.862928
552.724646	71.175359
553.153769	71.483636
553.582874	71.767290
554.011960	72.034790
554.441027	72.283734
554.870075	72.530754
555.299104	72.764314
555.728115	73.008517
556.157106	73.251460
556.586079	73.490938
557.015033	73.722570
557.443968	73.961898
557.872884	74.208514
558.301781	74.451066
558.730659	74.708305
559.159518	74.976588
559.588358	75.244439
560.017180	75.528566
560.445982	75.819719
560.874765	76.132247
561.303528	76.446795
561.732273	76.749935
562.160999	77.047631
562.589705	77.366470
563.018393	77.687054
563.447061	77.992395
563.875710	78.299811
564.304340	78.611971
564.732950	78.937856
565.161542	79.236893
565.590114	79.554393
566.018666	79.875892
566.447200	80.187120
566.875714	80.486306
567.304208	80.795433
567.732684	81.098336
568.161140	81.374889
568.589576	81.645457
569.017993	81.898487
569.446391	82.144176
569.874769	82.377028
570.303128	82.580772
570.731467	82.780248
571.159787	82.944235
571.588087	83.088781
572.016368	83.207939
572.444629	83.294544
572.872870	83.368789
573.301092	83.422083
573.729294	83.440978
574.157476	83.424239
574.585639	83.381043
575.013782	83.343843
575.441906	83.294276
575.870009	83.203672
576.298093	83.092906
576.726157	82.979959
577.154202	82.856752
577.582226	82.718613
578.010231	82.566063
578.438216	82.418346
578.866181	82.256438
579.294126	82.091074
579.722051	81.938865
580.149957	81.792051
580.577842	81.633599
581.005707	81.490797
581.433553	81.363272
581.861378	81.227276
582.289184	81.096445
582.716969	80.968691
583.144734	80.870767
583.572479	80.807356
584.000205	80.729626
584.427910	80.665633
584.855594	80.610776
585.283259	80.579938
585.710904	80.548420
586.138528	80.515816
586.566132	80.494700
586.993716	80.479775
587.421280	80.478225
587.848823	80.496603
588.276346	80.492738
588.703849	80.485710
589.131332	80.500947
589.558794	80.512135
589.986236	80.523272
590.413657	80.527621
590.841058	80.529287
591.268438	80.520687
591.695799	80.521195
592.123138	80.510582
592.550458	80.496482
592.977756	80.477935
593.405034	80.450605
593.832292	80.439283
594.259529	80.424431
594.686746	80.403573
595.113942	80.386790
595.541117	80.379065
595.968272	80.373602
596.395406	80.341620
596.822519	80.310881
597.249612	80.293474
597.676684	80.292008
598.103735	80.288747
598.530766	80.288165
598.957775	80.300725
599.384764	80.324729
599.811733	80.350099
600.238680	80.394950
600.665606	80.435619
601.092512	80.488566
601.519397	80.542305
601.946261	80.616442
602.373104	80.692927
602.799926	80.770124
603.226727	80.842207
603.653507	80.928740
604.080266	81.026046
604.507004	81.123229
604.933721	81.211926
605.360417	81.298507
605.787092	81.377964
606.213746	81.452843
606.640379	81.513964
607.066991	81.556215
607.493581	81.587373
607.920150	81.599190
608.346699	81.593566
608.773226	81.564270
609.199731	81.519303
609.626216	81.465239
610.052679	81.363188
610.479121	81.249697
610.905542	81.100686
611.331941	80.952155
611.758319	80.755340
612.184676	80.549303
612.611011	80.311876
613.037325	80.062412
613.463617	79.782910
613.889888	79.477800
614.316138	79.134906
614.742366	78.792276
615.168573	78.423458
615.594758	78.023390
616.020921	77.613484
616.447063	77.195820
616.873184	76.773043
617.299283	76.318189
617.725360	75.868033
618.151416	75.415052
618.577450	74.962867
619.003462	74.507932
619.429453	74.042386
619.855422	73.586679
620.281369	73.139420
620.707295	72.689656
621.133199	72.266840
621.559081	71.841728
621.984941	71.415325
622.410779	70.997703
622.836596	70.562862
623.262391	70.145220
623.688163	69.713402
624.113914	69.267947
624.539644	68.806873
624.965351	68.338183
625.391036	67.826619
625.816699	67.296825
626.242340	66.728320
626.667960	66.109415
627.093557	65.453011
627.519132	64.757459
627.944685	64.013204
628.370216	63.223953
628.795725	62.386757
629.221212	61.514237
629.646677	60.593964
630.072119	59.620150
630.497540	58.626415
630.922938	57.595460
631.348314	56.532214
631.773668	55.445173
632.198999	54.333295
632.624308	53.230984
633.049595	52.122558
633.474860	51.014884
633.900102	49.929763
634.325322	48.845781
634.750520	47.794527
635.175695	46.773034
635.600848	45.781630
636.025978	44.840082
636.451086	43.934319
636.876171	43.073568
637.301234	42.274808
637.726275	41.520420
638.151293	40.820702
638.576288	40.202220
639.001261	39.643688
639.426211	39.157188
639.851139	38.756194
640.276044	38.444885
640.700927	38.223152
641.125787	38.086198
641.550624	38.037378
641.975438	38.083094
642.400230	38.205112
642.824999	38.408647
643.249745	38.693288
643.674469	39.041188
644.099169	39.444827
644.523847	39.909069
644.948502	40.415961
645.373135	40.976807
645.797744	41.543243
646.222330	42.129183
646.646894	42.715295
647.071435	43.296444
647.495953	43.864634
647.920447	44.412693
648.344919	44.927827
648.769368	45.409676
649.193794	45.855476
649.618197	46.262109
650.042576	46.607785
650.466933	46.908481
650.891267	47.159871
651.315577	47.362097
651.739864	47.512692
652.164129	47.608802
652.588370	47.655444
653.012587	47.644328
653.436782	47.568942
653.860953	47.449513
654.285102	47.280660
654.709226	47.066889
655.133328	46.805750
655.557406	46.508086
655.981461	46.178219
656.405493	45.818330
656.829501	45.429022
657.253486	45.019530
657.677448	44.599188
658.101386	44.161969
658.525301	43.715110
658.949192	43.274320
659.373060	42.845958
659.796904	42.432392
660.220725	42.035885
660.644522	41.667126
661.068296	41.323463
661.492046	41.013429
661.915772	40.737391
662.339475	40.485360
662.763154	40.271775
663.186810	40.096115
663.610442	39.942601
664.034050	39.822605
664.457635	39.732846
664.881196	39.661881
665.304733	39.611200
665.728247	39.583735
666.151736	39.582571
666.575202	39.610603
666.998644	39.653007
667.422062	39.721432
667.845457	39.808705
668.268827	39.925569
668.692174	40.065518
669.115496	40.230870
669.538795	40.422581
669.962070	40.647806
670.385321	40.897731
670.808547	41.166903
671.231750	41.470324
671.654929	41.786981
672.078084	42.124044
672.501214	42.466232
672.924321	42.821542
673.347404	43.185276
673.770462	43.548687
674.193496	43.916439
674.616506	44.279195
675.039492	44.628066
675.462454	44.966104
675.885391	45.286843
676.308305	45.599497
676.731194	45.901149
677.154058	46.183084
677.576899	46.442029
677.999715	46.681604
678.422507	46.908912
678.845274	47.123744
679.268017	47.320761
679.690736	47.488157
680.113430	47.632403
680.536100	47.747947
680.958746	47.855602
681.381367	47.929818
681.803963	47.986410
682.226535	48.014068
682.649083	48.019266
683.071605	47.999993
683.494104	47.959078
683.916578	47.899422
684.339027	47.815802
684.761451	47.714170
685.183851	47.606171
685.606227	47.478886
686.028577	47.343700
686.450903	47.199907
686.873204	47.044684
687.295481	46.873244
687.717733	46.701198
688.139959	46.533302
688.562162	46.359013
688.984339	46.189253
689.406492	46.016051
689.828619	45.840581
690.250722	45.671757
690.672800	45.511461
691.094853	45.357751
691.516881	45.217640
691.938884	45.074146
692.360863	44.940848
692.782816	44.824677
693.204744	44.717387
693.626647	44.618681
694.048526	44.525645
694.470379	44.443946
694.892207	44.368558
695.314010	44.307867
695.735788	44.252041
696.157540	44.207331
696.579268	44.168299
697.000970	44.132830
697.422648	44.109997
697.844300	44.087696
698.265926	44.067587
698.687528	44.063193
699.109104	44.060597
699.530655	44.055929
699.952181	44.067607
700.373681	44.084547
700.795156	44.105468
701.216606	44.124080
701.638030	44.157797
702.059429	44.186654
702.480803	44.223119
702.902151	44.261528
703.323473	44.301960
703.744770	44.339950
704.166042	44.380702
704.587288	44.421676
705.008509	44.465291
705.429704	44.507085
705.850873	44.544573
706.272017	44.589425
706.693135	44.636626
707.114228	44.676524
707.535295	44.721712
707.956336	44.772529
708.377352	44.819355
708.798342	44.867365
709.219306	44.914842
709.640245	44.973993
710.061157	45.029772
710.482044	45.074254
710.902905	45.133732
711.323741	45.193197
711.744550	45.248721
712.165334	45.301306
712.586092	45.362428
713.006823	45.414110
713.427529	45.467849
713.848209	45.524559
714.268863	45.580989
714.689492	45.643337
715.110094	45.714899
715.530670	45.789942
715.951220	45.875839
716.371744	45.970641
716.792242	46.087683
717.212714	46.203606
717.633159	46.328617
718.053579	46.464590
718.473973	46.607990
718.894340	46.757294
719.314681	46.903829
719.734996	47.046310
720.155285	47.199218
720.575547	47.338900
720.995784	47.469201
721.415994	47.593409
721.836177	47.707571
722.256335	47.802896
722.676466	47.879792
723.096570	47.942223
723.516649	48.001151
723.936701	48.047010
724.356726	48.065056
724.776725	48.079493
725.196698	48.090834
725.616644	48.088912
726.036564	48.076828
726.456457	48.067051
726.876324	48.054776
727.296164	48.045150
727.715977	48.031122
728.135764	48.022853
728.555525	48.019579
728.975258	48.019364
729.394966	48.021941
729.814646	48.022456
730.234300	48.035179
730.653927	48.046189
731.073527	48.055823
731.493101	48.070393
731.912648	48.081364
732.332168	48.097648
732.751661	48.123964
733.171128	48.134466
733.590568	48.156126
734.009980	48.190294
734.429366	48.221875
734.848726	48.257826
735.268058	48.297755
735.687363	48.344358
736.106641	48.399330
736.525893	48.454664
736.945117	48.511252
737.364314	48.580563
737.783485	48.651915
738.202628	48.711370
738.621744	48.771456
739.040834	48.836534
739.459896	48.891307
739.878931	48.930803
740.297939	48.964721
740.716919	48.997324
741.135873	49.005460
741.554799	49.005332
741.973698	48.989141
742.392570	48.960424
742.811415	48.918801
743.230232	48.862863
743.649022	48.801709
744.067785	48.727687
744.486521	48.640628
744.905229	48.557653
745.323909	48.468102
745.742563	48.377709
746.161189	48.297911
746.579787	48.212325
746.998358	48.112793
747.416902	48.012984
747.835418	47.911843
748.253907	47.807660
748.672368	47.697357
749.090802	47.586819
749.509208	47.466122
749.927586	47.345565
750.345937	47.214890
750.764261	47.073497
751.182556	46.936087
751.600824	46.792394
752.019065	46.632999
752.437277	46.469452
752.855462	46.309792
753.273620	46.134009
753.691749	45.947333
754.109851	45.771183
754.527925	45.578746
754.945971	45.384210
755.363989	45.184814
755.781980	44.976004
756.199943	44.778834
756.617877	44.569544
757.035784	44.362786
757.453663	44.159007
757.871514	43.958542
758.289337	43.758319
758.707132	43.559561
759.124899	43.364350
759.542639	43.185767
759.960350	43.019951
760.378033	42.879020
760.795688	42.741461
761.213314	42.628635
761.630913	42.538534
762.048484	42.464747
762.466026	42.413691
762.883541	42.369684
763.301027	42.363219
763.718485	42.383713
764.135914	42.427049
764.553316	42.481999
764.970689	42.570208
765.388034	42.678711
765.805351	42.801431
766.222639	42.957466
766.639899	43.129070
767.057131	43.316255
767.474334	43.537608
767.891509	43.771114
768.308655	44.022887
768.725773	44.294595
769.142863	44.567386
769.559924	44.857398
769.976957	45.158536
770.393961	45.462584
770.810936	45.766452
771.227883	46.081618
771.644802	46.391624
772.061692	46.699809
772.478553	46.991712
772.895386	47.271056
773.312190	47.537525
773.728965	47.809964
774.145712	48.064754
774.562430	48.292803
774.979119	48.520152
775.395780	48.721711
775.812411	48.915587
776.229014	49.093677
776.645589	49.245262
777.062134	49.380301
777.478651	49.502035
777.895138	49.592338
778.311597	49.669862
778.728027	49.719941
779.144428	49.750292
779.560800	49.755613
779.977143	49.733059
780.393458	49.683343
780.809743	49.625700
781.225999	49.533054
781.642226	49.423752
782.058425	49.291033
782.474594	49.132053
782.890734	48.953866
783.306845	48.758446
783.722926	48.547211
784.138979	48.310033
784.555003	48.057966
784.970997	47.793896
785.386962	47.529299
785.802898	47.262929
786.218805	46.990304
786.634682	46.713950
787.050531	46.436409
787.466349	46.161741
787.882139	45.886228
788.297899	45.639919
788.713630	45.398919
789.129332	45.157993
789.545004	44.924909
789.960647	44.702793
790.376260	44.485401
790.791844	44.295349
791.207399	44.093616
791.622924	43.903632
792.038419	43.714054
792.453885	43.537453
792.869321	43.361794
793.284728	43.186736
793.700106	43.001712
794.115453	42.821411
794.530771	42.624035
794.946060	42.424621
795.361319	42.221351
795.776548	42.022064
796.191747	41.822380
796.606917	41.618242
797.022057	41.408734
797.437167	41.197822
797.852248	40.996982
798.267298	40.799010
798.682319	40.598322
799.097310	40.404323
799.512271	40.206914
799.927203	40.029176
800.342104	39.871951
800.756976	39.710934
801.171818	39.553120
801.586629	39.408898
802.001411	39.273834
802.416163	39.151092
802.830885	39.043051
803.245577	38.958234
803.660238	38.871579
804.074870	38.804016
804.489472	38.760195
804.904043	38.724622
805.318585	38.702104
805.733096	38.701909
806.147577	38.701970
806.562028	38.724912
806.976449	38.755722
807.390840	38.810819
807.805200	38.884400
808.219530	38.973065
808.633830	39.064340
809.048100	39.165282
809.462339	39.283900
809.876548	39.416354
810.290727	39.573525
810.704875	39.723017
811.118993	39.885948
811.533080	40.064107
811.947137	40.239995
812.361164	40.428451
812.775160	40.606560
813.189126	40.783481
813.603061	40.953598
814.016966	41.123811
814.430840	41.292561
814.844684	41.443773
815.258497	41.602444
815.672280	41.745041
816.086032	41.872720
816.499753	41.992763
816.913444	42.105153
817.327104	42.190388
817.740733	42.271935
818.154331	42.340137
818.567899	42.389128
818.981436	42.443268
819.394943	42.471109
819.808418	42.505252
820.221863	42.516778
820.635277	42.515472
821.048660	42.503303
821.462013	42.478767
821.875334	42.451807
822.288625	42.391583
822.701884	42.325703
823.115113	42.241330
823.528311	42.150067
823.941478	42.044093
824.354614	41.924845
824.767718	41.803289
825.180792	41.665592
825.593835	41.536157
826.006847	41.397257
826.419827	41.276075
826.832777	41.151016
827.245695	41.024506
827.658582	40.909965
828.071438	40.785440
828.484263	40.677408
828.897057	40.565553
829.309819	40.481479
829.722551	40.407615
830.135251	40.354289
830.547919	40.310580
830.960557	40.283762
831.373163	40.276001
831.785738	40.251609
832.198281	40.271317
832.610793	40.277428
833.023274	40.304835
833.435723	40.323158
833.848141	40.360675
834.260528	40.409399
834.672883	40.437632
835.085206	40.486960
835.497498	40.535202
835.909758	40.591600
836.321987	40.650908
836.734185	40.704315
837.146350	40.746542
837.558485	40.788384
837.970587	40.844705
838.382658	40.879997
838.794697	40.924688
839.206705	40.950081
839.618681	40.971757
840.030625	40.983582
840.442538	41.000164
840.854418	41.012111
841.266267	41.019826
841.678084	41.047363
842.089870	41.057153
842.501623	41.048290
842.913345	41.058839
843.325035	41.051906
843.736693	41.055798
844.148319	41.054482
844.559913	41.077921
844.971475	41.089293
845.383005	41.106119
845.794504	41.125157
846.205970	41.156865
846.617404	41.202262
847.028806	41.238430
847.440176	41.293554
847.851514	41.358003
848.262820	41.441021
848.674094	41.515843
849.085336	41.597803
849.496546	41.690102
849.907723	41.794366
850.318868	41.912910
850.729981	42.022448
851.141062	42.148088
851.552110	42.276124
851.963127	42.397528
852.374111	42.530330
852.785062	42.674244
853.195982	42.792084
853.606869	42.929051
854.017723	43.061889
854.428546	43.176598
854.839336	43.301935
855.250093	43.426367
855.660818	43.520761
856.071511	43.613214
856.482171	43.667694
856.892799	43.725335
857.303394	43.741929
857.713956	43.729849
858.124486	43.740130
858.534984	43.708765
858.945449	43.651881
859.355881	43.561853
859.766280	43.460108
860.176647	43.350927
860.586982	43.214719
860.997283	43.037836
861.407552	42.841043
861.817789	42.639551
862.227992	42.401668
862.638163	42.172596
863.048301	41.926915
863.458406	41.671896
863.868478	41.409427
864.278518	41.138201
864.688524	40.872706
865.098498	40.597531
865.508439	40.328896
865.918347	40.064335
866.328222	39.794108
866.738064	39.525096
867.147873	39.279637
867.557649	39.017217
867.967392	38.781092
868.377102	38.550641
868.786779	38.335183
869.196423	38.154560
869.606034	37.969561
870.015612	37.840094
870.425156	37.716599
870.834668	37.580660
871.244146	37.480201
871.653591	37.401255
872.063003	37.341546
872.472382	37.300354
872.881728	37.268370
873.291040	37.249627
873.700319	37.246446
874.109564	37.274615
874.518777	37.306153
874.927956	37.365480
875.337102	37.412313
875.746214	37.480280
876.155293	37.539730
876.564338	37.609880
876.973350	37.685554
877.382329	37.767923
877.791274	37.844302
878.200186	37.921482
878.609064	38.008533
879.017909	38.099949
879.426720	38.184680
879.835497	38.263409
880.244241	38.347725
880.652952	38.429596
881.061629	38.521442
881.470272	38.605480
881.878881	38.689021
882.287457	38.775478
882.695999	38.808880
883.104507	38.870841
883.512982	38.924771
883.921423	38.980214
884.329830	39.074594
884.738203	39.119804
885.146543	39.187072
885.554849	39.245036
885.963120	39.306060
886.371358	39.382542
886.779563	39.449174
887.187733	39.503204
887.595869	39.568603
888.003971	39.638605
888.412040	39.702041
888.820074	39.778364
889.228074	39.875267
889.636041	39.949411
890.043973	40.051028
890.451871	40.141932
890.859736	40.238195
891.267566	40.333265
891.675362	40.423656
892.083124	40.528958
892.490851	40.632414
892.898545	40.737622
893.306204	40.842527
893.713829	40.911592
894.121420	41.008304
894.528977	41.088186
894.936499	41.164354
895.343987	41.272537
895.751441	41.344212
896.158860	41.413320
896.566246	41.483422
896.973596	41.494308
897.380913	41.548431
897.788195	41.553524
898.195442	41.548347
898.602655	41.541429
899.009834	41.511324
899.416978	41.463892
899.824088	41.405989
900.231163	41.334417
900.638204	41.238876
901.045210	41.124379
901.452181	40.987879
901.859118	40.805513
902.266021	40.651970
902.672888	40.439496
903.079721	40.249231
903.486520	40.012145
903.893283	39.761067
904.300012	39.503201
904.706707	39.206663
905.113366	38.883153
905.519991	38.548946
905.926581	38.221725
906.333136	37.887212
906.739656	37.532671
907.146142	37.171127
907.552592	36.804632
907.959008	36.432726
908.365389	36.066262
908.771735	35.699515
909.178046	35.333982
909.584322	34.970297
909.990563	34.595684
910.396769	34.235180
910.802940	33.896915
911.209076	33.573240
911.615177	33.246549
912.021243	32.945784
912.427274	32.658782
912.833270	32.372552
913.239231	32.101183
913.645156	31.842093
914.051046	31.580223
914.456902	31.363727
914.862721	31.123139
915.268506	30.926573
915.674256	30.723177
916.079970	30.549208
916.485649	30.394166
916.891292	30.250534
917.296901	30.116704
917.702474	30.000665
918.108011	29.888615
918.513514	29.758363
918.918980	29.644269
919.324412	29.540341
919.729808	29.432972
920.135169	29.350223
920.540494	29.263759
920.945783	29.178327
921.351037	29.102353
921.756256	29.033910
922.161439	28.945249
922.566586	28.883721
922.971698	28.830203
923.376775	28.765260
923.781815	28.703025
924.186820	28.635814
924.591790	28.562831
924.996723	28.495680
925.401621	28.428581
925.806484	28.359248
926.211310	28.270392
926.616101	28.213988
927.020856	28.132144
927.425575	28.056637
927.830259	27.959687
928.234906	27.846592
928.639518	27.749239
929.044094	27.648663
929.448634	27.540864
929.853138	27.423459
930.257606	27.318717
930.662038	27.227521
931.066434	27.131657
931.470795	27.061783
931.875119	26.971938
932.279407	26.901908
932.683659	26.818670
933.087875	26.747470
933.492055	26.690767
933.896199	26.619665
934.300307	26.517734
934.704379	26.480790
935.108414	26.405451
935.512414	26.323328
935.916377	26.275804
936.320304	26.202190
936.724195	26.134449
937.128049	26.078334
937.531867	26.021334
937.935649	25.951671
938.339395	25.906301
938.743104	25.871050
939.146777	25.822183
939.550414	25.768748
939.954014	25.729907
940.357578	25.693565
940.761105	25.684235
941.164596	25.637140
941.568050	25.594454
941.971468	25.543674
942.374850	25.523345
942.778195	25.486448
943.181503	25.444668
943.584775	25.428516
943.988010	25.392460
944.391209	25.350921
944.794371	25.308253
945.197496	25.262218
945.600585	25.181739
946.003637	25.117259
946.406653	25.049173
946.809632	24.997223
947.212574	24.909127
947.615479	24.829019
948.018347	24.749496
948.421179	24.655367
948.823974	24.556486
949.226732	24.474513
949.629453	24.355935
950.032138	24.241220
950.434785	24.151594
950.837396	24.060848
951.239969	23.939818
951.642506	23.806083
952.045006	23.673846
952.447469	23.533157
952.849895	23.394463
953.252283	23.263499
953.654635	23.135549
954.056950	23.010083
954.459227	22.891828
954.861468	22.751947
955.263671	22.621913
955.665838	22.519777
956.067967	22.384229
956.470059	22.242589
956.872114	22.116469
957.274131	21.981674
957.676112	21.864215
958.078055	21.781651
958.479961	21.662754
958.881829	21.559345
959.283661	21.451714
959.685455	21.383929
960.087211	21.319978
960.488931	21.261335
960.890613	21.189413
961.292257	21.144275
961.693864	21.114519
962.095434	21.070205
962.496966	21.039051
962.898461	21.000072
963.299918	20.958290
963.701338	20.959762
964.102720	20.952046
964.504065	20.969826
964.905372	20.966205
965.306641	20.969038
965.707873	20.987277
966.109068	21.002385
966.510224	21.034241
966.911343	21.057327
967.312425	21.101692
967.713468	21.151127
968.114474	21.127785
968.515442	21.136191
968.916373	21.173605
969.317265	21.213656
969.718120	21.248656
970.118937	21.270802
970.519716	21.281259
970.920458	21.291352
971.321161	21.335934
971.721827	21.348539
972.122454	21.336949
972.523044	21.334597
972.923596	21.334918
973.324110	21.343810
973.724585	21.338526
974.125023	21.300758
974.525423	21.327751
974.925785	21.313137
975.326108	21.337226
975.726394	21.290833
976.126642	21.224297
976.526851	21.229147
976.927022	21.203235
977.327155	21.233015
977.727250	21.231508
978.127307	21.202624
978.527325	21.185296
978.927306	21.160607
979.327248	21.146922
979.727151	21.102441
980.127017	21.103091
980.526844	21.056425
980.926633	21.018132
981.326383	21.005388
981.726095	20.993210
982.125769	20.974139
982.525404	20.979430
982.925001	20.931284
983.324560	20.934276
983.724079	20.891570
984.123561	20.941832
984.523004	20.922328
984.922408	20.910141
985.321774	20.942808
985.721102	20.929739
986.120390	20.882926
986.519641	20.930204
986.918852	20.896512
987.318025	20.912737
987.717159	20.813519
988.116255	20.914155
988.515312	21.024848
988.914330	21.037524
989.313310	21.014831
989.712250	20.957330
990.111152	20.997826
990.510015	21.037756
990.908840	21.090336
991.307625	21.116857
991.706372	21.138853
992.105080	21.152169
992.503749	21.071687
992.902379	21.190058
993.300970	21.281348
993.699522	21.259998
994.098035	21.254849
994.496510	21.341463
994.894945	21.315511
995.293341	21.480301
995.691698	21.523779
996.090016	21.581355
996.488296	21.554741
996.886535	21.735101
997.284736	21.827613
997.682898	21.851601
998.081021	21.880346
998.479104	22.006618
998.877148	22.100863
999.275153	22.214259
999.673119	22.288562
1000.071046	22.558705
1000.468933	22.576888
1000.866781	22.587124
1001.264590	22.680355
1001.662359	22.760717
1002.060089	22.968147
1002.457780	22.938366
1002.855431	22.974530
1003.253043	22.981791
1003.650615	23.080106
1004.048148	23.076672
1004.445642	23.261175
1004.843096	23.521372
1005.240511	23.562535
1005.637886	23.658808
1006.035221	23.941799
1006.432517	24.197866
1006.829774	24.298595
1007.226991	24.627994
1007.624168	24.779195
1008.021306	24.949723
1008.418404	25.203112
1008.815462	25.578423
1009.212481	25.631965
1009.609460	25.853568
1010.006399	26.311252
1010.403298	26.788440
1010.800158	27.252503
1011.196978	27.404473
1011.593758	27.598778
1011.990498	28.017859
1012.387199	28.119857
1012.783860	28.346181
1013.180480	28.701704
1013.577061	28.858770
1013.973602	29.305945
1014.370103	29.616977
1014.766564	30.013870
1015.162985	30.427788
1015.559366	30.761523
1015.955708	31.027748
1016.352009	31.464629
1016.748270	31.782664
1017.144491	31.830443
1017.540671	32.256416
1017.936812	32.567216
1018.332913	32.722635
1018.728973	32.933465
1019.124994	33.293776
1019.520974	33.262472
1019.916914	33.313005
1020.312814	33.470734
