Time1=100ms:Average1=5:Objective=10X:Aperture=1: (11/28/2018 10:37:45 AM)
11/28/2018 10:37:45 AM
Reflectance
10X
Ap#: 1
Avg1: 5.000000
Avg2: 0.000000
Int.Time1:100.000000

350.166136	65.176085
350.601937	64.986982
351.037728	65.175114
351.473509	64.658497
351.909281	65.064711
352.345042	65.189321
352.780794	65.389984
353.216536	65.472227
353.652267	65.608049
354.087989	65.742852
354.523701	65.668102
354.959403	65.780002
355.395095	65.858390
355.830777	66.428508
356.266449	66.551785
356.702110	66.575512
357.137762	66.734495
357.573404	66.654811
358.009035	66.589492
358.444656	66.205481
358.880268	66.062338
359.315869	66.227641
359.751459	66.348470
360.187040	65.699750
360.622610	65.743883
361.058170	66.257943
361.493720	66.218383
361.929260	66.080200
362.364789	66.214043
362.800308	66.123721
363.235816	66.216936
363.671314	66.249112
364.106802	66.450524
364.542279	66.604511
364.977746	66.631158
365.413203	66.645996
365.848649	66.666667
366.284084	66.755178
366.719509	66.820154
367.154924	66.545293
367.590328	66.613376
368.025721	67.024105
368.461104	67.062999
368.896477	66.881398
369.331838	66.464220
369.767189	66.535157
370.202530	66.748445
370.637859	67.079599
371.073178	67.017359
371.508486	66.794659
371.943784	66.889719
372.379071	66.663771
372.814347	66.715976
373.249612	66.887302
373.684866	67.468200
374.120110	67.513264
374.555343	67.090150
374.990565	67.199790
375.425776	67.129872
375.860976	67.044563
376.296165	66.914596
376.731343	66.722130
377.166511	66.275814
377.601667	66.249014
378.036812	66.053526
378.471946	66.196693
378.907070	66.268318
379.342182	65.840939
379.777283	65.678261
380.212373	65.768964
380.647452	65.800380
381.082520	65.787212
381.517576	65.238710
381.952622	65.193418
382.387656	65.344395
382.822679	65.335063
383.257691	65.382284
383.692692	65.261880
384.127681	64.828421
384.562659	65.162907
384.997626	65.164854
385.432581	65.045356
385.867525	65.210649
386.302458	65.410486
386.737379	65.320155
387.172289	65.041974
387.607188	65.003857
388.042075	65.206959
388.476951	65.351102
388.911815	65.371564
389.346668	65.477804
389.781509	65.906210
390.216338	65.897566
390.651157	65.926926
391.085963	66.097705
391.520758	66.220088
391.955541	65.940810
392.390313	66.115494
392.825073	66.224052
393.259821	66.362189
393.694558	66.211576
394.129283	66.171190
394.563996	65.864023
394.998698	66.097197
395.433388	66.120444
395.868066	66.050323
396.302732	66.030613
396.737386	65.572229
397.172029	65.275459
397.606659	65.061264
398.041278	64.677155
398.475885	64.387045
398.910480	64.101959
399.345063	63.661160
399.779634	62.930240
400.214194	61.773354
400.648741	60.767071
401.083276	59.419872
401.517799	57.976082
401.952310	56.158269
402.386809	54.126467
402.821296	51.903006
403.255771	49.641663
403.690234	47.706370
404.124684	45.544078
404.559123	43.168656
404.993549	40.781728
405.427963	38.503593
405.862365	36.317713
406.296754	34.361959
406.731131	32.314706
407.165496	30.474078
407.599849	28.759156
408.034190	27.195791
408.468518	25.684696
408.902833	24.378819
409.337137	23.026894
409.771428	21.728345
410.205706	20.603342
410.639973	19.596078
411.074226	18.687574
411.508467	17.824953
411.942696	17.077949
412.376912	16.488472
412.811116	15.935489
413.245307	15.439675
413.679486	14.988480
414.113652	14.582744
414.547805	14.228651
414.981946	13.906365
415.416074	13.609001
415.850190	13.361097
416.284293	13.151618
416.718383	12.937683
417.152460	12.776923
417.586525	12.643939
418.020577	12.514128
418.454616	12.415286
418.888643	12.322418
419.322656	12.217820
419.756657	12.122699
420.190645	12.030789
420.624620	11.947813
421.058582	11.892428
421.492531	11.820444
421.926468	11.766090
422.360391	11.716691
422.794301	11.729229
423.228199	11.783509
423.662083	11.860829
424.095955	11.930499
424.529813	12.011918
424.963658	12.150075
425.397491	12.227458
425.831310	12.300527
426.265116	12.377697
426.698909	12.445090
427.132689	12.552562
427.566455	12.668576
428.000209	12.795551
428.433949	12.919991
428.867676	13.072026
429.301389	13.221185
429.735090	13.387885
430.168777	13.539962
430.602451	13.665508
431.036111	13.760246
431.469759	13.858869
431.903392	13.967755
432.337013	14.079495
432.770620	14.190427
433.204213	14.323895
433.637794	14.489565
434.071360	14.685073
434.504914	14.891332
434.938453	15.121739
435.371979	15.351984
435.805492	15.607779
436.238991	15.858930
436.672477	16.093327
437.105949	16.321000
437.539407	16.535421
437.972852	16.746198
438.406283	16.921735
438.839700	17.149379
439.273104	17.368490
439.706494	17.604406
440.139871	17.860314
440.573233	18.105689
441.006582	18.350279
441.439917	18.579388
441.873238	18.779649
442.306546	18.971825
442.739839	19.155967
443.173119	19.292189
443.606385	19.416070
444.039636	19.564571
444.472874	19.713286
444.906099	19.877865
445.339309	20.055981
445.772505	20.283584
446.205687	20.523351
446.638855	20.765811
447.072009	21.022086
447.505149	21.280327
447.938275	21.539914
448.371387	21.794803
448.804485	22.027901
449.237569	22.248230
449.670638	22.444045
450.103694	22.615104
450.536735	22.781213
450.969762	22.952165
451.402774	23.116766
451.835773	23.305202
452.268757	23.495181
452.701727	23.714117
453.134683	23.915713
453.567624	24.132191
454.000551	24.336968
454.433464	24.549496
454.866362	24.724200
455.299246	24.896552
455.732116	25.048621
456.164971	25.189206
456.597811	25.320894
457.030638	25.491107
457.463449	25.639718
457.896246	25.801927
458.329029	25.977397
458.761797	26.125799
459.194551	26.268929
459.627290	26.425503
460.060014	26.595826
460.492724	26.760835
460.925419	26.928639
461.358099	27.103156
461.790765	27.281152
462.223416	27.432269
462.656052	27.579248
463.088674	27.712171
463.521281	27.847101
463.953873	27.972320
464.386450	28.108160
464.819012	28.252448
465.251560	28.395538
465.684093	28.557681
466.116611	28.728796
466.549114	28.913480
466.981602	29.079934
467.414075	29.266833
467.846533	29.437223
468.278977	29.621771
468.711405	29.802142
469.143818	29.965774
469.576216	30.109508
470.008600	30.256993
470.440968	30.372139
470.873321	30.493502
471.305659	30.592068
471.737982	30.665973
472.170289	30.763025
472.602582	30.852351
473.034859	30.933678
473.467122	31.025333
473.899369	31.133047
474.331600	31.239647
474.763817	31.359951
475.196018	31.484087
475.628204	31.660442
476.060375	31.838891
476.492530	32.034767
476.924670	32.229490
477.356795	32.399303
477.788904	32.542777
478.220998	32.676980
478.653076	32.787340
479.085139	32.872108
479.517186	32.947084
479.949219	33.030606
480.381235	33.123688
480.813236	33.218913
481.245221	33.341346
481.677191	33.473400
482.109146	33.608934
482.541084	33.755716
482.973008	33.882386
483.404915	34.004014
483.836807	34.095780
484.268683	34.159260
484.700544	34.201506
485.132388	34.218118
485.564217	34.210813
485.996031	34.171003
486.427828	34.108615
486.859610	34.034473
487.291376	33.927492
487.723126	33.824847
488.154860	33.717396
488.586579	33.613250
489.018281	33.512301
489.449968	33.422509
489.881639	33.353318
490.313293	33.316846
490.744932	33.304057
491.176555	33.294670
491.608162	33.282621
492.039753	33.253385
492.471328	33.191446
492.902886	33.067745
493.334429	32.903920
493.765956	32.697676
494.197466	32.459617
494.628960	32.198240
495.060439	31.929485
495.491901	31.664382
495.923347	31.425758
496.354776	31.225340
496.786190	31.029859
497.217587	30.872765
497.648968	30.735464
498.080332	30.598746
498.511681	30.457567
498.943013	30.300681
499.374328	30.137273
499.805628	29.958201
500.236911	29.742419
500.668177	29.518454
501.099427	29.280951
501.530661	29.012910
501.961878	28.744473
502.393079	28.478964
502.824264	28.217394
503.255431	27.957018
503.686583	27.700308
504.117717	27.470048
504.548835	27.279568
504.979937	27.125575
505.411022	27.041188
505.842090	27.015433
506.273142	27.050235
506.704177	27.129431
507.135195	27.267642
507.566197	27.455621
507.997182	27.659387
508.428150	27.881364
508.859102	28.110451
509.290036	28.321025
509.720954	28.543676
510.151855	28.780407
510.582739	29.021449
511.013607	29.277722
511.444457	29.578831
511.875291	29.943703
512.306107	30.369541
512.736907	30.861698
513.167690	31.406173
513.598456	32.017509
514.029205	32.668508
514.459936	33.333458
514.890651	34.018274
515.321349	34.692335
515.752030	35.346472
516.182693	35.971429
516.613340	36.559773
517.043969	37.107497
517.474582	37.601212
517.905177	38.049421
518.335755	38.450570
518.766315	38.805694
519.196859	39.111481
519.627385	39.398317
520.057894	39.650486
520.488386	39.880222
520.918860	40.084561
521.349318	40.299376
521.779757	40.521505
522.210180	40.765620
522.640585	41.055057
523.070973	41.359428
523.501343	41.691130
523.931696	42.045244
524.362031	42.409763
524.792349	42.762845
525.222650	43.089524
525.652933	43.353980
526.083198	43.558824
526.513446	43.701596
526.943677	43.777843
527.373890	43.792585
527.804085	43.769306
528.234262	43.726676
528.664422	43.671093
529.094565	43.605904
529.524689	43.563352
529.954796	43.558933
530.384885	43.579856
530.814957	43.648451
531.245011	43.748263
531.675047	43.874964
532.105065	44.006322
532.535065	44.151210
532.965048	44.292657
533.395013	44.412826
533.824959	44.503851
534.254888	44.566943
534.684799	44.578445
535.114693	44.562064
535.544568	44.506518
535.974425	44.391303
536.404264	44.237365
536.834086	44.035577
537.263889	43.786173
537.693674	43.506850
538.123441	43.213360
538.553190	42.904209
538.982921	42.607427
539.412634	42.324920
539.842329	42.067601
540.272006	41.840572
540.701664	41.645348
541.131304	41.489632
541.560926	41.363917
541.990530	41.270217
542.420116	41.208151
542.849683	41.146513
543.279232	41.089574
543.708763	41.027064
544.138275	40.949414
544.567769	40.848829
544.997245	40.725038
545.426702	40.572996
545.856141	40.412311
546.285562	40.220071
546.714964	40.025860
547.144347	39.840980
547.573713	39.668497
548.003059	39.523338
548.432387	39.418949
548.861697	39.336803
549.290988	39.307729
549.720260	39.327085
550.149514	39.403073
550.578750	39.549181
551.007966	39.747872
551.437164	39.979870
551.866344	40.256494
552.295504	40.559740
552.724646	40.879934
553.153769	41.221513
553.582874	41.558727
554.011960	41.883142
554.441027	42.183574
554.870075	42.456966
555.299104	42.703633
555.728115	42.909778
556.157106	43.089866
556.586079	43.248752
557.015033	43.386873
557.443968	43.515773
557.872884	43.638614
558.301781	43.780749
558.730659	43.927732
559.159518	44.085067
559.588358	44.260320
560.017180	44.462791
560.445982	44.684257
560.874765	44.913446
561.303528	45.156779
561.732273	45.391877
562.160999	45.636066
562.589705	45.865946
563.018393	46.079490
563.447061	46.275790
563.875710	46.436728
564.304340	46.571137
564.732950	46.693995
565.161542	46.772503
565.590114	46.831358
566.018666	46.866339
566.447200	46.876885
566.875714	46.876241
567.304208	46.872941
567.732684	46.859577
568.161140	46.851729
568.589576	46.860259
569.017993	46.891624
569.446391	46.952678
569.874769	47.032077
570.303128	47.149870
570.731467	47.301333
571.159787	47.491510
571.588087	47.702478
572.016368	47.959012
572.444629	48.242398
572.872870	48.556180
573.301092	48.861263
573.729294	49.145057
574.157476	49.435986
574.585639	49.676275
575.013782	49.884210
575.441906	50.036759
575.870009	50.121222
576.298093	50.136801
576.726157	50.092028
577.154202	49.997896
577.582226	49.846656
578.010231	49.648952
578.438216	49.423616
578.866181	49.164988
579.294126	48.897122
579.722051	48.617304
580.149957	48.324121
580.577842	48.026486
581.005707	47.729504
581.433553	47.431211
581.861378	47.119446
582.289184	46.809630
582.716969	46.491035
583.144734	46.177160
583.572479	45.861892
584.000205	45.540446
584.427910	45.224138
584.855594	44.911752
585.283259	44.606124
585.710904	44.308096
586.138528	44.033267
586.566132	43.798868
586.993716	43.600689
587.421280	43.424381
587.848823	43.306503
588.276346	43.220683
588.703849	43.175054
589.131332	43.185723
589.558794	43.251458
589.986236	43.359184
590.413657	43.501622
590.841058	43.687657
591.268438	43.921015
591.695799	44.202493
592.123138	44.532593
592.550458	44.898863
592.977756	45.318977
593.405034	45.789061
593.832292	46.317658
594.259529	46.898592
594.686746	47.513802
595.113942	48.170111
595.541117	48.858326
595.968272	49.560642
596.395406	50.261235
596.822519	50.949030
597.249612	51.618161
597.676684	52.252677
598.103735	52.824431
598.530766	53.339415
598.957775	53.792116
599.384764	54.169842
599.811733	54.469215
600.238680	54.702060
600.665606	54.873460
601.092512	54.997178
601.519397	55.069494
601.946261	55.116048
602.373104	55.139955
602.799926	55.139075
603.226727	55.120301
603.653507	55.102064
604.080266	55.080837
604.507004	55.043738
604.933721	55.001811
605.360417	54.953261
605.787092	54.895426
606.213746	54.826983
606.640379	54.748494
607.066991	54.660126
607.493581	54.575889
607.920150	54.486201
608.346699	54.396876
608.773226	54.306278
609.199731	54.240708
609.626216	54.201697
610.052679	54.180228
610.479121	54.194057
610.905542	54.220034
611.331941	54.299425
611.758319	54.400183
612.184676	54.524802
612.611011	54.670035
613.037325	54.838766
613.463617	55.025893
613.889888	55.198107
614.316138	55.362095
614.742366	55.534416
615.168573	55.690058
615.594758	55.835277
616.020921	55.984777
616.447063	56.128356
616.873184	56.270854
617.299283	56.406602
617.725360	56.550237
618.151416	56.707379
618.577450	56.876785
619.003462	57.072776
619.429453	57.280244
619.855422	57.511608
620.281369	57.754342
620.707295	58.000718
621.133199	58.268264
621.559081	58.528491
621.984941	58.789850
622.410779	59.029096
622.836596	59.233271
623.262391	59.432353
623.688163	59.600108
624.113914	59.752915
624.539644	59.880292
624.965351	59.988770
625.391036	60.077718
625.816699	60.153306
626.242340	60.219560
626.667960	60.277819
627.093557	60.358291
627.519132	60.432467
627.944685	60.512037
628.370216	60.609707
628.795725	60.698830
629.221212	60.781585
629.646677	60.852203
630.072119	60.905390
630.497540	60.942745
630.922938	60.956838
631.348314	60.935195
631.773668	60.873692
632.198999	60.766122
632.624308	60.621567
633.049595	60.433313
633.474860	60.199677
633.900102	59.932672
634.325322	59.632331
634.750520	59.315192
635.175695	58.986812
635.600848	58.652711
636.025978	58.330381
636.451086	58.014484
636.876171	57.701599
637.301234	57.404785
637.726275	57.115814
638.151293	56.854395
638.576288	56.601770
639.001261	56.374862
639.426211	56.158485
639.851139	55.946399
640.276044	55.744892
640.700927	55.559176
641.125787	55.372102
641.550624	55.172808
641.975438	54.983351
642.400230	54.789867
642.824999	54.607723
643.249745	54.435596
643.674469	54.274930
644.099169	54.136595
644.523847	54.015992
644.948502	53.928549
645.373135	53.883054
645.797744	53.869608
646.222330	53.889320
646.646894	53.955598
647.071435	54.069547
647.495953	54.212332
647.920447	54.399027
648.344919	54.600412
648.769368	54.833955
649.193794	55.079886
649.618197	55.336909
650.042576	55.603674
650.466933	55.878279
650.891267	56.153447
651.315577	56.416382
651.739864	56.693391
652.164129	56.946500
652.588370	57.199477
653.012587	57.443909
653.436782	57.657143
653.860953	57.866574
654.285102	58.075197
654.709226	58.277744
655.133328	58.470957
655.557406	58.659796
655.981461	58.840934
656.405493	59.007134
656.829501	59.150445
657.253486	59.254473
657.677448	59.330400
658.101386	59.374513
658.525301	59.370294
658.949192	59.324082
659.373060	59.240638
659.796904	59.105527
660.220725	58.911824
660.644522	58.685577
661.068296	58.412899
661.492046	58.115267
661.915772	57.789347
662.339475	57.449819
662.763154	57.099099
663.186810	56.757875
663.610442	56.422848
664.034050	56.112325
664.457635	55.828376
664.881196	55.577412
665.304733	55.369948
665.728247	55.212162
666.151736	55.101011
666.575202	55.062298
666.998644	55.069058
667.422062	55.125103
667.845457	55.230416
668.268827	55.379912
668.692174	55.562580
669.115496	55.780240
669.538795	56.017494
669.962070	56.286414
670.385321	56.582266
670.808547	56.888837
671.231750	57.187055
671.654929	57.491082
672.078084	57.797295
672.501214	58.088105
672.924321	58.378206
673.347404	58.669452
673.770462	58.957927
674.193496	59.248236
674.616506	59.527195
675.039492	59.796026
675.462454	60.055138
675.885391	60.307171
676.308305	60.556278
676.731194	60.810185
677.154058	61.063893
677.576899	61.313418
677.999715	61.562009
678.422507	61.801178
678.845274	62.030343
679.268017	62.265496
679.690736	62.470189
680.113430	62.664330
680.536100	62.833054
680.958746	62.984524
681.381367	63.104321
681.803963	63.207787
682.226535	63.295544
682.649083	63.369246
683.071605	63.426461
683.494104	63.457162
683.916578	63.488649
684.339027	63.513846
684.761451	63.540113
685.183851	63.559252
685.606227	63.577972
686.028577	63.590202
686.450903	63.598474
686.873204	63.594400
687.295481	63.572035
687.717733	63.551416
688.139959	63.523950
688.562162	63.483722
688.984339	63.430020
689.406492	63.349573
689.828619	63.243834
690.250722	63.105233
690.672800	62.944796
691.094853	62.747301
691.516881	62.541246
691.938884	62.299624
692.360863	62.027949
692.782816	61.751810
693.204744	61.465530
693.626647	61.178099
694.048526	60.892112
694.470379	60.637158
694.892207	60.394402
695.314010	60.173561
695.735788	59.992068
696.157540	59.847316
696.579268	59.746919
697.000970	59.690497
697.422648	59.685805
697.844300	59.721237
698.265926	59.800574
698.687528	59.940408
699.109104	60.125850
699.530655	60.340695
699.952181	60.590316
700.373681	60.871248
700.795156	61.157116
701.216606	61.450314
701.638030	61.749421
702.059429	62.042531
702.480803	62.333481
702.902151	62.596884
703.323473	62.838978
703.744770	63.043702
704.166042	63.224732
704.587288	63.354375
705.008509	63.461262
705.429704	63.530170
705.850873	63.558602
706.272017	63.548933
706.693135	63.512056
707.114228	63.440881
707.535295	63.335046
707.956336	63.210549
708.377352	63.065910
708.798342	62.887684
709.219306	62.697595
709.640245	62.511742
710.061157	62.307025
710.482044	62.109696
710.902905	61.911629
711.323741	61.719338
711.744550	61.529126
712.165334	61.342287
712.586092	61.181670
713.006823	61.031483
713.427529	60.911125
713.848209	60.820946
714.268863	60.756312
714.689492	60.732119
715.110094	60.743464
715.530670	60.778597
715.951220	60.863386
716.371744	60.966987
716.792242	61.122673
717.212714	61.308953
717.633159	61.529603
718.053579	61.783674
718.473973	62.056048
718.894340	62.356746
719.314681	62.679107
719.734996	62.993624
720.155285	63.333487
720.575547	63.666720
720.995784	63.996217
721.415994	64.307765
721.836177	64.612722
722.256335	64.885935
722.676466	65.123523
723.096570	65.320653
723.516649	65.473865
723.936701	65.583338
724.356726	65.638636
724.776725	65.645873
725.196698	65.616842
725.616644	65.527620
726.036564	65.391495
726.456457	65.213208
726.876324	65.002915
727.296164	64.766389
727.715977	64.487880
728.135764	64.188317
728.555525	63.877526
728.975258	63.554138
729.394966	63.252110
729.814646	62.952897
730.234300	62.660054
730.653927	62.389941
731.073527	62.133273
731.493101	61.930915
731.912648	61.758077
732.332168	61.624581
732.751661	61.546370
733.171128	61.506374
733.590568	61.518479
734.009980	61.577874
734.429366	61.682590
734.848726	61.821214
735.268058	62.006036
735.687363	62.225027
736.106641	62.483858
736.525893	62.769031
736.945117	63.071214
737.364314	63.397458
737.783485	63.734139
738.202628	64.068028
738.621744	64.416667
739.040834	64.771593
739.459896	65.116344
739.878931	65.446816
740.297939	65.756398
740.716919	66.061489
741.135873	66.334663
741.554799	66.581905
741.973698	66.802612
742.392570	66.983001
742.811415	67.129260
743.230232	67.238929
743.649022	67.320158
744.067785	67.377778
744.486521	67.378392
744.905229	67.346146
745.323909	67.283589
745.742563	67.201302
746.161189	67.092238
746.579787	66.965127
746.998358	66.815594
747.416902	66.643957
747.835418	66.478924
748.253907	66.307555
748.672368	66.143213
749.090802	65.991545
749.509208	65.848451
749.927586	65.731826
750.345937	65.638914
750.764261	65.565843
751.182556	65.526574
751.600824	65.504029
752.019065	65.510624
752.437277	65.536751
752.855462	65.602625
753.273620	65.696317
753.691749	65.814354
754.109851	65.965223
754.527925	66.133818
754.945971	66.323563
755.363989	66.540396
755.781980	66.746259
756.199943	66.974841
756.617877	67.197274
757.035784	67.389515
757.453663	67.580790
757.871514	67.756273
758.289337	67.896701
758.707132	67.996437
759.124899	68.039983
759.542639	68.029713
759.960350	67.978915
760.378033	67.877640
760.795688	67.702805
761.213314	67.483491
761.630913	67.192109
762.048484	66.837260
762.466026	66.433825
762.883541	65.965951
763.301027	65.438254
763.718485	64.874947
764.135914	64.274724
764.553316	63.637800
764.970689	62.980980
765.388034	62.305533
765.805351	61.611657
766.222639	60.911318
766.639899	60.199356
767.057131	59.496934
767.474334	58.805676
767.891509	58.137647
768.308655	57.490465
768.725773	56.890931
769.142863	56.330471
769.559924	55.805326
769.976957	55.342160
770.393961	54.918753
770.810936	54.549714
771.227883	54.237132
771.644802	53.973899
772.061692	53.787817
772.478553	53.646643
772.895386	53.565833
773.312190	53.549261
773.728965	53.606339
774.145712	53.707274
774.562430	53.863529
774.979119	54.082501
775.395780	54.330659
775.812411	54.636940
776.229014	55.003495
776.645589	55.388903
777.062134	55.804528
777.478651	56.251772
777.895138	56.720991
778.311597	57.207885
778.728027	57.697380
779.144428	58.205563
779.560800	58.712739
779.977143	59.214061
780.393458	59.707572
780.809743	60.184916
781.225999	60.620581
781.642226	61.040909
782.058425	61.402957
782.474594	61.732293
782.890734	62.016969
783.306845	62.274885
783.722926	62.477987
784.138979	62.622020
784.555003	62.705814
784.970997	62.731089
785.386962	62.716025
785.802898	62.624894
786.218805	62.490643
786.634682	62.301093
787.050531	62.061592
787.466349	61.802063
787.882139	61.489393
788.297899	61.177034
788.713630	60.837582
789.129332	60.477526
789.545004	60.129491
789.960647	59.790760
790.376260	59.463453
790.791844	59.153360
791.207399	58.878938
791.622924	58.640745
792.038419	58.422616
792.453885	58.260427
792.869321	58.136968
793.284728	58.072980
793.700106	58.044891
794.115453	58.079544
794.530771	58.146891
794.946060	58.281993
795.361319	58.458356
795.776548	58.673903
796.191747	58.908272
796.606917	59.175492
797.022057	59.461524
797.437167	59.758624
797.852248	60.072680
798.267298	60.387563
798.682319	60.715473
799.097310	61.027553
799.512271	61.309102
799.927203	61.586256
800.342104	61.831579
800.756976	62.045844
801.171818	62.208729
801.586629	62.334872
802.001411	62.425229
802.416163	62.460913
802.830885	62.454579
803.245577	62.409470
803.660238	62.313616
804.074870	62.169589
804.489472	61.976935
804.904043	61.762168
805.318585	61.484112
805.733096	61.168781
806.147577	60.805982
806.562028	60.416283
806.976449	59.989562
807.390840	59.530704
807.805200	59.042804
808.219530	58.541166
808.633830	58.000773
809.048100	57.463533
809.462339	56.921647
809.876548	56.384520
810.290727	55.864577
810.704875	55.337827
811.118993	54.825705
811.533080	54.322157
811.947137	53.846118
812.361164	53.407579
812.775160	52.982051
813.189126	52.588165
813.603061	52.230692
814.016966	51.917010
814.430840	51.633292
814.844684	51.386963
815.258497	51.193237
815.672280	51.034431
816.086032	50.917636
816.499753	50.844072
816.913444	50.829341
817.327104	50.860021
817.740733	50.923310
818.154331	51.045894
818.567899	51.205907
818.981436	51.414539
819.394943	51.666800
819.808418	51.983914
820.221863	52.338339
820.635277	52.734557
821.048660	53.149308
821.462013	53.638088
821.875334	54.141404
822.288625	54.679747
822.701884	55.236360
823.115113	55.816483
823.528311	56.429616
823.941478	57.059125
824.354614	57.710416
824.767718	58.335585
825.180792	58.956534
825.593835	59.564770
826.006847	60.136978
826.419827	60.686515
826.832777	61.195394
827.245695	61.671943
827.658582	62.084006
828.071438	62.443701
828.484263	62.746380
828.897057	62.989348
829.309819	63.180805
829.722551	63.291503
830.135251	63.323967
830.547919	63.294655
830.960557	63.203827
831.373163	63.057399
831.785738	62.854859
832.198281	62.611327
832.610793	62.295663
833.023274	61.974748
833.435723	61.599635
833.848141	61.237386
834.260528	60.825872
834.672883	60.391798
835.085206	59.954186
835.497498	59.527567
835.909758	59.110573
836.321987	58.678704
836.734185	58.259329
837.146350	57.852264
837.558485	57.498925
837.970587	57.156996
838.382658	56.852783
838.794697	56.595000
839.206705	56.373081
839.618681	56.180771
840.030625	56.029018
840.442538	55.925977
840.854418	55.858797
841.266267	55.827535
841.678084	55.843495
842.089870	55.881401
842.501623	55.929168
842.913345	56.020769
843.325035	56.128830
843.736693	56.259996
844.148319	56.411762
844.559913	56.565893
844.971475	56.711351
845.383005	56.870185
845.794504	57.003874
846.205970	57.147212
846.617404	57.261815
847.028806	57.371926
847.440176	57.480519
847.851514	57.551932
848.262820	57.606004
848.674094	57.646489
849.085336	57.656443
849.496546	57.643436
849.907723	57.591209
850.318868	57.509343
850.729981	57.389819
851.141062	57.252562
851.552110	57.068311
851.963127	56.850997
852.374111	56.626780
852.785062	56.361779
853.195982	56.066788
853.606869	55.743604
854.017723	55.403476
854.428546	55.029644
854.839336	54.638056
855.250093	54.253543
855.660818	53.858653
856.071511	53.444887
856.482171	53.021588
856.892799	52.599867
857.303394	52.159271
857.713956	51.727242
858.124486	51.330816
858.534984	50.915523
858.945449	50.501398
859.355881	50.085272
859.766280	49.675844
860.176647	49.287092
860.586982	48.902789
860.997283	48.528983
861.407552	48.154302
861.817789	47.800390
862.227992	47.452329
862.638163	47.124134
863.048301	46.810250
863.458406	46.529759
863.868478	46.264020
864.278518	46.024161
864.688524	45.808642
865.098498	45.605577
865.508439	45.433897
865.918347	45.287857
866.328222	45.189021
866.738064	45.121069
867.147873	45.102125
867.557649	45.106612
867.967392	45.156606
868.377102	45.239382
868.786779	45.372947
869.196423	45.544294
869.606034	45.754869
870.015612	46.050384
870.425156	46.357112
870.834668	46.674663
871.244146	47.060297
871.653591	47.475699
872.063003	47.947901
872.472382	48.444265
872.881728	48.957565
873.291040	49.500996
873.700319	50.053363
874.109564	50.611970
874.518777	51.189715
874.927956	51.764707
875.337102	52.350989
875.746214	52.917894
876.155293	53.454786
876.564338	53.963682
876.973350	54.435861
877.382329	54.883778
877.791274	55.272045
878.200186	55.635077
878.609064	55.958691
879.017909	56.216010
879.426720	56.410239
879.835497	56.543651
880.244241	56.620714
880.652952	56.642679
881.061629	56.621075
881.470272	56.521739
881.878881	56.357926
882.287457	56.119987
882.695999	55.803950
883.104507	55.450864
883.512982	55.067762
883.921423	54.613191
884.329830	54.159236
884.738203	53.638891
885.146543	53.114709
885.554849	52.549858
885.963120	51.968504
886.371358	51.409671
886.779563	50.827155
887.187733	50.262708
887.595869	49.706697
888.003971	49.135587
888.412040	48.607646
888.820074	48.105633
889.228074	47.635886
889.636041	47.221518
890.043973	46.841500
890.451871	46.521813
890.859736	46.209811
891.267566	45.926094
891.675362	45.680137
892.083124	45.453239
892.490851	45.259744
892.898545	45.117153
893.306204	44.982618
893.713829	44.863465
894.121420	44.781481
894.528977	44.712806
894.936499	44.697804
895.343987	44.693394
895.751441	44.705208
896.158860	44.714767
896.566246	44.753100
896.973596	44.748976
897.380913	44.775530
897.788195	44.767093
898.195442	44.781277
898.602655	44.796822
899.009834	44.763032
899.416978	44.739499
899.824088	44.674627
900.231163	44.602143
900.638204	44.517856
901.045210	44.381529
901.452181	44.223578
901.859118	44.050316
902.266021	43.843641
902.672888	43.602861
903.079721	43.346964
903.486520	43.066696
903.893283	42.778808
904.300012	42.463970
904.706707	42.156884
905.113366	41.833594
905.519991	41.497937
905.926581	41.159960
906.333136	40.817004
906.739656	40.478107
907.146142	40.152957
907.552592	39.805228
907.959008	39.481044
908.365389	39.168662
908.771735	38.846995
909.178046	38.552371
909.584322	38.271400
909.990563	37.981084
910.396769	37.710796
910.802940	37.456885
911.209076	37.204357
911.615177	36.962433
912.021243	36.751468
912.427274	36.544647
912.833270	36.358273
913.239231	36.194357
913.645156	36.034064
914.051046	35.895712
914.456902	35.763045
914.862721	35.647460
915.268506	35.538020
915.674256	35.449792
916.079970	35.386239
916.485649	35.308034
916.891292	35.263012
917.296901	35.240579
917.702474	35.221077
918.108011	35.193777
918.513514	35.192344
918.918980	35.198478
919.324412	35.231643
919.729808	35.278151
920.135169	35.337563
920.540494	35.401963
920.945783	35.445795
921.351037	35.534636
921.756256	35.640264
922.161439	35.735523
922.566586	35.852142
922.971698	36.005802
923.376775	36.161643
923.781815	36.326630
924.186820	36.500529
924.591790	36.703843
924.996723	36.889981
925.401621	37.095646
925.806484	37.300943
926.211310	37.531356
926.616101	37.780492
927.020856	38.020689
927.425575	38.257161
927.830259	38.496380
928.234906	38.726825
928.639518	38.962446
929.044094	39.222409
929.448634	39.489811
929.853138	39.701338
930.257606	39.920781
930.662038	40.155071
931.066434	40.344800
931.470795	40.512745
931.875119	40.687365
932.279407	40.842539
932.683659	40.978232
933.087875	41.093885
933.492055	41.219469
933.896199	41.328027
934.300307	41.372825
934.704379	41.463812
935.108414	41.492560
935.512414	41.487579
935.916377	41.461131
936.320304	41.422715
936.724195	41.350003
937.128049	41.246283
937.531867	41.147563
937.935649	40.993971
938.339395	40.832363
938.743104	40.648897
939.146777	40.427152
939.550414	40.182391
939.954014	39.927722
940.357578	39.680937
940.761105	39.400081
941.164596	39.074056
941.568050	38.754202
941.971468	38.359410
942.374850	38.014734
942.778195	37.667240
943.181503	37.314670
943.584775	36.980668
943.988010	36.651029
944.391209	36.295541
944.794371	35.929240
945.197496	35.578497
945.600585	35.225160
946.003637	34.866964
946.406653	34.481368
946.809632	34.130610
947.212574	33.776050
947.615479	33.450182
948.018347	33.113745
948.421179	32.813846
948.823974	32.486188
949.226732	32.217034
949.629453	31.917274
950.032138	31.644683
950.434785	31.392576
950.837396	31.169286
951.239969	30.929903
951.642506	30.705664
952.045006	30.522392
952.447469	30.336887
952.849895	30.104211
953.252283	29.911177
953.654635	29.753438
954.056950	29.570966
954.459227	29.437616
954.861468	29.343006
955.263671	29.201395
955.665838	29.096458
956.067967	28.968833
956.470059	28.880348
956.872114	28.789428
957.274131	28.693626
957.676112	28.572320
958.078055	28.511653
958.479961	28.441396
958.881829	28.364600
959.283661	28.319153
959.685455	28.245131
960.087211	28.205911
960.488931	28.191202
960.890613	28.139041
961.292257	28.096838
961.693864	28.080385
962.095434	28.047372
962.496966	28.022662
962.898461	27.978099
963.299918	27.934828
963.701338	27.919303
964.102720	27.924876
964.504065	27.878465
964.905372	27.877626
965.306641	27.889558
965.707873	27.934819
966.109068	27.941110
966.510224	27.996904
966.911343	28.030203
967.312425	28.044179
967.713468	28.096652
968.114474	28.082575
968.515442	28.140570
968.916373	28.198507
969.317265	28.238753
969.718120	28.326747
970.118937	28.423339
970.519716	28.472000
970.920458	28.588297
971.321161	28.748449
971.721827	28.811622
972.122454	28.928206
972.523044	29.061321
972.923596	29.189406
973.324110	29.313192
973.724585	29.445733
974.125023	29.562291
974.525423	29.688013
974.925785	29.833658
975.326108	29.997899
975.726394	30.098891
976.126642	30.215666
976.526851	30.359861
976.927022	30.543846
977.327155	30.672429
977.727250	30.801681
978.127307	30.901341
978.527325	31.043506
978.927306	31.117676
979.327248	31.216299
979.727151	31.288502
980.127017	31.401335
980.526844	31.496863
980.926633	31.558703
981.326383	31.608563
981.726095	31.638369
982.125769	31.637712
982.525404	31.659904
982.925001	31.684613
983.324560	31.706730
983.724079	31.642731
984.123561	31.683384
984.523004	31.669499
984.922408	31.566194
985.321774	31.487002
985.721102	31.359838
986.120390	31.289524
986.519641	31.224250
986.918852	31.171496
987.318025	31.074695
987.717159	30.940810
988.116255	30.890623
988.515312	30.829568
988.914330	30.709710
989.313310	30.548355
989.712250	30.453914
990.111152	30.384428
990.510015	30.283244
990.908840	30.202720
991.307625	30.084505
991.706372	29.959729
992.105080	29.874084
992.503749	29.651584
992.902379	29.601707
993.300970	29.557525
993.699522	29.503011
994.098035	29.466699
994.496510	29.497892
994.894945	29.466295
995.293341	29.458417
995.691698	29.410462
996.090016	29.455160
996.488296	29.391678
996.886535	29.382477
997.284736	29.429423
997.682898	29.379793
998.081021	29.469693
998.479104	29.572205
998.877148	29.715100
999.275153	29.719511
999.673119	29.718926
1000.071046	29.841212
1000.468933	29.895188
1000.866781	29.812181
1001.264590	29.902886
1001.662359	29.962217
1002.060089	30.146055
1002.457780	30.158165
1002.855431	30.345664
1003.253043	30.398981
1003.650615	30.571911
1004.048148	30.776509
1004.445642	30.794414
1004.843096	31.079373
1005.240511	31.068131
1005.637886	31.244842
1006.035221	31.441064
1006.432517	31.727180
1006.829774	32.003405
1007.226991	32.275006
1007.624168	32.486915
1008.021306	32.730015
1008.418404	32.893436
1008.815462	33.202591
1009.212481	33.487361
1009.609460	33.747325
1010.006399	34.171576
1010.403298	34.552705
1010.800158	34.917585
1011.196978	35.010165
1011.593758	35.345521
1011.990498	35.833976
1012.387199	36.377050
1012.783860	36.632796
1013.180480	37.305016
1013.577061	37.721253
1013.973602	38.268691
1014.370103	38.604559
1014.766564	39.022191
1015.162985	39.239488
1015.559366	39.556035
1015.955708	39.873057
1016.352009	40.169986
1016.748270	40.805015
1017.144491	41.252408
1017.540671	41.897556
1017.936812	42.140069
1018.332913	42.451299
1018.728973	42.728172
1019.124994	42.945675
1019.520974	43.353175
1019.916914	43.802409
1020.312814	44.204452
