Time1=100ms:Average1=5:Objective=10X:Aperture=1: (11/28/2018 10:35:10 AM)
11/28/2018 10:35:10 AM
Reflectance
10X
Ap#: 1
Avg1: 5.000000
Avg2: 0.000000
Int.Time1:100.000000

350.166136	57.174447
350.601937	56.958092
351.037728	57.318647
351.473509	57.288542
351.909281	57.359793
352.345042	57.633921
352.780794	57.843308
353.216536	57.630980
353.652267	57.664042
354.087989	57.937204
354.523701	58.156901
354.959403	58.010710
355.395095	57.605149
355.830777	57.810708
356.266449	57.935666
356.702110	58.239238
357.137762	58.586216
357.573404	58.758670
358.009035	58.708816
358.444656	58.493261
358.880268	58.587122
359.315869	58.538756
359.751459	58.667142
360.187040	58.139950
360.622610	58.171102
361.058170	58.417614
361.493720	58.318489
361.929260	58.649638
362.364789	59.058424
362.800308	58.718291
363.235816	58.698740
363.671314	58.582090
364.106802	58.802629
364.542279	58.968212
364.977746	58.748336
365.413203	58.389440
365.848649	58.342189
366.284084	58.382015
366.719509	58.531834
367.154924	58.721137
367.590328	58.530953
368.025721	58.631691
368.461104	58.669033
368.896477	58.833392
369.331838	58.577590
369.767189	58.644573
370.202530	58.450889
370.637859	58.469513
371.073178	58.469227
371.508486	58.460599
371.943784	58.738159
372.379071	58.549088
372.814347	58.579882
373.249612	58.448006
373.684866	58.973689
374.120110	58.867531
374.555343	58.823529
374.990565	58.827128
375.425776	58.634854
375.860976	58.367489
376.296165	58.610431
376.731343	58.770470
377.166511	58.697935
377.601667	58.792605
378.036812	58.809171
378.471946	58.651001
378.907070	59.054431
379.342182	58.870056
379.777283	58.573913
380.212373	58.425701
380.647452	58.055604
381.082520	58.164318
381.517576	57.901075
381.952622	57.827173
382.387656	58.197217
382.822679	58.175530
383.257691	58.334055
383.692692	58.706209
384.127681	58.466592
384.562659	58.854032
384.997626	58.596582
385.432581	58.470842
385.867525	58.318256
386.302458	58.528803
386.737379	58.513107
387.172289	58.369025
387.607188	58.352618
388.042075	58.419745
388.476951	58.568256
388.911815	58.542586
389.346668	58.819044
389.781509	58.867765
390.216338	58.891143
390.651157	58.729221
391.085963	58.807702
391.520758	58.586114
391.955541	58.760720
392.390313	58.401880
392.825073	58.500714
393.259821	58.803319
393.694558	58.757015
394.129283	58.764092
394.563996	58.431928
394.998698	58.616686
395.433388	58.649441
395.868066	58.151793
396.302732	58.283065
396.737386	58.073353
397.172029	57.701861
397.606659	57.620607
398.041278	56.991313
398.475885	57.115041
398.910480	56.765793
399.345063	56.479894
399.779634	55.650738
400.214194	54.667119
400.648741	53.757759
401.083276	52.835702
401.517799	51.300790
401.952310	49.790328
402.386809	47.930248
402.821296	45.862759
403.255771	43.976947
403.690234	42.083002
404.124684	40.172884
404.559123	38.135166
404.993549	36.032494
405.427963	34.026277
405.862365	32.348351
406.296754	30.661587
406.731131	28.833209
407.165496	27.228034
407.599849	25.683203
408.034190	24.243767
408.468518	22.960481
408.902833	21.876883
409.337137	20.864664
409.771428	19.715264
410.205706	18.739094
410.639973	17.829151
411.074226	17.081765
411.508467	16.368233
411.942696	15.693780
412.376912	15.159808
412.811116	14.616432
413.245307	14.139174
413.679486	13.749388
414.113652	13.346305
414.547805	12.985214
414.981946	12.715500
415.416074	12.449795
415.850190	12.205393
416.284293	11.976733
416.718383	11.716795
417.152460	11.525529
417.586525	11.357000
418.020577	11.187968
418.454616	11.044607
418.888643	10.918589
419.322656	10.783975
419.756657	10.679910
420.190645	10.575523
420.624620	10.495529
421.058582	10.445706
421.492531	10.376369
421.926468	10.275017
422.360391	10.163305
422.794301	10.074139
423.228199	10.015281
423.662083	9.983623
424.095955	9.960348
424.529813	9.914033
424.963658	9.896849
425.397491	9.844637
425.831310	9.798592
426.265116	9.770224
426.698909	9.743672
427.132689	9.729904
427.566455	9.716304
428.000209	9.698799
428.433949	9.661766
428.867676	9.635572
429.301389	9.605586
429.735090	9.619464
430.168777	9.629853
430.602451	9.623462
431.036111	9.583164
431.469759	9.584178
431.903392	9.582444
432.337013	9.587784
432.770620	9.575426
433.204213	9.559435
433.637794	9.563542
434.071360	9.557630
434.504914	9.543717
434.938453	9.569153
435.371979	9.569386
435.805492	9.600588
436.238991	9.615521
436.672477	9.632367
437.105949	9.647066
437.539407	9.663505
437.972852	9.664605
438.406283	9.662698
438.839700	9.682979
439.273104	9.694847
439.706494	9.712266
440.139871	9.731794
440.573233	9.739821
441.006582	9.758758
441.439917	9.770203
441.873238	9.803446
442.306546	9.811894
442.739839	9.837009
443.173119	9.837844
443.606385	9.843544
444.039636	9.845231
444.472874	9.881976
444.906099	9.887217
445.339309	9.914797
445.772505	9.931417
446.205687	9.953221
446.638855	9.979174
447.072009	10.011964
447.505149	10.040734
447.938275	10.072652
448.371387	10.083998
448.804485	10.098719
449.237569	10.112290
449.670638	10.144501
450.103694	10.164454
450.536735	10.166129
450.969762	10.181518
451.402774	10.203563
451.835773	10.231443
452.268757	10.257794
452.701727	10.292488
453.134683	10.321803
453.567624	10.347532
454.000551	10.389857
454.433464	10.416138
454.866362	10.444505
455.299246	10.473131
455.732116	10.508044
456.164971	10.539080
456.597811	10.559586
457.030638	10.599296
457.463449	10.631003
457.896246	10.659074
458.329029	10.690335
458.761797	10.707404
459.194551	10.730534
459.627290	10.756760
460.060014	10.766491
460.492724	10.784740
460.925419	10.795702
461.358099	10.805366
461.790765	10.816340
462.223416	10.835193
462.656052	10.841140
463.088674	10.846577
463.521281	10.865034
463.953873	10.880619
464.386450	10.890705
464.819012	10.904969
465.251560	10.908691
465.684093	10.925114
466.116611	10.930523
466.549114	10.938697
466.981602	10.937736
467.414075	10.931065
467.846533	10.924060
468.278977	10.922366
468.711405	10.912727
469.143818	10.908538
469.576216	10.902320
470.008600	10.910381
470.440968	10.899038
470.873321	10.898751
471.305659	10.888533
471.737982	10.888231
472.170289	10.893321
472.602582	10.897644
473.034859	10.896741
473.467122	10.908847
473.899369	10.911528
474.331600	10.921788
474.763817	10.933924
475.196018	10.947885
475.628204	10.971287
476.060375	10.993817
476.492530	11.022984
476.924670	11.049972
477.356795	11.087806
477.788904	11.120312
478.220998	11.165653
478.653076	11.212440
479.085139	11.255532
479.517186	11.303012
479.949219	11.355520
480.381235	11.414365
480.813236	11.470853
481.245221	11.532936
481.677191	11.602979
482.109146	11.676092
482.541084	11.749786
482.973008	11.828680
483.404915	11.903032
483.836807	11.990090
484.268683	12.090690
484.700544	12.200258
485.132388	12.310112
485.564217	12.422866
485.996031	12.532125
486.427828	12.661443
486.859610	12.785571
487.291376	12.918770
487.723126	13.056780
488.154860	13.189224
488.586579	13.329617
489.018281	13.467131
489.449968	13.599697
489.881639	13.726465
490.313293	13.856176
490.744932	13.982648
491.176555	14.120118
491.608162	14.242977
492.039753	14.365943
492.471328	14.498837
492.902886	14.630337
493.334429	14.753601
493.765956	14.878622
494.197466	15.008383
494.628960	15.141146
495.060439	15.272396
495.491901	15.399642
495.923347	15.537188
496.354776	15.680295
496.786190	15.827291
497.217587	15.983505
497.648968	16.130930
498.080332	16.289515
498.511681	16.454784
498.943013	16.627622
499.374328	16.817980
499.805628	17.013919
500.236911	17.228440
500.668177	17.449137
501.099427	17.673515
501.530661	17.932551
501.961878	18.192878
502.393079	18.466920
502.824264	18.767842
503.255431	19.080996
503.686583	19.409919
504.117717	19.762632
504.548835	20.120822
504.979937	20.498542
505.411022	20.900557
505.842090	21.316157
506.273142	21.751599
506.704177	22.214061
507.135195	22.690561
507.566197	23.198179
507.997182	23.720434
508.428150	24.268462
508.859102	24.857348
509.290036	25.458395
509.720954	26.085127
510.151855	26.744580
510.582739	27.419205
511.013607	28.122888
511.444457	28.836088
511.875291	29.581259
512.306107	30.351319
512.736907	31.137965
513.167690	31.933372
513.598456	32.750839
514.029205	33.612353
514.459936	34.488066
514.890651	35.371869
515.321349	36.275894
515.752030	37.201658
516.182693	38.138569
516.613340	39.091310
517.043969	40.056397
517.474582	41.024513
517.905177	41.994163
518.335755	42.984551
518.766315	43.962679
519.196859	44.923428
519.627385	45.873817
520.057894	46.809234
520.488386	47.740323
520.918860	48.658362
521.349318	49.548421
521.779757	50.438888
522.210180	51.325392
522.640585	52.202271
523.070973	53.065884
523.501343	53.909592
523.931696	54.743009
524.362031	55.570303
524.792349	56.385804
525.222650	57.172297
525.652933	57.934044
526.083198	58.692006
526.513446	59.434017
526.943677	60.162349
527.373890	60.844656
527.804085	61.536428
528.234262	62.208533
528.664422	62.881762
529.094565	63.530581
529.524689	64.168117
529.954796	64.792794
530.384885	65.395330
530.814957	65.999873
531.245011	66.584920
531.675047	67.143950
532.105065	67.707327
532.535065	68.275142
532.965048	68.838594
533.395013	69.387004
533.824959	69.932538
534.254888	70.484255
534.684799	71.068974
535.114693	71.643553
535.544568	72.191499
535.974425	72.744373
536.404264	73.293732
536.834086	73.843407
537.263889	74.375501
537.693674	74.898262
538.123441	75.412168
538.553190	75.925566
538.982921	76.436801
539.412634	76.913610
539.842329	77.386675
540.272006	77.851692
540.701664	78.307992
541.131304	78.749202
541.560926	79.175038
541.990530	79.587065
542.420116	79.997838
542.849683	80.373514
543.279232	80.744263
543.708763	81.101978
544.138275	81.439064
544.567769	81.773242
544.997245	82.097261
545.426702	82.401839
545.856141	82.687420
546.285562	82.981924
546.714964	83.253688
547.144347	83.529323
547.573713	83.786986
548.003059	84.017678
548.432387	84.268471
548.861697	84.500103
549.290988	84.718418
549.720260	84.939239
550.149514	85.141149
550.578750	85.345576
551.007966	85.538462
551.437164	85.725389
551.866344	85.904825
552.295504	86.065495
552.724646	86.228962
553.153769	86.399649
553.582874	86.553530
554.011960	86.689305
554.441027	86.804813
554.870075	86.920888
555.299104	87.025699
555.728115	87.120756
556.157106	87.227845
556.586079	87.308651
557.015033	87.386230
557.443968	87.453312
557.872884	87.519688
558.301781	87.580004
558.730659	87.617794
559.159518	87.662137
559.588358	87.679448
560.017180	87.707860
560.445982	87.727735
560.874765	87.721998
561.303528	87.711402
561.732273	87.678906
562.160999	87.642605
562.589705	87.611748
563.018393	87.562111
563.447061	87.505542
563.875710	87.433013
564.304340	87.355886
564.732950	87.276479
565.161542	87.164036
565.590114	87.081562
566.018666	86.976412
566.447200	86.851227
566.875714	86.733354
567.304208	86.606884
567.732684	86.479161
568.161140	86.347450
568.589576	86.203261
569.017993	86.044527
569.446391	85.873202
569.874769	85.714124
570.303128	85.543311
570.731467	85.357459
571.159787	85.151948
571.588087	84.941809
572.016368	84.743591
572.444629	84.541209
572.872870	84.336716
573.301092	84.134475
573.729294	83.922226
574.157476	83.732147
574.585639	83.539099
575.013782	83.357198
575.441906	83.181716
575.870009	83.000861
576.298093	82.840903
576.726157	82.691913
577.154202	82.568007
577.582226	82.449805
578.010231	82.340956
578.438216	82.256928
578.866181	82.165046
579.294126	82.094927
579.722051	82.043393
580.149957	81.987198
580.577842	81.942674
581.005707	81.909807
581.433553	81.873643
581.861378	81.844417
582.289184	81.813009
582.716969	81.787133
583.144734	81.759252
583.572479	81.737233
584.000205	81.715212
584.427910	81.698547
584.855594	81.666943
585.283259	81.633152
585.710904	81.579123
586.138528	81.524357
586.566132	81.449891
586.993716	81.375214
587.421280	81.280234
587.848823	81.184299
588.276346	81.062233
588.703849	80.925482
589.131332	80.777701
589.558794	80.600852
589.986236	80.410108
590.413657	80.178239
590.841058	79.934332
591.268438	79.677613
591.695799	79.405497
592.123138	79.096768
592.550458	78.756921
592.977756	78.390092
593.405034	77.992340
593.832292	77.589616
594.259529	77.143275
594.686746	76.681230
595.113942	76.190550
595.541117	75.693498
595.968272	75.166231
596.395406	74.612583
596.822519	74.041998
597.249612	73.455305
597.676684	72.861908
598.103735	72.250201
598.530766	71.624831
598.957775	70.988916
599.384764	70.327799
599.811733	69.664271
600.238680	68.982116
600.665606	68.287795
601.092512	67.585538
601.519397	66.859175
601.946261	66.120805
602.373104	65.379472
602.799926	64.619677
603.226727	63.843967
603.653507	63.069244
604.080266	62.278574
604.507004	61.462368
604.933721	60.630960
605.360417	59.791713
605.787092	58.956717
606.213746	58.108698
606.640379	57.258117
607.066991	56.388988
607.493581	55.537046
607.920150	54.668042
608.346699	53.803051
608.773226	52.936440
609.199731	52.075824
609.626216	51.220883
610.052679	50.362001
610.479121	49.521706
610.905542	48.679207
611.331941	47.855674
611.758319	47.029338
612.184676	46.225397
612.611011	45.436456
613.037325	44.672847
613.463617	43.922497
613.889888	43.182384
614.316138	42.457868
614.742366	41.758200
615.168573	41.075930
615.594758	40.402988
616.020921	39.750952
616.447063	39.123473
616.873184	38.515878
617.299283	37.922691
617.725360	37.368298
618.151416	36.835206
618.577450	36.341157
619.003462	35.868670
619.429453	35.431358
619.855422	35.029592
620.281369	34.673057
620.707295	34.345976
621.133199	34.067966
621.559081	33.828484
621.984941	33.624666
622.410779	33.472749
622.836596	33.351303
623.262391	33.277127
623.688163	33.226429
624.113914	33.204517
624.539644	33.221291
624.965351	33.260465
625.391036	33.314687
625.816699	33.387816
626.242340	33.467568
626.667960	33.565732
627.093557	33.680127
627.519132	33.802428
627.944685	33.934033
628.370216	34.079751
628.795725	34.233890
629.221212	34.398886
629.646677	34.573020
630.072119	34.750759
630.497540	34.941334
630.922938	35.136323
631.348314	35.345080
631.773668	35.557136
632.198999	35.765151
632.624308	35.982959
633.049595	36.208993
633.474860	36.426872
633.900102	36.643839
634.325322	36.848517
634.750520	37.045994
635.175695	37.238157
635.600848	37.408910
636.025978	37.574379
636.451086	37.719906
636.876171	37.853387
637.301234	37.977726
637.726275	38.070565
638.151293	38.158910
638.576288	38.231128
639.001261	38.296308
639.426211	38.357063
639.851139	38.403134
640.276044	38.443278
640.700927	38.481804
641.125787	38.516425
641.550624	38.540701
641.975438	38.560304
642.400230	38.579353
642.824999	38.584284
643.249745	38.591772
643.674469	38.596508
644.099169	38.588996
644.523847	38.582190
644.948502	38.572769
645.373135	38.573524
645.797744	38.561218
646.222330	38.550680
646.646894	38.536819
647.071435	38.528927
647.495953	38.528083
647.920447	38.533070
648.344919	38.539301
648.769368	38.563038
649.193794	38.593434
649.618197	38.637369
650.042576	38.688314
650.466933	38.748448
650.891267	38.822072
651.315577	38.899944
651.739864	38.988444
652.164129	39.080832
652.588370	39.179767
653.012587	39.284382
653.436782	39.394568
653.860953	39.508577
654.285102	39.630731
654.709226	39.769835
655.133328	39.920326
655.557406	40.083773
655.981461	40.261109
656.405493	40.460209
656.829501	40.672759
657.253486	40.892614
657.677448	41.117087
658.101386	41.354109
658.525301	41.595094
658.949192	41.847884
659.373060	42.091259
659.796904	42.338942
660.220725	42.584240
660.644522	42.819713
661.068296	43.051810
661.492046	43.275374
661.915772	43.487467
662.339475	43.693684
662.763154	43.883753
663.186810	44.068273
663.610442	44.242760
664.034050	44.402728
664.457635	44.555340
664.881196	44.704042
665.304733	44.835017
665.728247	44.948800
666.151736	45.055877
666.575202	45.152618
666.998644	45.231747
667.422062	45.295003
667.845457	45.339674
668.268827	45.363080
668.692174	45.359042
669.115496	45.336247
669.538795	45.279951
669.962070	45.201025
670.385321	45.108900
670.808547	44.994070
671.231750	44.858581
671.654929	44.700230
672.078084	44.528438
672.501214	44.350153
672.924321	44.164613
673.347404	43.965690
673.770462	43.774778
674.193496	43.580397
674.616506	43.391153
675.039492	43.199823
675.462454	43.004923
675.885391	42.812020
676.308305	42.630685
676.731194	42.454642
677.154058	42.285006
677.576899	42.113755
677.999715	41.945816
678.422507	41.789878
678.845274	41.650179
679.268017	41.516653
679.690736	41.383651
680.113430	41.260350
680.536100	41.144012
680.958746	41.042063
681.381367	40.939987
681.803963	40.850803
682.226535	40.777305
682.649083	40.716231
683.071605	40.660658
683.494104	40.605981
683.916578	40.557083
684.339027	40.510857
684.761451	40.478599
685.183851	40.441629
685.606227	40.398840
686.028577	40.354084
686.450903	40.312928
686.873204	40.267320
687.295481	40.216684
687.717733	40.163093
688.139959	40.109050
688.562162	40.056374
688.984339	40.003831
689.406492	39.940379
689.828619	39.876477
690.250722	39.817892
690.672800	39.767574
691.094853	39.710744
691.516881	39.662509
691.938884	39.606293
692.360863	39.551607
692.782816	39.512728
693.204744	39.468159
693.626647	39.431007
694.048526	39.388184
694.470379	39.364376
694.892207	39.346624
695.314010	39.322623
695.735788	39.302489
696.157540	39.290804
696.579268	39.280018
697.000970	39.279631
697.422648	39.280685
697.844300	39.274556
698.265926	39.280212
698.687528	39.295813
699.109104	39.314611
699.530655	39.330258
699.952181	39.350965
700.373681	39.378762
700.795156	39.410101
701.216606	39.444283
701.638030	39.490227
702.059429	39.539005
702.480803	39.596553
702.902151	39.663681
703.323473	39.735315
703.744770	39.812802
704.166042	39.907841
704.587288	40.008109
705.008509	40.124174
705.429704	40.248887
705.850873	40.379938
706.272017	40.534437
706.693135	40.694871
707.114228	40.869920
707.535295	41.052336
707.956336	41.244848
708.377352	41.450799
708.798342	41.661998
709.219306	41.881644
709.640245	42.122589
710.061157	42.362036
710.482044	42.616000
710.902905	42.874316
711.323741	43.139318
711.744550	43.406646
712.165334	43.672080
712.586092	43.958522
713.006823	44.238773
713.427529	44.515867
713.848209	44.789630
714.268863	45.061257
714.689492	45.327231
715.110094	45.596786
715.530670	45.858064
715.951220	46.118927
716.371744	46.377025
716.792242	46.635323
717.212714	46.877707
717.633159	47.128536
718.053579	47.379406
718.473973	47.628412
718.894340	47.872315
719.314681	48.113580
719.734996	48.353683
720.155285	48.598592
720.575547	48.843464
720.995784	49.087720
721.415994	49.323085
721.836177	49.556846
722.256335	49.778097
722.676466	49.977315
723.096570	50.173270
723.516649	50.352191
723.936701	50.521173
724.356726	50.662065
724.776725	50.781546
725.196698	50.888936
725.616644	50.972146
726.036564	51.037118
726.456457	51.088048
726.876324	51.125417
727.296164	51.141277
727.715977	51.139768
728.135764	51.118164
728.555525	51.082914
728.975258	51.021187
729.394966	50.951134
729.814646	50.856855
730.234300	50.751918
730.653927	50.621800
731.073527	50.467843
731.493101	50.304158
731.912648	50.118950
732.332168	49.923830
732.751661	49.709876
733.171128	49.476252
733.590568	49.226085
734.009980	48.956332
734.429366	48.687332
734.848726	48.413149
735.268058	48.122525
735.687363	47.835725
736.106641	47.546786
736.525893	47.256517
736.945117	46.972411
737.364314	46.701583
737.783485	46.439048
738.202628	46.183287
738.621744	45.922025
739.040834	45.681207
739.459896	45.445906
739.878931	45.223875
740.297939	45.022293
740.716919	44.822379
741.135873	44.640020
741.554799	44.467038
741.973698	44.311699
742.392570	44.153099
742.811415	44.012408
743.230232	43.888963
743.649022	43.785543
744.067785	43.688111
744.486521	43.598008
744.905229	43.519538
745.323909	43.442243
745.742563	43.382981
746.161189	43.331552
746.579787	43.285476
746.998358	43.250495
747.416902	43.209117
747.835418	43.166535
748.253907	43.134721
748.672368	43.097453
749.090802	43.060045
749.509208	43.013787
749.927586	42.971940
750.345937	42.921094
750.764261	42.865041
751.182556	42.808919
751.600824	42.753445
752.019065	42.686366
752.437277	42.625024
752.855462	42.563897
753.273620	42.492648
753.691749	42.440172
754.109851	42.383936
754.527925	42.326716
754.945971	42.277186
755.363989	42.242179
755.781980	42.208142
756.199943	42.180808
756.617877	42.147502
757.035784	42.118706
757.453663	42.101199
757.871514	42.087895
758.289337	42.082676
758.707132	42.075376
759.124899	42.070375
759.542639	42.069717
759.960350	42.067330
760.378033	42.071184
760.795688	42.065746
761.213314	42.062502
761.630913	42.063501
762.048484	42.058259
762.466026	42.050982
762.883541	42.038937
763.301027	42.028969
763.718485	42.027173
764.135914	42.020569
764.553316	42.016144
764.970689	42.012739
765.388034	42.002826
765.805351	41.990190
766.222639	41.981934
766.639899	41.967575
767.057131	41.952911
767.474334	41.948490
767.891509	41.933557
768.308655	41.919094
768.725773	41.910751
769.142863	41.900398
769.559924	41.886234
769.976957	41.887097
770.393961	41.880333
770.810936	41.879203
771.227883	41.878581
771.644802	41.878897
772.061692	41.881449
772.478553	41.880965
772.895386	41.873068
773.312190	41.876203
773.728965	41.896006
774.145712	41.911662
774.562430	41.925421
774.979119	41.949854
775.395780	41.979731
775.812411	42.011571
776.229014	42.047075
776.645589	42.080768
777.062134	42.120523
777.478651	42.164213
777.895138	42.219120
778.311597	42.280723
778.728027	42.338465
779.144428	42.406507
779.560800	42.469037
779.977143	42.544097
780.393458	42.619731
780.809743	42.712167
781.225999	42.796909
781.642226	42.886301
782.058425	42.981522
782.474594	43.079275
782.890734	43.164366
783.306845	43.262017
783.722926	43.361256
784.138979	43.452640
784.555003	43.541698
784.970997	43.632579
785.386962	43.729593
785.802898	43.827963
786.218805	43.907363
786.634682	43.985819
787.050531	44.061254
787.466349	44.141989
787.882139	44.214036
788.297899	44.290114
788.713630	44.363758
789.129332	44.437878
789.545004	44.507582
789.960647	44.569057
790.376260	44.634378
790.791844	44.693661
791.207399	44.746232
791.622924	44.805994
792.038419	44.854517
792.453885	44.912128
792.869321	44.965028
793.284728	45.028822
793.700106	45.080835
794.115453	45.139365
794.530771	45.188993
794.946060	45.243196
795.361319	45.307526
795.776548	45.377421
796.191747	45.433691
796.606917	45.496757
797.022057	45.558720
797.437167	45.621177
797.852248	45.694603
798.267298	45.751737
798.682319	45.819853
799.097310	45.903256
799.512271	45.967939
799.927203	46.059317
800.342104	46.140283
800.756976	46.217710
801.171818	46.305207
801.586629	46.373220
802.001411	46.439875
802.416163	46.505591
802.830885	46.581416
803.245577	46.650688
803.660238	46.710502
804.074870	46.767281
804.489472	46.832388
804.904043	46.881793
805.318585	46.932085
805.733096	46.976047
806.147577	47.004827
806.562028	47.041281
806.976449	47.072772
807.390840	47.106855
807.805200	47.135579
808.219530	47.164402
808.633830	47.184456
809.048100	47.211128
809.462339	47.223827
809.876548	47.234678
810.290727	47.262328
810.704875	47.257885
811.118993	47.263331
811.533080	47.266034
811.947137	47.259822
812.361164	47.254803
812.775160	47.219984
813.189126	47.194131
813.603061	47.162002
814.016966	47.113090
814.430840	47.063033
814.844684	47.005029
815.258497	46.951132
815.672280	46.887118
816.086032	46.818887
816.499753	46.747410
816.913444	46.681993
817.327104	46.592317
817.740733	46.521061
818.154331	46.436704
818.567899	46.350446
818.981436	46.263693
819.394943	46.159285
819.808418	46.064516
820.221863	45.955523
820.635277	45.840447
821.048660	45.704401
821.462013	45.578270
821.875334	45.437939
822.288625	45.301464
822.701884	45.161230
823.115113	44.996047
823.528311	44.855927
823.941478	44.704712
824.354614	44.558937
824.767718	44.409264
825.180792	44.262863
825.593835	44.134406
826.006847	43.995532
826.419827	43.874216
826.832777	43.773595
827.245695	43.699791
827.658582	43.636750
828.071438	43.574557
828.484263	43.527653
828.897057	43.482449
829.309819	43.466511
829.722551	43.461420
830.135251	43.468333
830.547919	43.477734
830.960557	43.512769
831.373163	43.538335
831.785738	43.582067
832.198281	43.643633
832.610793	43.692319
833.023274	43.768178
833.435723	43.832309
833.848141	43.928454
834.260528	44.010203
834.672883	44.103642
835.085206	44.187947
835.497498	44.280980
835.909758	44.388133
836.321987	44.471132
836.734185	44.569525
837.146350	44.656991
837.558485	44.755555
837.970587	44.836795
838.382658	44.914247
838.794697	44.991791
839.206705	45.051027
839.618681	45.092836
840.030625	45.134015
840.442538	45.164607
840.854418	45.191155
841.266267	45.209308
841.678084	45.225363
842.089870	45.216229
842.501623	45.186872
842.913345	45.178924
843.325035	45.158572
843.736693	45.123620
844.148319	45.111887
844.559913	45.084535
844.971475	45.055520
845.383005	45.026985
845.794504	44.992088
846.205970	44.965161
846.617404	44.922147
847.028806	44.882801
847.440176	44.839496
847.851514	44.813337
848.262820	44.788609
848.674094	44.752580
849.085336	44.726266
849.496546	44.699597
849.907723	44.654945
850.318868	44.603904
850.729981	44.565443
851.141062	44.520737
851.552110	44.471640
851.963127	44.419744
852.374111	44.374136
852.785062	44.294333
853.195982	44.226980
853.606869	44.157798
854.017723	44.078339
854.428546	43.996123
854.839336	43.909243
855.250093	43.837872
855.660818	43.732137
856.071511	43.623975
856.482171	43.514474
856.892799	43.376665
857.303394	43.229285
857.713956	43.063938
858.124486	42.919063
858.534984	42.762485
858.945449	42.592151
859.355881	42.406776
859.766280	42.234158
860.176647	42.056948
860.586982	41.865140
860.997283	41.671276
861.407552	41.467029
861.817789	41.281169
862.227992	41.088043
862.638163	40.913677
863.048301	40.747512
863.458406	40.581993
863.868478	40.437029
864.278518	40.314398
864.688524	40.197645
865.098498	40.086309
865.508439	40.014411
865.918347	39.929050
866.328222	39.860380
866.738064	39.808005
867.147873	39.777933
867.557649	39.751052
867.967392	39.737716
868.377102	39.739293
868.786779	39.763414
869.196423	39.787095
869.606034	39.832807
870.015612	39.891514
870.425156	39.956233
870.834668	40.030072
871.244146	40.095364
871.653591	40.168716
872.063003	40.247809
872.472382	40.334517
872.881728	40.437380
873.291040	40.521672
873.700319	40.600891
874.109564	40.690965
874.518777	40.759726
874.927956	40.832084
875.337102	40.901529
875.746214	40.963351
876.155293	41.029285
876.564338	41.075803
876.973350	41.100849
877.382329	41.135567
877.791274	41.152193
878.200186	41.155719
878.609064	41.162651
879.017909	41.157984
879.426720	41.135828
879.835497	41.098800
880.244241	41.073502
880.652952	41.038632
881.061629	41.013737
881.470272	40.965049
881.878881	40.922896
882.287457	40.872921
882.695999	40.804784
883.104507	40.758151
883.512982	40.707002
883.921423	40.663412
884.329830	40.629539
884.738203	40.613263
885.146543	40.597914
885.554849	40.567625
885.963120	40.558808
886.371358	40.576721
886.779563	40.586114
887.187733	40.610877
887.595869	40.630669
888.003971	40.664921
888.412040	40.712777
888.820074	40.748505
889.228074	40.792350
889.636041	40.851312
890.043973	40.911137
890.451871	40.984639
890.859736	41.053295
891.267566	41.117233
891.675362	41.171585
892.083124	41.224425
892.490851	41.291781
892.898545	41.343223
893.306204	41.382042
893.713829	41.406353
894.121420	41.434199
894.528977	41.452869
894.936499	41.479710
895.343987	41.501911
895.751441	41.507446
896.158860	41.463320
896.566246	41.442271
896.973596	41.383875
897.380913	41.319538
897.788195	41.219139
898.195442	41.124660
898.602655	41.011288
899.009834	40.885184
899.416978	40.748234
899.824088	40.582262
900.231163	40.439436
900.638204	40.258437
901.045210	40.048348
901.452181	39.861757
901.859118	39.647253
902.266021	39.440824
902.672888	39.217674
903.079721	39.000693
903.486520	38.779526
903.893283	38.553163
904.300012	38.337684
904.706707	38.144374
905.113366	37.934856
905.519991	37.748952
905.926581	37.567377
906.333136	37.378638
906.739656	37.213540
907.146142	37.041041
907.552592	36.873962
907.959008	36.723140
908.365389	36.570710
908.771735	36.440534
909.178046	36.301620
909.584322	36.188196
909.990563	36.062910
910.396769	35.955668
910.802940	35.854419
911.209076	35.756352
911.615177	35.653490
912.021243	35.566174
912.427274	35.493691
912.833270	35.387336
913.239231	35.308126
913.645156	35.219729
914.051046	35.141523
914.456902	35.084850
914.862721	35.001686
915.268506	34.930021
915.674256	34.837208
916.079970	34.774502
916.485649	34.718463
916.891292	34.670531
917.296901	34.610448
917.702474	34.541669
918.108011	34.474372
918.513514	34.402583
918.918980	34.321174
919.324412	34.255685
919.729808	34.209325
920.135169	34.143450
920.540494	34.080440
920.945783	34.010368
921.351037	33.939548
921.756256	33.884880
922.161439	33.832962
922.566586	33.796266
922.971698	33.751176
923.376775	33.704974
923.781815	33.674488
924.186820	33.620527
924.591790	33.578346
924.996723	33.544027
925.401621	33.521485
925.806484	33.488126
926.211310	33.464831
926.616101	33.419119
927.020856	33.382575
927.425575	33.347254
927.830259	33.313189
928.234906	33.291737
928.639518	33.262837
929.044094	33.228448
929.448634	33.199214
929.853138	33.146501
930.257606	33.105363
930.662038	33.048137
931.066434	32.991448
931.470795	32.968990
931.875119	32.910472
932.279407	32.848839
932.683659	32.795938
933.087875	32.725568
933.492055	32.663232
933.896199	32.612717
934.300307	32.525493
934.704379	32.437491
935.108414	32.321020
935.512414	32.233357
935.916377	32.118869
936.320304	32.008658
936.724195	31.893642
937.128049	31.778629
937.531867	31.639986
937.935649	31.481788
938.339395	31.342491
938.743104	31.202889
939.146777	31.064900
939.550414	30.913629
939.954014	30.746227
940.357578	30.589873
940.761105	30.425231
941.164596	30.240345
941.568050	30.046932
941.971468	29.812709
942.374850	29.629184
942.778195	29.448237
943.181503	29.265192
943.584775	29.098092
943.988010	28.899356
944.391209	28.720714
944.794371	28.526695
945.197496	28.317276
945.600585	28.119293
946.003637	27.954569
946.406653	27.760183
946.809632	27.582620
947.212574	27.419558
947.615479	27.247476
948.018347	27.062111
948.421179	26.913598
948.823974	26.729254
949.226732	26.586466
949.629453	26.448267
950.032138	26.335501
950.434785	26.246300
950.837396	26.147315
951.239969	26.033456
951.642506	25.945969
952.045006	25.839497
952.447469	25.760693
952.849895	25.672113
953.252283	25.572751
953.654635	25.494928
954.056950	25.430917
954.459227	25.404965
954.861468	25.357647
955.263671	25.288117
955.665838	25.268455
956.067967	25.221661
956.470059	25.198324
956.872114	25.175018
957.274131	25.142784
957.676112	25.122845
958.078055	25.134929
958.479961	25.107682
958.881829	25.106707
959.283661	25.072143
959.685455	25.090025
960.087211	25.114297
960.488931	25.109493
960.890613	25.128430
961.292257	25.142677
961.693864	25.170668
962.095434	25.165312
962.496966	25.150177
962.898461	25.153893
963.299918	25.165276
963.701338	25.167943
964.102720	25.122108
964.504065	25.139454
964.905372	25.123729
965.306641	25.136209
965.707873	25.151463
966.109068	25.173271
966.510224	25.218099
966.911343	25.217687
967.312425	25.221538
967.713468	25.262718
968.114474	25.226761
968.515442	25.224693
968.916373	25.230307
969.317265	25.229321
969.718120	25.244503
970.118937	25.248233
970.519716	25.266929
970.920458	25.244432
971.321161	25.260206
971.721827	25.299387
972.122454	25.245639
972.523044	25.257637
972.923596	25.292557
973.324110	25.278124
973.724585	25.280751
974.125023	25.254240
974.525423	25.232513
974.925785	25.220594
975.326108	25.176741
975.726394	25.101822
976.126642	25.058534
976.526851	25.052182
976.927022	25.027292
977.327155	25.021244
977.727250	24.940176
978.127307	24.912457
978.527325	24.843470
978.927306	24.790312
979.327248	24.750154
979.727151	24.671000
980.127017	24.584865
980.526844	24.510085
980.926633	24.445134
981.326383	24.348067
981.726095	24.260401
982.125769	24.178962
982.525404	24.062860
982.925001	23.921174
983.324560	23.853365
983.724079	23.720036
984.123561	23.619869
984.523004	23.565804
984.922408	23.429503
985.321774	23.332178
985.721102	23.181009
986.120390	23.050566
986.519641	22.968168
986.918852	22.836911
987.318025	22.762223
987.717159	22.534624
988.116255	22.504221
988.515312	22.411758
988.914330	22.350722
989.313310	22.227416
989.712250	22.131195
990.111152	22.079075
990.510015	21.947644
990.908840	21.905541
991.307625	21.831053
991.706372	21.754188
992.105080	21.728253
992.503749	21.676237
992.902379	21.670281
993.300970	21.613731
993.699522	21.579941
994.098035	21.574719
994.496510	21.589883
994.894945	21.659775
995.293341	21.708584
995.691698	21.668747
996.090016	21.690570
996.488296	21.653809
996.886535	21.745878
997.284736	21.858515
997.682898	21.883175
998.081021	21.947385
998.479104	22.046797
998.877148	22.141942
999.275153	22.266156
999.673119	22.280973
1000.071046	22.447502
1000.468933	22.481605
1000.866781	22.513842
1001.264590	22.699778
1001.662359	22.834579
1002.060089	23.046546
1002.457780	23.146087
1002.855431	23.344451
1003.253043	23.391958
1003.650615	23.563859
1004.048148	23.641109
1004.445642	23.825750
1004.843096	24.027061
1005.240511	24.230554
1005.637886	24.394445
1006.035221	24.768519
1006.432517	24.948158
1006.829774	25.157695
1007.226991	25.312326
1007.624168	25.588813
1008.021306	25.892408
1008.418404	26.247689
1008.815462	26.552378
1009.212481	26.741868
1009.609460	26.895525
1010.006399	27.159075
1010.403298	27.586037
1010.800158	28.046314
1011.196978	28.097795
1011.593758	28.333244
1011.990498	28.717892
1012.387199	29.402418
1012.783860	29.736043
1013.180480	30.351572
1013.577061	30.591657
1013.973602	30.887982
1014.370103	31.200315
1014.766564	31.497920
1015.162985	31.751371
1015.559366	32.033297
1015.955708	32.248352
1016.352009	32.735234
1016.748270	33.136471
1017.144491	33.526012
1017.540671	33.810449
1017.936812	34.366869
1018.332913	34.438776
1018.728973	34.837992
1019.124994	35.021097
1019.520974	35.445011
1019.916914	35.706663
1020.312814	36.075845
