Time1=100ms:Average1=5:Objective=10X:Aperture=1: (11/28/2018 10:39:00 AM)
11/28/2018 10:39:00 AM
Reflectance
10X
Ap#: 1
Avg1: 5.000000
Avg2: 0.000000
Int.Time1:100.000000

350.166136	68.615889
350.601937	68.421937
351.037728	68.729025
351.473509	68.283486
351.909281	68.326143
352.345042	68.766358
352.780794	68.792532
353.216536	68.775188
353.652267	68.652668
354.087989	68.575688
354.523701	68.865853
354.959403	68.641910
355.395095	68.697646
355.830777	68.942401
356.266449	69.229410
356.702110	69.601270
357.137762	69.963726
357.573404	69.598079
358.009035	69.643811
358.444656	69.615282
358.880268	69.625793
359.315869	69.600427
359.751459	69.622625
360.187040	69.359157
360.622610	69.467762
361.058170	69.309944
361.493720	69.397934
361.929260	69.357864
362.364789	69.590852
362.800308	70.084557
363.235816	69.962720
363.671314	69.820540
364.106802	69.639368
364.542279	69.730066
364.977746	70.057701
365.413203	70.100992
365.848649	70.111583
366.284084	69.932731
366.719509	69.883999
367.154924	69.804618
367.590328	69.659828
368.025721	69.620702
368.461104	70.070985
368.896477	69.617014
369.331838	69.474518
369.767189	69.445906
370.202530	69.219311
370.637859	68.933404
371.073178	69.016307
371.508486	68.679640
371.943784	68.566959
372.379071	68.496959
372.814347	68.595545
373.249612	69.012367
373.684866	69.106116
374.120110	68.791859
374.555343	69.056735
374.990565	68.973956
375.425776	69.078832
375.860976	69.085201
376.296165	68.647182
376.731343	68.666258
377.166511	68.445922
377.601667	68.465785
378.036812	68.354982
378.471946	67.876414
378.907070	68.161200
379.342182	67.961756
379.777283	68.086957
380.212373	68.288881
380.647452	68.200656
381.082520	68.365418
381.517576	68.438710
381.952622	68.243301
382.387656	68.766744
382.822679	68.629486
383.257691	68.707247
383.692692	68.713146
384.127681	68.925577
384.562659	69.302567
384.997626	69.540825
385.432581	69.840173
385.867525	69.802705
386.302458	69.860297
386.737379	69.402664
387.172289	69.633373
387.607188	69.735150
388.042075	69.774616
388.476951	69.818896
388.911815	69.782830
389.346668	70.077940
389.781509	70.595691
390.216338	70.681204
390.651157	70.643828
391.085963	70.966115
391.520758	71.098753
391.955541	71.355305
392.390313	71.076045
392.825073	71.064795
393.259821	71.256180
393.694558	71.279002
394.129283	71.524008
394.563996	71.171471
394.998698	71.189252
395.433388	71.308870
395.868066	71.136186
396.302732	71.082113
396.737386	70.965368
397.172029	70.711348
397.606659	70.176716
398.041278	69.468796
398.475885	69.088019
398.910480	68.476123
399.345063	67.916147
399.779634	67.078980
400.214194	66.146422
400.648741	64.720662
401.083276	63.373981
401.517799	61.906427
401.952310	60.020291
402.386809	57.633638
402.821296	54.884070
403.255771	52.412805
403.690234	50.011355
404.124684	47.524487
404.559123	44.785214
404.993549	42.095597
405.427963	39.601429
405.862365	37.249990
406.296754	35.008997
406.731131	32.692239
407.165496	30.639608
407.599849	28.543731
408.034190	26.706885
408.468518	24.929809
408.902833	23.366979
409.337137	21.939503
409.771428	20.673571
410.205706	19.464682
410.639973	18.387805
411.074226	17.373263
411.508467	16.466150
411.942696	15.689259
412.376912	14.957035
412.811116	14.242610
413.245307	13.607380
413.679486	13.058218
414.113652	12.531816
414.547805	12.066059
414.981946	11.619618
415.416074	11.246827
415.850190	10.913341
416.284293	10.550023
416.718383	10.232894
417.152460	9.959047
417.586525	9.693530
418.020577	9.447383
418.454616	9.225025
418.888643	9.009887
419.322656	8.808967
419.756657	8.618783
420.190645	8.452443
420.624620	8.289232
421.058582	8.164658
421.492531	8.018732
421.926468	7.872824
422.360391	7.740197
422.794301	7.615968
423.228199	7.499116
423.662083	7.401003
424.095955	7.309735
424.529813	7.221707
424.963658	7.165478
425.397491	7.054501
425.831310	6.985701
426.265116	6.933066
426.698909	6.891681
427.132689	6.837018
427.566455	6.827476
428.000209	6.775752
428.433949	6.726913
428.867676	6.677767
429.301389	6.621275
429.735090	6.607349
430.168777	6.569955
430.602451	6.545110
431.036111	6.492078
431.469759	6.460753
431.903392	6.431030
432.337013	6.406306
432.770620	6.385514
433.204213	6.366643
433.637794	6.352633
434.071360	6.346359
434.504914	6.325220
434.938453	6.329448
435.371979	6.322766
435.805492	6.315084
436.238991	6.305202
436.672477	6.303110
437.105949	6.312950
437.539407	6.326451
437.972852	6.338853
438.406283	6.326100
438.839700	6.341633
439.273104	6.347191
439.706494	6.338532
440.139871	6.333668
440.573233	6.326595
441.006582	6.307302
441.439917	6.318442
441.873238	6.313862
442.306546	6.324309
442.739839	6.340975
443.173119	6.351816
443.606385	6.377898
444.039636	6.383123
444.472874	6.403236
444.906099	6.412231
445.339309	6.435573
445.772505	6.444554
446.205687	6.466592
446.638855	6.481872
447.072009	6.503941
447.505149	6.526824
447.938275	6.557148
448.371387	6.581459
448.804485	6.620397
449.237569	6.645010
449.670638	6.671139
450.103694	6.699014
450.536735	6.708779
450.969762	6.720474
451.402774	6.737567
451.835773	6.761290
452.268757	6.785679
452.701727	6.798651
453.134683	6.828638
453.567624	6.857707
454.000551	6.903130
454.433464	6.946491
454.866362	6.973883
455.299246	7.015869
455.732116	7.045421
456.164971	7.081880
456.597811	7.112864
457.030638	7.134707
457.463449	7.161320
457.896246	7.191231
458.329029	7.228123
458.761797	7.253971
459.194551	7.287735
459.627290	7.318864
460.060014	7.354268
460.492724	7.381384
460.925419	7.408919
461.358099	7.441026
461.790765	7.477208
462.223416	7.506407
462.656052	7.545408
463.088674	7.586236
463.521281	7.627170
463.953873	7.672990
464.386450	7.717520
464.819012	7.773525
465.251560	7.828919
465.684093	7.874390
466.116611	7.946401
466.549114	8.005987
466.981602	8.065748
467.414075	8.131534
467.846533	8.198894
468.278977	8.263040
468.711405	8.325102
469.143818	8.379368
469.576216	8.440632
470.008600	8.494119
470.440968	8.551660
470.873321	8.610537
471.305659	8.668682
471.737982	8.727020
472.170289	8.788096
472.602582	8.855822
473.034859	8.916973
473.467122	8.983500
473.899369	9.051810
474.331600	9.113173
474.763817	9.171353
475.196018	9.225978
475.628204	9.295511
476.060375	9.358428
476.492530	9.425778
476.924670	9.491506
477.356795	9.553397
477.788904	9.622828
478.220998	9.685496
478.653076	9.757747
479.085139	9.835042
479.517186	9.903184
479.949219	9.984177
480.381235	10.061883
480.813236	10.124243
481.245221	10.188941
481.677191	10.263973
482.109146	10.335877
482.541084	10.403114
482.973008	10.469277
483.404915	10.535450
483.836807	10.601072
484.268683	10.669055
484.700544	10.743471
485.132388	10.818718
485.564217	10.890692
485.996031	10.962996
486.427828	11.039040
486.859610	11.117653
487.291376	11.197233
487.723126	11.286501
488.154860	11.372651
488.586579	11.458981
489.018281	11.536286
489.449968	11.612923
489.881639	11.685657
490.313293	11.757370
490.744932	11.826672
491.176555	11.893932
491.608162	11.954351
492.039753	12.012321
492.471328	12.075798
492.902886	12.128590
493.334429	12.177907
493.765956	12.229103
494.197466	12.278830
494.628960	12.328605
495.060439	12.376442
495.491901	12.418923
495.923347	12.473070
496.354776	12.519127
496.786190	12.576548
497.217587	12.633381
497.648968	12.683628
498.080332	12.727169
498.511681	12.765857
498.943013	12.811536
499.374328	12.857434
499.805628	12.901615
500.236911	12.945925
500.668177	12.992973
501.099427	13.039019
501.530661	13.095468
501.961878	13.161607
502.393079	13.223389
502.824264	13.301003
503.255431	13.372700
503.686583	13.448812
504.117717	13.530568
504.548835	13.613934
504.979937	13.703841
505.411022	13.791552
505.842090	13.871082
506.273142	13.955590
506.704177	14.046933
507.135195	14.137530
507.566197	14.246351
507.997182	14.355215
508.428150	14.467605
508.859102	14.602215
509.290036	14.744294
509.720954	14.914640
510.151855	15.085563
510.582739	15.274873
511.013607	15.487488
511.444457	15.715820
511.875291	15.964325
512.306107	16.231362
512.736907	16.512588
513.167690	16.804595
513.598456	17.126656
514.029205	17.461653
514.459936	17.804828
514.890651	18.172629
515.321349	18.557266
515.752030	18.969012
516.182693	19.397475
516.613340	19.864713
517.043969	20.355641
517.474582	20.871109
517.905177	21.408784
518.335755	21.973615
518.766315	22.568073
519.196859	23.177144
519.627385	23.812208
520.057894	24.453956
520.488386	25.118607
520.918860	25.798546
521.349318	26.495470
521.779757	27.221588
522.210180	27.962514
522.640585	28.712451
523.070973	29.468745
523.501343	30.243621
523.931696	31.026440
524.362031	31.826903
524.792349	32.635485
525.222650	33.462301
525.652933	34.287033
526.083198	35.126168
526.513446	35.969377
526.943677	36.816670
527.373890	37.665903
527.804085	38.518588
528.234262	39.361361
528.664422	40.212252
529.094565	41.066532
529.524689	41.916004
529.954796	42.766260
530.384885	43.595025
530.814957	44.428787
531.245011	45.251362
531.675047	46.066098
532.105065	46.884088
532.535065	47.698990
532.965048	48.504690
533.395013	49.317858
533.824959	50.122602
534.254888	50.908058
534.684799	51.701113
535.114693	52.478564
535.544568	53.229358
535.974425	53.985979
536.404264	54.723874
536.834086	55.453618
537.263889	56.157083
537.693674	56.825679
538.123441	57.493208
538.553190	58.128518
538.982921	58.753087
539.412634	59.344863
539.842329	59.932834
540.272006	60.496862
540.701664	61.027352
541.131304	61.555163
541.560926	62.068383
541.990530	62.567284
542.420116	63.051490
542.849683	63.516560
543.279232	63.954243
543.708763	64.397382
544.138275	64.829542
544.567769	65.250518
544.997245	65.655307
545.426702	66.045402
545.856141	66.432495
546.285562	66.826487
546.714964	67.192125
547.144347	67.562978
547.573713	67.937173
548.003059	68.318365
548.432387	68.697759
548.861697	69.068117
549.290988	69.430583
549.720260	69.778509
550.149514	70.125690
550.578750	70.472041
551.007966	70.827212
551.437164	71.165339
551.866344	71.499464
552.295504	71.822037
552.724646	72.127657
553.153769	72.434299
553.582874	72.725997
554.011960	73.021303
554.441027	73.305654
554.870075	73.577759
555.299104	73.828735
555.728115	74.057164
556.157106	74.277854
556.586079	74.496220
557.015033	74.694443
557.443968	74.870505
557.872884	75.056303
558.301781	75.227248
558.730659	75.378202
559.159518	75.517124
559.588358	75.647416
560.017180	75.787329
560.445982	75.927949
560.874765	76.059849
561.303528	76.168697
561.732273	76.282087
562.160999	76.398887
562.589705	76.511288
563.018393	76.634883
563.447061	76.762217
563.875710	76.879362
564.304340	76.997225
564.732950	77.121302
565.161542	77.238274
565.590114	77.362903
566.018666	77.504079
566.447200	77.631888
566.875714	77.770571
567.304208	77.913435
567.732684	78.046190
568.161140	78.178465
568.589576	78.312027
569.017993	78.440150
569.446391	78.567481
569.874769	78.690985
570.303128	78.798821
570.731467	78.904985
571.159787	78.970563
571.588087	79.034764
572.016368	79.089775
572.444629	79.137160
572.872870	79.173162
573.301092	79.185415
573.729294	79.164494
574.157476	79.144252
574.585639	79.106052
575.013782	79.056803
575.441906	79.001108
575.870009	78.912247
576.298093	78.828174
576.726157	78.724881
577.154202	78.629269
577.582226	78.536878
578.010231	78.448909
578.438216	78.356718
578.866181	78.268761
579.294126	78.182310
579.722051	78.116341
580.149957	78.048480
580.577842	77.987135
581.005707	77.924501
581.433553	77.862180
581.861378	77.801070
582.289184	77.762996
582.716969	77.719787
583.144734	77.691264
583.572479	77.679421
584.000205	77.669777
584.427910	77.682489
584.855594	77.695205
585.283259	77.710742
585.710904	77.720799
586.138528	77.733125
586.566132	77.747555
586.993716	77.765468
587.421280	77.775052
587.848823	77.788724
588.276346	77.794845
588.703849	77.788207
589.131332	77.799388
589.558794	77.776661
589.986236	77.753794
590.413657	77.710573
590.841058	77.634017
591.268438	77.538922
591.695799	77.443917
592.123138	77.325080
592.550458	77.178492
592.977756	77.003933
593.405034	76.797247
593.832292	76.578395
594.259529	76.348551
594.686746	76.118320
595.113942	75.865535
595.541117	75.587739
595.968272	75.298190
596.395406	74.984194
596.822519	74.658560
597.249612	74.314212
597.676684	73.966353
598.103735	73.596052
598.530766	73.220314
598.957775	72.848906
599.384764	72.455743
599.811733	72.072024
600.238680	71.691775
600.665606	71.298712
601.092512	70.916883
601.519397	70.527237
601.946261	70.146732
602.373104	69.762100
602.799926	69.383806
603.226727	69.000960
603.653507	68.627620
604.080266	68.267330
604.507004	67.888343
604.933721	67.505096
605.360417	67.123827
605.787092	66.739380
606.213746	66.358036
606.640379	65.977012
607.066991	65.573983
607.493581	65.165210
607.920150	64.734407
608.346699	64.298561
608.773226	63.837836
609.199731	63.367564
609.626216	62.888275
610.052679	62.373882
610.479121	61.859844
610.905542	61.314002
611.331941	60.761930
611.758319	60.173255
612.184676	59.566765
612.611011	58.937313
613.037325	58.277318
613.463617	57.597007
613.889888	56.887676
614.316138	56.144206
614.742366	55.382978
615.168573	54.608358
615.594758	53.815850
616.020921	53.016413
616.447063	52.208770
616.873184	51.395267
617.299283	50.579594
617.725360	49.788286
618.151416	48.999470
618.577450	48.220934
619.003462	47.474843
619.429453	46.740617
619.855422	46.040321
620.281369	45.376418
620.707295	44.750500
621.133199	44.160445
621.559081	43.616098
621.984941	43.122010
622.410779	42.670650
622.836596	42.250313
623.262391	41.888301
623.688163	41.563498
624.113914	41.289025
624.539644	41.053528
624.965351	40.874005
625.391036	40.734264
625.816699	40.623360
626.242340	40.556886
626.667960	40.524291
627.093557	40.527347
627.519132	40.564803
627.944685	40.632565
628.370216	40.717734
628.795725	40.833069
629.221212	40.962952
629.646677	41.112021
630.072119	41.282681
630.497540	41.463921
630.922938	41.662995
631.348314	41.887926
631.773668	42.126847
632.198999	42.368976
632.624308	42.629815
633.049595	42.909198
633.474860	43.196622
633.900102	43.500335
634.325322	43.813812
634.750520	44.136912
635.175695	44.470307
635.600848	44.813261
636.025978	45.168920
636.451086	45.532772
636.876171	45.900136
637.301234	46.269067
637.726275	46.643988
638.151293	47.024167
638.576288	47.410125
639.001261	47.803269
639.426211	48.204574
639.851139	48.602763
640.276044	49.022344
640.700927	49.445539
641.125787	49.875381
641.550624	50.297884
641.975438	50.712578
642.400230	51.133625
642.824999	51.535833
643.249745	51.932406
643.674469	52.318536
644.099169	52.673576
644.523847	53.000156
644.948502	53.300162
645.373135	53.575566
645.797744	53.814379
646.222330	54.014847
646.646894	54.178993
647.071435	54.298697
647.495953	54.366213
647.920447	54.396571
648.344919	54.380871
648.769368	54.321028
649.193794	54.220700
649.618197	54.081833
650.042576	53.905187
650.466933	53.705947
650.891267	53.478757
651.315577	53.219246
651.739864	52.940496
652.164129	52.645228
652.588370	52.326399
653.012587	51.988689
653.436782	51.624417
653.860953	51.260902
654.285102	50.879364
654.709226	50.504870
655.133328	50.137314
655.557406	49.776729
655.981461	49.431401
656.405493	49.102754
656.829501	48.782825
657.253486	48.488175
657.677448	48.218503
658.101386	47.987670
658.525301	47.791821
658.949192	47.624549
659.373060	47.496850
659.796904	47.410477
660.220725	47.370188
660.644522	47.379929
661.068296	47.425861
661.492046	47.510296
661.915772	47.639052
662.339475	47.810056
662.763154	48.022454
663.186810	48.264691
663.610442	48.529469
664.034050	48.822574
664.457635	49.145176
664.881196	49.477369
665.304733	49.826521
665.728247	50.192111
666.151736	50.566902
666.575202	50.960820
666.998644	51.340934
667.422062	51.727772
667.845457	52.101705
668.268827	52.475696
668.692174	52.833080
669.115496	53.176445
669.538795	53.496400
669.962070	53.812069
670.385321	54.112471
670.808547	54.384141
671.231750	54.629332
671.654929	54.841342
672.078084	55.034058
672.501214	55.178626
672.924321	55.285856
673.347404	55.359065
673.770462	55.396835
674.193496	55.397361
674.616506	55.371551
675.039492	55.309475
675.462454	55.210585
675.885391	55.076014
676.308305	54.926271
676.731194	54.761027
677.154058	54.568453
677.576899	54.359278
677.999715	54.155755
678.422507	53.948931
678.845274	53.739186
679.268017	53.543030
679.690736	53.331963
680.113430	53.149285
680.536100	52.977643
680.958746	52.825306
681.381367	52.686840
681.803963	52.578337
682.226535	52.497348
682.649083	52.437538
683.071605	52.402370
683.494104	52.391481
683.916578	52.410419
684.339027	52.458762
684.761451	52.543061
685.183851	52.650343
685.606227	52.777686
686.028577	52.938328
686.450903	53.122971
686.873204	53.329501
687.295481	53.562290
687.717733	53.816766
688.139959	54.093543
688.562162	54.385195
688.984339	54.693119
689.406492	55.009016
689.828619	55.326710
690.250722	55.656380
690.672800	55.983194
691.094853	56.297015
691.516881	56.619550
691.938884	56.932552
692.360863	57.230766
692.782816	57.535206
693.204744	57.825542
693.626647	58.096255
694.048526	58.365623
694.470379	58.612376
694.892207	58.843927
695.314010	59.064684
695.735788	59.276968
696.157540	59.470936
696.579268	59.649191
697.000970	59.819789
697.422648	59.963239
697.844300	60.084258
698.265926	60.191583
698.687528	60.302747
699.109104	60.396884
699.530655	60.467315
699.952181	60.534600
700.373681	60.592788
700.795156	60.644128
701.216606	60.673076
701.638030	60.709778
702.059429	60.738242
702.480803	60.761448
702.902151	60.785023
703.323473	60.802757
703.744770	60.822491
704.166042	60.856954
704.587288	60.871316
705.008509	60.894598
705.429704	60.922739
705.850873	60.946520
706.272017	60.974029
706.693135	61.021089
707.114228	61.071418
707.535295	61.139444
707.956336	61.219787
708.377352	61.307753
708.798342	61.393377
709.219306	61.491814
709.640245	61.619433
710.061157	61.745781
710.482044	61.893362
710.902905	62.047279
711.323741	62.212592
711.744550	62.381655
712.165334	62.552554
712.586092	62.747945
713.006823	62.939178
713.427529	63.129016
713.848209	63.323666
714.268863	63.532122
714.689492	63.733764
715.110094	63.941591
715.530670	64.150898
715.951220	64.362602
716.371744	64.576168
716.792242	64.792138
717.212714	64.985760
717.633159	65.201354
718.053579	65.402137
718.473973	65.604927
718.894340	65.795264
719.314681	65.974858
719.734996	66.143857
720.155285	66.302782
720.575547	66.447679
720.995784	66.568193
721.415994	66.675989
721.836177	66.774690
722.256335	66.852865
722.676466	66.884928
723.096570	66.915293
723.516649	66.921254
723.936701	66.908079
724.356726	66.868318
724.776725	66.814948
725.196698	66.756221
725.616644	66.655912
726.036564	66.548736
726.456457	66.429732
726.876324	66.295674
727.296164	66.150572
727.715977	65.994769
728.135764	65.830699
728.555525	65.656287
728.975258	65.470035
729.394966	65.284516
729.814646	65.096925
730.234300	64.922064
730.653927	64.733383
731.073527	64.547116
731.493101	64.369643
731.912648	64.197334
732.332168	64.034130
732.751661	63.878183
733.171128	63.728166
733.590568	63.587076
734.009980	63.458554
734.429366	63.332273
734.848726	63.227142
735.268058	63.130448
735.687363	63.049564
736.106641	62.977844
736.525893	62.918187
736.945117	62.877428
737.364314	62.854799
737.783485	62.838700
738.202628	62.826422
738.621744	62.842616
739.040834	62.869973
739.459896	62.909151
739.878931	62.954490
740.297939	63.013769
740.716919	63.097631
741.135873	63.180505
741.554799	63.283791
741.973698	63.406635
742.392570	63.532674
742.811415	63.672882
743.230232	63.813414
743.649022	63.964568
744.067785	64.123925
744.486521	64.273513
744.905229	64.436715
745.323909	64.597712
745.742563	64.756390
746.161189	64.918211
746.579787	65.079575
746.998358	65.231787
747.416902	65.371709
747.835418	65.500888
748.253907	65.626186
748.672368	65.746677
749.090802	65.846601
749.509208	65.945531
749.927586	66.036579
750.345937	66.115832
750.764261	66.186468
751.182556	66.260045
751.600824	66.323851
752.019065	66.378011
752.437277	66.428715
752.855462	66.489674
753.273620	66.538461
753.691749	66.578484
754.109851	66.626958
754.527925	66.657018
754.945971	66.690093
755.363989	66.726726
755.781980	66.751031
756.199943	66.787626
756.617877	66.820390
757.035784	66.847136
757.453663	66.885910
757.871514	66.928504
758.289337	66.965980
758.707132	67.004041
759.124899	67.042574
759.542639	67.076660
759.960350	67.128290
760.378033	67.191937
760.795688	67.244237
761.213314	67.301586
761.630913	67.362578
762.048484	67.433334
762.466026	67.495534
762.883541	67.558383
763.301027	67.626059
763.718485	67.702531
764.135914	67.776641
764.553316	67.832324
764.970689	67.908367
765.388034	67.964577
765.805351	68.001222
766.222639	68.042707
766.639899	68.060458
767.057131	68.078155
767.474334	68.099427
767.891509	68.097855
768.308655	68.089897
768.725773	68.086163
769.142863	68.067264
769.559924	68.037025
769.976957	68.009016
770.393961	67.964305
770.810936	67.913853
771.227883	67.870524
771.644802	67.815259
772.061692	67.762041
772.478553	67.704688
772.895386	67.635318
773.312190	67.578839
773.728965	67.542853
774.145712	67.498406
774.562430	67.448635
774.979119	67.413473
775.395780	67.383434
775.812411	67.363611
776.229014	67.351360
776.645589	67.342384
777.062134	67.328498
777.478651	67.328878
777.895138	67.318791
778.311597	67.330432
778.728027	67.354246
779.144428	67.385678
779.560800	67.428017
779.977143	67.470387
780.393458	67.514862
780.809743	67.575479
781.225999	67.633809
781.642226	67.702203
782.058425	67.760424
782.474594	67.829102
782.890734	67.896178
783.306845	67.972016
783.722926	68.047500
784.138979	68.108853
784.555003	68.179045
784.970997	68.228160
785.386962	68.283007
785.802898	68.323831
786.218805	68.331796
786.634682	68.328940
787.050531	68.320482
787.466349	68.314742
787.882139	68.277027
788.297899	68.239309
788.713630	68.184422
789.129332	68.115424
789.545004	68.018245
789.960647	67.924303
790.376260	67.823718
790.791844	67.721127
791.207399	67.602927
791.622924	67.481614
792.038419	67.336391
792.453885	67.200214
792.869321	67.061719
793.284728	66.923332
793.700106	66.760015
794.115453	66.603150
794.530771	66.426699
794.946060	66.261113
795.361319	66.090924
795.776548	65.928032
796.191747	65.755917
796.606917	65.581499
797.022057	65.407038
797.437167	65.221319
797.852248	65.061587
798.267298	64.893090
798.682319	64.745327
799.097310	64.606817
799.512271	64.460221
799.927203	64.334438
800.342104	64.217590
800.756976	64.117302
801.171818	64.026434
801.586629	63.948459
802.001411	63.877354
802.416163	63.825656
802.830885	63.798459
803.245577	63.789693
803.660238	63.788266
804.074870	63.817044
804.489472	63.839832
804.904043	63.902982
805.318585	63.972378
805.733096	64.050525
806.147577	64.130335
806.562028	64.242476
806.976449	64.348523
807.390840	64.461117
807.805200	64.590966
808.219530	64.742451
808.633830	64.884450
809.048100	65.032272
809.462339	65.193976
809.876548	65.355294
810.290727	65.535532
810.704875	65.703619
811.118993	65.889399
811.533080	66.057202
811.947137	66.247528
812.361164	66.451301
812.775160	66.647027
813.189126	66.855180
813.603061	67.062866
814.016966	67.263756
814.430840	67.467595
814.844684	67.667468
815.258497	67.885596
815.672280	68.077365
816.086032	68.272465
816.499753	68.457278
816.913444	68.643564
817.327104	68.833750
817.740733	68.995885
818.154331	69.154397
818.567899	69.315657
818.981436	69.474920
819.394943	69.619851
819.808418	69.782368
820.221863	69.934478
820.635277	70.067758
821.048660	70.187154
821.462013	70.317768
821.875334	70.441031
822.288625	70.557032
822.701884	70.677827
823.115113	70.776750
823.528311	70.888423
823.941478	70.948560
824.354614	71.032469
824.767718	71.093261
825.180792	71.105789
825.593835	71.132439
826.006847	71.117780
826.419827	71.087423
826.832777	71.046047
827.245695	70.971097
827.658582	70.888092
828.071438	70.771981
828.484263	70.634239
828.897057	70.472313
829.309819	70.312154
829.722551	70.124688
830.135251	69.923162
830.547919	69.730610
830.960557	69.521756
831.373163	69.289672
831.785738	69.049402
832.198281	68.824139
832.610793	68.580608
833.023274	68.349768
833.435723	68.109812
833.848141	67.871043
834.260528	67.636810
834.672883	67.405421
835.085206	67.186065
835.497498	66.971246
835.909758	66.800165
836.321987	66.588332
836.734185	66.433006
837.146350	66.258464
837.558485	66.107357
837.970587	65.995566
838.382658	65.876092
838.794697	65.779858
839.206705	65.691405
839.618681	65.598666
840.030625	65.545758
840.442538	65.494723
840.854418	65.459556
841.266267	65.451495
841.678084	65.478950
842.089870	65.503214
842.501623	65.517340
842.913345	65.567626
843.325035	65.609014
843.736693	65.676760
844.148319	65.749714
844.559913	65.843753
844.971475	65.931691
845.383005	66.037665
845.794504	66.149184
846.205970	66.282245
846.617404	66.425957
847.028806	66.567759
847.440176	66.718626
847.851514	66.862361
848.262820	67.019949
848.674094	67.157374
849.085336	67.318832
849.496546	67.490482
849.907723	67.648192
850.318868	67.800772
850.729981	67.965759
851.141062	68.118641
851.552110	68.263561
851.963127	68.410426
852.374111	68.572598
852.785062	68.704225
853.195982	68.831971
853.606869	68.952378
854.017723	69.090067
854.428546	69.179963
854.839336	69.265303
855.250093	69.376529
855.660818	69.457256
856.071511	69.537599
856.482171	69.586004
856.892799	69.638008
857.303394	69.668739
857.713956	69.669299
858.124486	69.684256
858.534984	69.684539
858.945449	69.665168
859.355881	69.616424
859.766280	69.566646
860.176647	69.527777
860.586982	69.464609
860.997283	69.356381
861.407552	69.227397
861.817789	69.100490
862.227992	68.934469
862.638163	68.789735
863.048301	68.603058
863.458406	68.384854
863.868478	68.149455
864.278518	67.916506
864.688524	67.652965
865.098498	67.369740
865.508439	67.057947
865.918347	66.750716
866.328222	66.431649
866.738064	66.070279
867.147873	65.728031
867.557649	65.356985
867.967392	64.973398
868.377102	64.586190
868.786779	64.182518
869.196423	63.789390
869.606034	63.387493
870.015612	62.985329
870.425156	62.588885
870.834668	62.171522
871.244146	61.773925
871.653591	61.353845
872.063003	60.943450
872.472382	60.533359
872.881728	60.125990
873.291040	59.711668
873.700319	59.324846
874.109564	58.960632
874.518777	58.578530
874.927956	58.197370
875.337102	57.837207
875.746214	57.502675
876.155293	57.172037
876.564338	56.868135
876.973350	56.565928
877.382329	56.276273
877.791274	56.008609
878.200186	55.773921
878.609064	55.548571
879.017909	55.331338
879.426720	55.140181
879.835497	54.946751
880.244241	54.795019
880.652952	54.679561
881.061629	54.546414
881.470272	54.461039
881.878881	54.361234
882.287457	54.285281
882.695999	54.210998
883.104507	54.151729
883.512982	54.123129
883.921423	54.096643
884.329830	54.099024
884.738203	54.110667
885.146543	54.141269
885.554849	54.149866
885.963120	54.153098
886.371358	54.171578
886.779563	54.181713
887.187733	54.210064
887.595869	54.243313
888.003971	54.238662
888.412040	54.277022
888.820074	54.306139
889.228074	54.325750
889.636041	54.350202
890.043973	54.403105
890.451871	54.416338
890.859736	54.431381
891.267566	54.420088
891.675362	54.423661
892.083124	54.412630
892.490851	54.417874
892.898545	54.388138
893.306204	54.327116
893.713829	54.275331
894.121420	54.207963
894.528977	54.142911
894.936499	54.066714
895.343987	53.994225
895.751441	53.924399
896.158860	53.815085
896.566246	53.700678
896.973596	53.554619
897.380913	53.423273
897.788195	53.241446
898.195442	53.074242
898.602655	52.933803
899.009834	52.765802
899.416978	52.581934
899.824088	52.392366
900.231163	52.212319
900.638204	52.038627
901.045210	51.806190
901.452181	51.589670
901.859118	51.360189
902.266021	51.126937
902.672888	50.866140
903.079721	50.646448
903.486520	50.389189
903.893283	50.150201
904.300012	49.892551
904.706707	49.625965
905.113366	49.348838
905.519991	49.098289
905.926581	48.843806
906.333136	48.574986
906.739656	48.289660
907.146142	48.027310
907.552592	47.771813
907.959008	47.501540
908.365389	47.223221
908.771735	46.963991
909.178046	46.697438
909.584322	46.464007
909.990563	46.184395
910.396769	45.938470
910.802940	45.686949
911.209076	45.436885
911.615177	45.194002
912.021243	44.951795
912.427274	44.719807
912.833270	44.471136
913.239231	44.252287
913.645156	44.024087
914.051046	43.784178
914.456902	43.572122
914.862721	43.336942
915.268506	43.134192
915.674256	42.911145
916.079970	42.703368
916.485649	42.511981
916.891292	42.336473
917.296901	42.175074
917.702474	42.003481
918.108011	41.821809
918.513514	41.634542
918.918980	41.470153
919.324412	41.321268
919.729808	41.169872
920.135169	41.032758
920.540494	40.883247
920.945783	40.749094
921.351037	40.607172
921.756256	40.474782
922.161439	40.344655
922.566586	40.252210
922.971698	40.152432
923.376775	40.035795
923.781815	39.920404
924.186820	39.814273
924.591790	39.736958
924.996723	39.643204
925.401621	39.574115
925.806484	39.474163
926.211310	39.392494
926.616101	39.324040
927.020856	39.256132
927.425575	39.174944
927.830259	39.088704
928.234906	39.021352
928.639518	38.962446
929.044094	38.898135
929.448634	38.815766
929.853138	38.713115
930.257606	38.617758
930.662038	38.532387
931.066434	38.471863
931.470795	38.403948
931.875119	38.340945
932.279407	38.265127
932.683659	38.163159
933.087875	38.100078
933.492055	38.015516
933.896199	37.946813
934.300307	37.865936
934.704379	37.779976
935.108414	37.676350
935.512414	37.589088
935.916377	37.539666
936.320304	37.491979
936.724195	37.403713
937.128049	37.311091
937.531867	37.241503
937.935649	37.147838
938.339395	37.100915
938.743104	37.035158
939.146777	36.982852
939.550414	36.945924
939.954014	36.941232
940.357578	36.900973
940.761105	36.859192
941.164596	36.839038
941.568050	36.817714
941.971468	36.776379
942.374850	36.769054
942.778195	36.788261
943.181503	36.819332
943.584775	36.845045
943.988010	36.878696
944.391209	36.903593
944.794371	36.924678
945.197496	36.961572
945.600585	36.987496
946.003637	37.046768
946.406653	37.089365
946.809632	37.102807
947.212574	37.176335
947.615479	37.216233
948.018347	37.252183
948.421179	37.297753
948.823974	37.297595
949.226732	37.358110
949.629453	37.407933
950.032138	37.447625
950.434785	37.488712
950.837396	37.501676
951.239969	37.515715
951.642506	37.518919
952.045006	37.486599
952.447469	37.438760
952.849895	37.418978
953.252283	37.392739
953.654635	37.331516
954.056950	37.242614
954.459227	37.203111
954.861468	37.149754
955.263671	37.058511
955.665838	36.953513
956.067967	36.810905
956.470059	36.658986
956.872114	36.523856
957.274131	36.384983
957.676112	36.241784
958.078055	36.094290
958.479961	35.941111
958.881829	35.768149
959.283661	35.659309
959.685455	35.474916
960.087211	35.323535
960.488931	35.186668
960.890613	34.977436
961.292257	34.811154
961.693864	34.641833
962.095434	34.441973
962.496966	34.243914
962.898461	34.071435
963.299918	33.881126
963.701338	33.704432
964.102720	33.529879
964.504065	33.337641
964.905372	33.154568
965.306641	32.955984
965.707873	32.765498
966.109068	32.567114
966.510224	32.436278
966.911343	32.265379
967.312425	32.104056
967.713468	31.970854
968.114474	31.818615
968.515442	31.677142
968.916373	31.560472
969.317265	31.434731
969.718120	31.342705
970.118937	31.241926
970.519716	31.127190
970.920458	30.980387
971.321161	30.933197
971.721827	30.805986
972.122454	30.684694
972.523044	30.640222
972.923596	30.547535
973.324110	30.490058
973.724585	30.457361
974.125023	30.387940
974.525423	30.353274
974.925785	30.318114
975.326108	30.264323
975.726394	30.217651
976.126642	30.163121
976.526851	30.123668
976.927022	30.127894
977.327155	30.131022
977.727250	30.117510
978.127307	30.113242
978.527325	30.194802
978.927306	30.170947
979.327248	30.175639
979.727151	30.169812
980.127017	30.143901
980.526844	30.111888
980.926633	30.103826
981.326383	30.098472
981.726095	30.102185
982.125769	30.087855
982.525404	30.050062
982.925001	30.004726
983.324560	30.086410
983.724079	29.988789
984.123561	29.985515
984.523004	30.043429
984.922408	30.018343
985.321774	30.012709
985.721102	29.967822
986.120390	29.868475
986.519641	29.857024
986.918852	29.792824
987.318025	29.759107
987.717159	29.692650
988.116255	29.667495
988.515312	29.708640
988.914330	29.658596
989.313310	29.654498
989.712250	29.599931
990.111152	29.644859
990.510015	29.628790
990.908840	29.551174
991.307625	29.537428
991.706372	29.553802
992.105080	29.554769
992.503749	29.532021
992.902379	29.584495
993.300970	29.606767
993.699522	29.664779
994.098035	29.659724
994.496510	29.616456
994.894945	29.647081
995.293341	29.899240
995.691698	29.939999
996.090016	30.060996
996.488296	30.188441
996.886535	30.320078
997.284736	30.393996
997.682898	30.394677
998.081021	30.523834
998.479104	30.690144
998.877148	30.932992
999.275153	31.138021
999.673119	31.325423
1000.071046	31.470467
1000.468933	31.665873
1000.866781	31.874932
1001.264590	32.172586
1001.662359	32.297378
1002.060089	32.608380
1002.457780	32.665658
1002.855431	32.932080
1003.253043	33.155180
1003.650615	33.464880
1004.048148	33.647635
1004.445642	33.757600
1004.843096	33.942666
1005.240511	34.142417
1005.637886	34.262748
1006.035221	34.442975
1006.432517	34.886702
1006.829774	35.304361
1007.226991	35.664836
1007.624168	35.745829
1008.021306	35.956092
1008.418404	36.315179
1008.815462	36.485831
1009.212481	36.608680
1009.609460	36.966229
1010.006399	37.409590
1010.403298	37.698784
1010.800158	38.204065
1011.196978	38.398582
1011.593758	38.621133
1011.990498	38.738838
1012.387199	39.169173
1012.783860	39.640271
1013.180480	39.956803
1013.577061	39.918307
1013.973602	40.443991
1014.370103	40.582091
1014.766564	41.040222
1015.162985	41.257770
1015.559366	41.498381
1015.955708	41.492392
1016.352009	41.715316
1016.748270	42.385971
1017.144491	42.793834
1017.540671	43.257336
1017.936812	43.852992
1018.332913	44.352968
1018.728973	44.360623
1019.124994	44.422468
1019.520974	44.699546
1019.916914	45.220308
1020.312814	45.259687
