Time1=100ms:Average1=5:Objective=10X:Aperture=1: (11/28/2018 10:40:04 AM)
11/28/2018 10:40:04 AM
Reflectance
10X
Ap#: 1
Avg1: 5.000000
Avg2: 0.000000
Int.Time1:100.000000

350.166136	62.276822
350.601937	62.333081
351.037728	62.051459
351.473509	61.701945
351.909281	61.863676
352.345042	62.310243
352.780794	62.327692
353.216536	62.484668
353.652267	62.580927
354.087989	63.050342
354.523701	63.208293
354.959403	62.839083
355.395095	62.604709
355.830777	62.847314
356.266449	63.105338
356.702110	63.214538
357.137762	63.620278
357.573404	63.498133
358.009035	63.446126
358.444656	63.554405
358.880268	63.302670
359.315869	63.255317
359.751459	63.457936
360.187040	63.673688
360.622610	63.886408
361.058170	63.814553
361.493720	63.751336
361.929260	64.017147
362.364789	64.650706
362.800308	64.512684
363.235816	64.370673
363.671314	64.534470
364.106802	64.398650
364.542279	64.952939
364.977746	65.308478
365.413203	65.060241
365.848649	64.930925
366.284084	64.622057
366.719509	64.898610
367.154924	64.920071
367.590328	64.579448
368.025721	64.462956
368.461104	64.782609
368.896477	64.719379
369.331838	64.237303
369.767189	64.045239
370.202530	63.830719
370.637859	63.995783
371.073178	64.273190
371.508486	64.028275
371.943784	63.613453
372.379071	63.318853
372.814347	63.391925
373.249612	63.464553
373.684866	63.451821
374.120110	63.390450
374.555343	63.435433
374.990565	63.712638
375.425776	63.695158
375.860976	63.346996
376.296165	63.501925
376.731343	63.805937
377.166511	63.510676
377.601667	63.524052
378.036812	62.854154
378.471946	62.523934
378.907070	62.700628
379.342182	62.294654
379.777283	62.704348
380.212373	62.365778
380.647452	62.424452
381.082520	62.633207
381.517576	62.486022
381.952622	62.281382
382.387656	62.492438
382.822679	62.472979
383.257691	62.490259
383.692692	62.651752
384.127681	62.442735
384.562659	62.518365
384.997626	62.204385
385.432581	62.272138
385.867525	62.264151
386.302458	62.047258
386.737379	61.787709
387.172289	61.624122
387.607188	61.549670
388.042075	61.727654
388.476951	61.822997
388.911815	61.698337
389.346668	61.623179
389.781509	61.858893
390.216338	61.730899
390.651157	61.437853
391.085963	61.464727
391.520758	61.754297
391.955541	61.871532
392.390313	61.952325
392.825073	62.106059
393.259821	62.172128
393.694558	61.956613
394.129283	61.745303
394.563996	61.573071
394.998698	61.494444
395.433388	61.353036
395.868066	61.046823
396.302732	61.151463
396.737386	61.062273
397.172029	60.702797
397.606659	60.503862
398.041278	60.197750
398.475885	60.337771
398.910480	60.038549
399.345063	59.721789
399.779634	59.108021
400.214194	58.399306
400.648741	57.474874
401.083276	56.544484
401.517799	55.000350
401.952310	53.307406
402.386809	51.385267
402.821296	49.500031
403.255771	47.351290
403.690234	45.341774
404.124684	43.288016
404.559123	41.247419
404.993549	38.966329
405.427963	36.751025
405.862365	34.865908
406.296754	32.882193
406.731131	30.884710
407.165496	29.333576
407.599849	27.751277
408.034190	26.202253
408.468518	24.761615
408.902833	23.523120
409.337137	22.367385
409.771428	21.083820
410.205706	19.978311
410.639973	19.006184
411.074226	18.154305
411.508467	17.253501
411.942696	16.506800
412.376912	15.854627
412.811116	15.242584
413.245307	14.778083
413.679486	14.347447
414.113652	13.943597
414.547805	13.553243
414.981946	13.259866
415.416074	13.009949
415.850190	12.770260
416.284293	12.517623
416.718383	12.294574
417.152460	12.151633
417.586525	12.013777
418.020577	11.856323
418.454616	11.745564
418.888643	11.685716
419.322656	11.561516
419.756657	11.478842
420.190645	11.363608
420.624620	11.251378
421.058582	11.167287
421.492531	11.063558
421.926468	11.032040
422.360391	11.013930
422.794301	10.989438
423.228199	11.031934
423.662083	11.080652
424.095955	11.142439
424.529813	11.212328
424.963658	11.305414
425.397491	11.394504
425.831310	11.468084
426.265116	11.556617
426.698909	11.615832
427.132689	11.729014
427.566455	11.825376
428.000209	11.941784
428.433949	12.070254
428.867676	12.191640
429.301389	12.327464
429.735090	12.485005
430.168777	12.623989
430.602451	12.737263
431.036111	12.816117
431.469759	12.934571
431.903392	13.021486
432.337013	13.111361
432.770620	13.238825
433.204213	13.399693
433.637794	13.569395
434.071360	13.762345
434.504914	13.962017
434.938453	14.211616
435.371979	14.433204
435.805492	14.659585
436.238991	14.892880
436.672477	15.117731
437.105949	15.339782
437.539407	15.547001
437.972852	15.729230
438.406283	15.934009
438.839700	16.126506
439.273104	16.342947
439.706494	16.573198
440.139871	16.826507
440.573233	17.057753
441.006582	17.300966
441.439917	17.528901
441.873238	17.723576
442.306546	17.914106
442.739839	18.088639
443.173119	18.237035
443.606385	18.393018
444.039636	18.528780
444.472874	18.696617
444.906099	18.843298
445.339309	19.032089
445.772505	19.234193
446.205687	19.443084
446.638855	19.648516
447.072009	19.886435
447.505149	20.133313
447.938275	20.390633
448.371387	20.641262
448.804485	20.875026
449.237569	21.108365
449.670638	21.339214
450.103694	21.536127
450.536735	21.707420
450.969762	21.874925
451.402774	22.089038
451.835773	22.282676
452.268757	22.501281
452.701727	22.735400
453.134683	22.960686
453.567624	23.175425
454.000551	23.389000
454.433464	23.595993
454.866362	23.775095
455.299246	23.936712
455.732116	24.079675
456.164971	24.234084
456.597811	24.366921
457.030638	24.517230
457.463449	24.669015
457.896246	24.827296
458.329029	24.987104
458.761797	25.145421
459.194551	25.302981
459.627290	25.467364
460.060014	25.648209
460.492724	25.838464
460.925419	26.025896
461.358099	26.208286
461.790765	26.393382
462.223416	26.581115
462.656052	26.750443
463.088674	26.909603
463.521281	27.068301
463.953873	27.218601
464.386450	27.380595
464.819012	27.516863
465.251560	27.664735
465.684093	27.817535
466.116611	27.986573
466.549114	28.164207
466.981602	28.348581
467.414075	28.518884
467.846533	28.691261
468.278977	28.869433
468.711405	29.037802
469.143818	29.198241
469.576216	29.335695
470.008600	29.489054
470.440968	29.606310
470.873321	29.714933
471.305659	29.827462
471.737982	29.946103
472.170289	30.050412
472.602582	30.153623
473.034859	30.251079
473.467122	30.362643
473.899369	30.469477
474.331600	30.581433
474.763817	30.717707
475.196018	30.855345
475.628204	31.025383
476.060375	31.207533
476.492530	31.384924
476.924670	31.546606
477.356795	31.697747
477.788904	31.820292
478.220998	31.940149
478.653076	32.039468
479.085139	32.117697
479.517186	32.182155
479.949219	32.240790
480.381235	32.318528
480.813236	32.429316
481.245221	32.556539
481.677191	32.709773
482.109146	32.870088
482.541084	33.039999
482.973008	33.207459
483.404915	33.338388
483.836807	33.457958
484.268683	33.570808
484.700544	33.638586
485.132388	33.680137
485.564217	33.699651
485.996031	33.696112
486.427828	33.669546
486.859610	33.607901
487.291376	33.534162
487.723126	33.463456
488.154860	33.373952
488.586579	33.302406
489.018281	33.222033
489.449968	33.164357
489.881639	33.132384
490.313293	33.139294
490.744932	33.175808
491.176555	33.233381
491.608162	33.267730
492.039753	33.297504
492.471328	33.295117
492.902886	33.252763
493.334429	33.161516
493.765956	33.015836
494.197466	32.831396
494.628960	32.641775
495.060439	32.439390
495.491901	32.242979
495.923347	32.076463
496.354776	31.932849
496.786190	31.838991
497.217587	31.762564
497.648968	31.685144
498.080332	31.618611
498.511681	31.545041
498.943013	31.462353
499.374328	31.349673
499.805628	31.225236
500.236911	31.074731
500.668177	30.905830
501.099427	30.697892
501.530661	30.476314
501.961878	30.225515
502.393079	29.965845
502.824264	29.695060
503.255431	29.422222
503.686583	29.160324
504.117717	28.924044
504.548835	28.700116
504.979937	28.526272
505.411022	28.397676
505.842090	28.326276
506.273142	28.292912
506.704177	28.324447
507.135195	28.400832
507.566197	28.504467
507.997182	28.606326
508.428150	28.703434
508.859102	28.815405
509.290036	28.907631
509.720954	28.982829
510.151855	29.046180
510.582739	29.130726
511.013607	29.246184
511.444457	29.374757
511.875291	29.550369
512.306107	29.784403
512.736907	30.077648
513.167690	30.424118
513.598456	30.822291
514.029205	31.263615
514.459936	31.717169
514.890651	32.190480
515.321349	32.659311
515.752030	33.125044
516.182693	33.571878
516.613340	33.991870
517.043969	34.379744
517.474582	34.724660
517.905177	35.047314
518.335755	35.328854
518.766315	35.590261
519.196859	35.812310
519.627385	36.012703
520.057894	36.202502
520.488386	36.384517
520.918860	36.551586
521.349318	36.738846
521.779757	36.947877
522.210180	37.181188
522.640585	37.453079
523.070973	37.762784
523.501343	38.100799
523.931696	38.452199
524.362031	38.806538
524.792349	39.169414
525.222650	39.504437
525.652933	39.785308
526.083198	40.036847
526.513446	40.224295
526.943677	40.358738
527.373890	40.445193
527.804085	40.513052
528.234262	40.557008
528.664422	40.610142
529.094565	40.660313
529.524689	40.728292
529.954796	40.836704
530.384885	40.976617
530.814957	41.156501
531.245011	41.376068
531.675047	41.616226
532.105065	41.863434
532.535065	42.118457
532.965048	42.368218
533.395013	42.590969
533.824959	42.759987
534.254888	42.913080
534.684799	42.996601
535.114693	43.042465
535.544568	43.034090
535.974425	42.963677
536.404264	42.849640
536.834086	42.686987
537.263889	42.479060
537.693674	42.239271
538.123441	41.982688
538.553190	41.726351
538.982921	41.468995
539.412634	41.226103
539.842329	41.013883
540.272006	40.837621
540.701664	40.696451
541.131304	40.591532
541.560926	40.519818
541.990530	40.470714
542.420116	40.457122
542.849683	40.454831
543.279232	40.439591
543.708763	40.420245
544.138275	40.385754
544.567769	40.317891
544.997245	40.224357
545.426702	40.099553
545.856141	39.962492
546.285562	39.806966
546.714964	39.641369
547.144347	39.504044
547.573713	39.368362
548.003059	39.280915
548.432387	39.219992
548.861697	39.185751
549.290988	39.202372
549.720260	39.258686
550.149514	39.367541
550.578750	39.519535
551.007966	39.704648
551.437164	39.914094
551.866344	40.143718
552.295504	40.399319
552.724646	40.641249
553.153769	40.872715
553.582874	41.080949
554.011960	41.256828
554.441027	41.393835
554.870075	41.495703
555.299104	41.561324
555.728115	41.563592
556.157106	41.533622
556.586079	41.484273
557.015033	41.408939
557.443968	41.320999
557.872884	41.231119
558.301781	41.163641
558.730659	41.109465
559.159518	41.073448
559.588358	41.054765
560.017180	41.071355
560.445982	41.120349
560.874765	41.197415
561.303528	41.290931
561.732273	41.400245
562.160999	41.539829
562.589705	41.694114
563.018393	41.854073
563.447061	42.015818
563.875710	42.176628
564.304340	42.337328
564.732950	42.507141
565.161542	42.655932
565.590114	42.797730
566.018666	42.942491
566.447200	43.070365
566.875714	43.197363
567.304208	43.311679
567.732684	43.430246
568.161140	43.545656
568.589576	43.658925
569.017993	43.801826
569.446391	43.956458
569.874769	44.125147
570.303128	44.311656
570.731467	44.510566
571.159787	44.735031
571.588087	44.971753
572.016368	45.227668
572.444629	45.492886
572.872870	45.780908
573.301092	46.050110
573.729294	46.297338
574.157476	46.528194
574.585639	46.704019
575.013782	46.838880
575.441906	46.911724
575.870009	46.901253
576.298093	46.841238
576.726157	46.710936
577.154202	46.523527
577.582226	46.292921
578.010231	46.011082
578.438216	45.711898
578.866181	45.388544
579.294126	45.047883
579.722051	44.721059
580.149957	44.400479
580.577842	44.105663
581.005707	43.824235
581.433553	43.559140
581.861378	43.315653
582.289184	43.083511
582.716969	42.876833
583.144734	42.696150
583.572479	42.534179
584.000205	42.392401
584.427910	42.265228
584.855594	42.147045
585.283259	42.059823
585.710904	41.996879
586.138528	41.953868
586.566132	41.936913
586.993716	41.941866
587.421280	41.967398
587.848823	42.030609
588.276346	42.113773
588.703849	42.218803
589.131332	42.358591
589.558794	42.504422
589.986236	42.675181
590.413657	42.865156
590.841058	43.070406
591.268438	43.292957
591.695799	43.526750
592.123138	43.789098
592.550458	44.073703
592.977756	44.381437
593.405034	44.710334
593.832292	45.067115
594.259529	45.447988
594.686746	45.853616
595.113942	46.284452
595.541117	46.729582
595.968272	47.168664
596.395406	47.590278
596.822519	48.009292
597.249612	48.395248
597.676684	48.749262
598.103735	49.067552
598.530766	49.329986
598.957775	49.539157
599.384764	49.689117
599.811733	49.801905
600.238680	49.883691
600.665606	49.920153
601.092512	49.936282
601.519397	49.938114
601.946261	49.943283
602.373104	49.955697
602.799926	49.979868
603.226727	50.016591
603.653507	50.073834
604.080266	50.146908
604.507004	50.243413
604.933721	50.357503
605.360417	50.475989
605.787092	50.601657
606.213746	50.734911
606.640379	50.866850
607.066991	50.999588
607.493581	51.132947
607.920150	51.266713
608.346699	51.395692
608.773226	51.530072
609.199731	51.685366
609.626216	51.864604
610.052679	52.054107
610.479121	52.279339
610.905542	52.521031
611.331941	52.779963
611.758319	53.053744
612.184676	53.348920
612.611011	53.654181
613.037325	53.958434
613.463617	54.260145
613.889888	54.555612
614.316138	54.827074
614.742366	55.082567
615.168573	55.313392
615.594758	55.504872
616.020921	55.691967
616.447063	55.857100
616.873184	56.006585
617.299283	56.149185
617.725360	56.288130
618.151416	56.426315
618.577450	56.573365
619.003462	56.735455
619.429453	56.892458
619.855422	57.075429
620.281369	57.256584
620.707295	57.442735
621.133199	57.637992
621.559081	57.819663
621.984941	57.982327
622.410779	58.116783
622.836596	58.212798
623.262391	58.270564
623.688163	58.283169
624.113914	58.264151
624.539644	58.220990
624.965351	58.138065
625.391036	58.024451
625.816699	57.881497
626.242340	57.734521
626.667960	57.569005
627.093557	57.399257
627.519132	57.250933
627.944685	57.104694
628.370216	56.971778
628.795725	56.864744
629.221212	56.743581
629.646677	56.640545
630.072119	56.527605
630.497540	56.412202
630.922938	56.289914
631.348314	56.153820
631.773668	55.994000
632.198999	55.807186
632.624308	55.614516
633.049595	55.391846
633.474860	55.154196
633.900102	54.912478
634.325322	54.656920
634.750520	54.404484
635.175695	54.169019
635.600848	53.942115
636.025978	53.742049
636.451086	53.579229
636.876171	53.448244
637.301234	53.345078
637.726275	53.275732
638.151293	53.240448
638.576288	53.238491
639.001261	53.277875
639.426211	53.331102
639.851139	53.393845
640.276044	53.479571
640.700927	53.557879
641.125787	53.642370
641.550624	53.719010
641.975438	53.776135
642.400230	53.825347
642.824999	53.854455
643.249745	53.889901
643.674469	53.912628
644.099169	53.922428
644.523847	53.933902
644.948502	53.951443
645.373135	53.991752
645.797744	54.035494
646.222330	54.090891
646.646894	54.167216
647.071435	54.247843
647.495953	54.333093
647.920447	54.438523
648.344919	54.546325
648.769368	54.659225
649.193794	54.764568
649.618197	54.848958
650.042576	54.928022
650.466933	54.999338
650.891267	55.047048
651.315577	55.082381
651.739864	55.096176
652.164129	55.086952
652.588370	55.056985
653.012587	55.018764
653.436782	54.954958
653.860953	54.892180
654.285102	54.818783
654.709226	54.734300
655.133328	54.660457
655.557406	54.591285
655.981461	54.525793
656.405493	54.464921
656.829501	54.393763
657.253486	54.318000
657.677448	54.238889
658.101386	54.158462
658.525301	54.045056
658.949192	53.919408
659.373060	53.784038
659.796904	53.614757
660.220725	53.430771
660.644522	53.243234
661.068296	53.027731
661.492046	52.797526
661.915772	52.575014
662.339475	52.357772
662.763154	52.148228
663.186810	51.950906
663.610442	51.777237
664.034050	51.635416
664.457635	51.541431
664.881196	51.487147
665.304733	51.477660
665.728247	51.529085
666.151736	51.631649
666.575202	51.787067
666.998644	51.996477
667.422062	52.252314
667.845457	52.548044
668.268827	52.874306
668.692174	53.230844
669.115496	53.610595
669.538795	53.988101
669.962070	54.386101
670.385321	54.793011
670.808547	55.186020
671.231750	55.554442
671.654929	55.906437
672.078084	56.238010
672.501214	56.529481
672.924321	56.808041
673.347404	57.068157
673.770462	57.298359
674.193496	57.518953
674.616506	57.718852
675.039492	57.897287
675.462454	58.055483
675.885391	58.195648
676.308305	58.331048
676.731194	58.462375
677.154058	58.590766
677.576899	58.697653
677.999715	58.809791
678.422507	58.915859
678.845274	59.017730
679.268017	59.116196
679.690736	59.203774
680.113430	59.276087
680.536100	59.338631
680.958746	59.395383
681.381367	59.442090
681.803963	59.473774
682.226535	59.499942
682.649083	59.536703
683.071605	59.563992
683.494104	59.579043
683.916578	59.604876
684.339027	59.651342
684.761451	59.703965
685.183851	59.767986
685.606227	59.838998
686.028577	59.913390
686.450903	59.986857
686.873204	60.056798
687.295481	60.115226
687.717733	60.166386
688.139959	60.204876
688.562162	60.225259
688.984339	60.232677
689.406492	60.216209
689.828619	60.163950
690.250722	60.076874
690.672800	59.955878
691.094853	59.792930
691.516881	59.606078
691.938884	59.374096
692.360863	59.106341
692.782816	58.826359
693.204744	58.518490
693.626647	58.204572
694.048526	57.883767
694.470379	57.562541
694.892207	57.259572
695.314010	56.968719
695.735788	56.694275
696.157540	56.448817
696.579268	56.237533
697.000970	56.057210
697.422648	55.903746
697.844300	55.789034
698.265926	55.702676
698.687528	55.652882
699.109104	55.649174
699.530655	55.668064
699.952181	55.719189
700.373681	55.800553
700.795156	55.907310
701.216606	56.023828
701.638030	56.160860
702.059429	56.309182
702.480803	56.451019
702.902151	56.591402
703.323473	56.731638
703.744770	56.867016
704.166042	56.999202
704.587288	57.107555
705.008509	57.202345
705.429704	57.291895
705.850873	57.361223
706.272017	57.417892
706.693135	57.456484
707.114228	57.480062
707.535295	57.495861
707.956336	57.494810
708.377352	57.489759
708.798342	57.464227
709.219306	57.447362
709.640245	57.444245
710.061157	57.442246
710.482044	57.447665
710.902905	57.469699
711.323741	57.500951
711.744550	57.553334
712.165334	57.605527
712.586092	57.692411
713.006823	57.790038
713.427529	57.897723
713.848209	58.024509
714.268863	58.180150
714.689492	58.354548
715.110094	58.547377
715.530670	58.758528
715.951220	58.995924
716.371744	59.242742
716.792242	59.517845
717.212714	59.787135
717.633159	60.080802
718.053579	60.385259
718.473973	60.686806
718.894340	60.993314
719.314681	61.299889
719.734996	61.593001
720.155285	61.889032
720.575547	62.161865
720.995784	62.417070
721.415994	62.640650
721.836177	62.849954
722.256335	63.001654
722.676466	63.096326
723.096570	63.150215
723.516649	63.151924
723.936701	63.095029
724.356726	62.974544
724.776725	62.804785
725.196698	62.588602
725.616644	62.314825
726.036564	61.989799
726.456457	61.640990
726.876324	61.263125
727.296164	60.853288
727.715977	60.425231
728.135764	59.985120
728.555525	59.554506
728.975258	59.115303
729.394966	58.692834
729.814646	58.282323
730.234300	57.911969
730.653927	57.569892
731.073527	57.264974
731.493101	57.015342
731.912648	56.807566
732.332168	56.650972
732.751661	56.553443
733.171128	56.507787
733.590568	56.518781
734.009980	56.582512
734.429366	56.702564
734.848726	56.879187
735.268058	57.103191
735.687363	57.383386
736.106641	57.705296
736.525893	58.062207
736.945117	58.452108
737.364314	58.879400
737.783485	59.333653
738.202628	59.781080
738.621744	60.246350
739.040834	60.720090
739.459896	61.185887
739.878931	61.630865
740.297939	62.055144
740.716919	62.466879
741.135873	62.843583
741.554799	63.177864
741.973698	63.477979
742.392570	63.732503
742.811415	63.941200
743.230232	64.097916
743.649022	64.209130
744.067785	64.275630
744.486521	64.282576
744.905229	64.242330
745.323909	64.162861
745.742563	64.042992
746.161189	63.875531
746.579787	63.690928
746.998358	63.477806
747.416902	63.230384
747.835418	62.952893
748.253907	62.676327
748.672368	62.388371
749.090802	62.087419
749.509208	61.789229
749.927586	61.508220
750.345937	61.239027
750.764261	60.973950
751.182556	60.753837
751.600824	60.553013
752.019065	60.374583
752.437277	60.224929
752.855462	60.112451
753.273620	60.028823
753.691749	59.969497
754.109851	59.940160
754.527925	59.935270
754.945971	59.971202
755.363989	60.031352
755.781980	60.104658
756.199943	60.205074
756.617877	60.316609
757.035784	60.427009
757.453663	60.545482
757.871514	60.665762
758.289337	60.769199
758.707132	60.858574
759.124899	60.927656
759.542639	60.951999
759.960350	60.955971
760.378033	60.931465
760.795688	60.858938
761.213314	60.746617
761.630913	60.578901
762.048484	60.370716
762.466026	60.118857
762.883541	59.812343
763.301027	59.469760
763.718485	59.096964
764.135914	58.682149
764.553316	58.220608
764.970689	57.749673
765.388034	57.251844
765.805351	56.736690
766.222639	56.223234
766.639899	55.689632
767.057131	55.178164
767.474334	54.677663
767.891509	54.181623
768.308655	53.705870
768.725773	53.264700
769.142863	52.845607
769.559924	52.456310
769.976957	52.102895
770.393961	51.777599
770.810936	51.499322
771.227883	51.265711
771.644802	51.067509
772.061692	50.931713
772.478553	50.832862
772.895386	50.777957
773.312190	50.773290
773.728965	50.833120
774.145712	50.931544
774.562430	51.084980
774.979119	51.288532
775.395780	51.533858
775.812411	51.824183
776.229014	52.150323
776.645589	52.504321
777.062134	52.889372
777.478651	53.300375
777.895138	53.729548
778.311597	54.182567
778.728027	54.637912
779.144428	55.099729
779.560800	55.560172
779.977143	56.001710
780.393458	56.433001
780.809743	56.842824
781.225999	57.216925
781.642226	57.573607
782.058425	57.887740
782.474594	58.165798
782.890734	58.402239
783.306845	58.604388
783.722926	58.745008
784.138979	58.833337
784.555003	58.869964
784.970997	58.841039
785.386962	58.788937
785.802898	58.671232
786.218805	58.502961
786.634682	58.281946
787.050531	58.021151
787.466349	57.727545
787.882139	57.397821
788.297899	57.048042
788.713630	56.677512
789.129332	56.307451
789.545004	55.942083
789.960647	55.580357
790.376260	55.236997
790.791844	54.911948
791.207399	54.597668
791.622924	54.334022
792.038419	54.083753
792.453885	53.889740
792.869321	53.737999
793.284728	53.635631
793.700106	53.586914
794.115453	53.597155
794.530771	53.632317
794.946060	53.725643
795.361319	53.854442
795.776548	54.029123
796.191747	54.226517
796.606917	54.460730
797.022057	54.713570
797.437167	54.997923
797.852248	55.284169
798.267298	55.563758
798.682319	55.851240
799.097310	56.134958
799.512271	56.394397
799.927203	56.649194
800.342104	56.877656
800.756976	57.079070
801.171818	57.245005
801.586629	57.360521
802.001411	57.421803
802.416163	57.428192
802.830885	57.403102
803.245577	57.330334
803.660238	57.207781
804.074870	57.049821
804.489472	56.843200
804.904043	56.605445
805.318585	56.312862
805.733096	55.982172
806.147577	55.607582
806.562028	55.194143
806.976449	54.771820
807.390840	54.314127
807.805200	53.826372
808.219530	53.336173
808.633830	52.820235
809.048100	52.307696
809.462339	51.794093
809.876548	51.280606
810.290727	50.781299
810.704875	50.276603
811.118993	49.801850
811.533080	49.340532
811.947137	48.902808
812.361164	48.498142
812.775160	48.100252
813.189126	47.724523
813.603061	47.382106
814.016966	47.080780
814.430840	46.826695
814.844684	46.608963
815.258497	46.435674
815.672280	46.304017
816.086032	46.213182
816.499753	46.162103
816.913444	46.162974
817.327104	46.200534
817.740733	46.277209
818.154331	46.421572
818.567899	46.591807
818.981436	46.817172
819.394943	47.084227
819.808418	47.390271
820.221863	47.735124
820.635277	48.122817
821.048660	48.535733
821.462013	48.989580
821.875334	49.469779
822.288625	49.966216
822.701884	50.511015
823.115113	51.034409
823.528311	51.608303
823.941478	52.155667
824.354614	52.719759
824.767718	53.273764
825.180792	53.807566
825.593835	54.345209
826.006847	54.863551
826.419827	55.359889
826.832777	55.812706
827.245695	56.227723
827.658582	56.608883
828.071438	56.940133
828.484263	57.213316
828.897057	57.433312
829.309819	57.621120
829.722551	57.739243
830.135251	57.796017
830.547919	57.800961
830.960557	57.738214
831.373163	57.629417
831.785738	57.457425
832.198281	57.267199
832.610793	56.999665
833.023274	56.732839
833.435723	56.427933
833.848141	56.081113
834.260528	55.728712
834.672883	55.364886
835.085206	55.010335
835.497498	54.629951
835.909758	54.290322
836.321987	53.934655
836.734185	53.611070
837.146350	53.299363
837.558485	53.005963
837.970587	52.756193
838.382658	52.527740
838.794697	52.325834
839.206705	52.151169
839.618681	51.989208
840.030625	51.861822
840.442538	51.779362
840.854418	51.709116
841.266267	51.675041
841.678084	51.671789
842.089870	51.676346
842.501623	51.685092
842.913345	51.732123
843.325035	51.787840
843.736693	51.857361
844.148319	51.949402
844.559913	52.046488
844.971475	52.128359
845.383005	52.242720
845.794504	52.322596
846.205970	52.427117
846.617404	52.529897
847.028806	52.621306
847.440176	52.698672
847.851514	52.742029
848.262820	52.794357
848.674094	52.819964
849.085336	52.819283
849.496546	52.797191
849.907723	52.747413
850.318868	52.687125
850.729981	52.579855
851.141062	52.462269
851.552110	52.326448
851.963127	52.167617
852.374111	52.003090
852.785062	51.803379
853.195982	51.566594
853.606869	51.323576
854.017723	51.069485
854.428546	50.792323
854.839336	50.523013
855.250093	50.254654
855.660818	49.959643
856.071511	49.669269
856.482171	49.364180
856.892799	49.052357
857.303394	48.728021
857.713956	48.418597
858.124486	48.111290
858.534984	47.810571
858.945449	47.477666
859.355881	47.146631
859.766280	46.820523
860.176647	46.491759
860.586982	46.175722
860.997283	45.841793
861.407552	45.510892
861.817789	45.217917
862.227992	44.922396
862.638163	44.655104
863.048301	44.384189
863.458406	44.149469
863.868478	43.920394
864.278518	43.714932
864.688524	43.526965
865.098498	43.383036
865.508439	43.273565
865.918347	43.187871
866.328222	43.154937
866.738064	43.154762
867.147873	43.199878
867.557649	43.273781
867.967392	43.389283
868.377102	43.558053
868.786779	43.751615
869.196423	44.009088
869.606034	44.304862
870.015612	44.667373
870.425156	45.058496
870.834668	45.469705
871.244146	45.946094
871.653591	46.433121
872.063003	46.964575
872.472382	47.515108
872.881728	48.088949
873.291040	48.675485
873.700319	49.264587
874.109564	49.873812
874.518777	50.461808
874.927956	51.051317
875.337102	51.619573
875.746214	52.172932
876.155293	52.697689
876.564338	53.192796
876.973350	53.633239
877.382329	54.032208
877.791274	54.360593
878.200186	54.656718
878.609064	54.890123
879.017909	55.058519
879.426720	55.132652
879.835497	55.160152
880.244241	55.112330
880.652952	55.007615
881.061629	54.836601
881.470272	54.604333
881.878881	54.292312
882.287457	53.948585
882.695999	53.539602
883.104507	53.056967
883.512982	52.535027
883.921423	51.966198
884.329830	51.396141
884.738203	50.807773
885.146543	50.194619
885.554849	49.573139
885.963120	48.933067
886.371358	48.321225
886.779563	47.700890
887.187733	47.085108
887.595869	46.498246
888.003971	45.923941
888.412040	45.381144
888.820074	44.857994
889.228074	44.366493
889.636041	43.931100
890.043973	43.517791
890.451871	43.168349
890.859736	42.826690
891.267566	42.521589
891.675362	42.255423
892.083124	42.017051
892.490851	41.820340
892.898545	41.651948
893.306204	41.504001
893.713829	41.383276
894.121420	41.304985
894.528977	41.236436
894.936499	41.197076
895.343987	41.167989
895.751441	41.160225
896.158860	41.185365
896.566246	41.196587
896.973596	41.199638
897.380913	41.204052
897.788195	41.196165
898.195442	41.185247
898.602655	41.180847
899.009834	41.142955
899.416978	41.099416
899.824088	41.067702
900.231163	41.018041
900.638204	40.937377
901.045210	40.853279
901.452181	40.737715
901.859118	40.621097
902.266021	40.486523
902.672888	40.352449
903.079721	40.184045
903.486520	40.018714
903.893283	39.841454
904.300012	39.658440
904.706707	39.501243
905.113366	39.311937
905.519991	39.128108
905.926581	38.944575
906.333136	38.757905
906.739656	38.585719
907.146142	38.392650
907.552592	38.210450
907.959008	38.037508
908.365389	37.884331
908.771735	37.708223
909.178046	37.553686
909.584322	37.424098
909.990563	37.263353
910.396769	37.145423
910.802940	37.020023
911.209076	36.924059
911.615177	36.829804
912.021243	36.737950
912.427274	36.651572
912.833270	36.568205
913.239231	36.494765
913.645156	36.438229
914.051046	36.389659
914.456902	36.355114
914.862721	36.298912
915.268506	36.253010
915.674256	36.228603
916.079970	36.209374
916.485649	36.197033
916.891292	36.192700
917.296901	36.179951
917.702474	36.183243
918.108011	36.187009
918.513514	36.204349
918.918980	36.206329
919.324412	36.215033
919.729808	36.257529
920.135169	36.280926
920.540494	36.320663
920.945783	36.353994
921.351037	36.411548
921.756256	36.479507
922.161439	36.544729
922.566586	36.663005
922.971698	36.755033
923.376775	36.854936
923.781815	36.969160
924.186820	37.065709
924.591790	37.176875
924.996723	37.304874
925.401621	37.437893
925.806484	37.572644
926.211310	37.688208
926.616101	37.830335
927.020856	37.953833
927.425575	38.085467
927.830259	38.216395
928.234906	38.333781
928.639518	38.451229
929.044094	38.575114
929.448634	38.687628
929.853138	38.787279
930.257606	38.873712
930.662038	38.961378
931.066434	39.011821
931.470795	39.066028
931.875119	39.108423
932.279407	39.154829
932.683659	39.179752
933.087875	39.177069
933.492055	39.174892
933.896199	39.139345
934.300307	39.098476
934.704379	39.032957
935.108414	38.933261
935.512414	38.819039
935.916377	38.715879
936.320304	38.564044
936.724195	38.423648
937.128049	38.282380
937.531867	38.093581
937.935649	37.864556
938.339395	37.642646
938.743104	37.418867
939.146777	37.187518
939.550414	36.940904
939.954014	36.676607
940.357578	36.383366
940.761105	36.089400
941.164596	35.792921
941.568050	35.497262
941.971468	35.176086
942.374850	34.871206
942.778195	34.570449
943.181503	34.269860
943.584775	34.005034
943.988010	33.745602
944.391209	33.464724
944.794371	33.173137
945.197496	32.886436
945.600585	32.612368
946.003637	32.348505
946.406653	32.109067
946.809632	31.842466
947.212574	31.612109
947.615479	31.356863
948.018347	31.139180
948.421179	30.925276
948.823974	30.713899
949.226732	30.525612
949.629453	30.332687
950.032138	30.163042
950.434785	30.029156
950.837396	29.899829
951.239969	29.752091
951.642506	29.611573
952.045006	29.488751
952.447469	29.411011
952.849895	29.317137
953.252283	29.226058
953.654635	29.153269
954.056950	29.063790
954.459227	29.012480
954.861468	28.991052
955.263671	28.935989
955.665838	28.899640
956.067967	28.849501
956.470059	28.796479
956.872114	28.754031
957.274131	28.714370
957.676112	28.695834
958.078055	28.692912
958.479961	28.685248
958.881829	28.656372
959.283661	28.648283
959.685455	28.662733
960.087211	28.707434
960.488931	28.737700
960.890613	28.743993
961.292257	28.751400
961.693864	28.808936
962.095434	28.816056
962.496966	28.827855
962.898461	28.870524
963.299918	28.928050
963.701338	28.984652
964.102720	29.033306
964.504065	29.082940
964.905372	29.107025
965.306641	29.165245
965.707873	29.237762
966.109068	29.300277
966.510224	29.401387
966.911343	29.453438
967.312425	29.483447
967.713468	29.535708
968.114474	29.557563
968.515442	29.618415
968.916373	29.733888
969.317265	29.816358
969.718120	29.861302
970.118937	29.979229
970.519716	30.049220
970.920458	30.148638
971.321161	30.254198
971.721827	30.342119
972.122454	30.395984
972.523044	30.490857
972.923596	30.584838
973.324110	30.654483
973.724585	30.766666
974.125023	30.815149
974.525423	30.888693
974.925785	30.971946
975.326108	31.025322
975.726394	31.038315
976.126642	31.079567
976.526851	31.150049
976.927022	31.162198
977.327155	31.193603
977.727250	31.223532
978.127307	31.221428
978.527325	31.223611
978.927306	31.228243
979.327248	31.272504
979.727151	31.268861
980.127017	31.302374
980.526844	31.291750
980.926633	31.273746
981.326383	31.199939
981.726095	31.168844
982.125769	31.142908
982.525404	30.997800
982.925001	30.878062
983.324560	30.731605
983.724079	30.604880
984.123561	30.497381
984.523004	30.396632
984.922408	30.268581
985.321774	30.100520
985.721102	29.923033
986.120390	29.732622
986.519641	29.592162
986.918852	29.441275
987.318025	29.280131
987.717159	29.077691
988.116255	28.946914
988.515312	28.803485
988.914330	28.576975
989.313310	28.424915
989.712250	28.278428
990.111152	28.127265
990.510015	27.987364
990.908840	27.863638
991.307625	27.744845
991.706372	27.574098
992.105080	27.464406
992.503749	27.292323
992.902379	27.191986
993.300970	27.102459
993.699522	27.042329
994.098035	26.893027
994.496510	26.878199
994.894945	26.877584
995.293341	26.923682
995.691698	26.986268
996.090016	26.976179
996.488296	27.037224
996.886535	27.145166
997.284736	27.129456
997.682898	27.194407
998.081021	27.305932
998.479104	27.355235
998.877148	27.499215
999.275153	27.559619
999.673119	27.591267
1000.071046	27.730940
1000.468933	27.796305
1000.866781	27.876995
1001.264590	28.188124
1001.662359	28.320218
1002.060089	28.490955
1002.457780	28.609158
1002.855431	28.747726
1003.253043	28.935430
1003.650615	29.025174
1004.048148	29.168026
1004.445642	29.234315
1004.843096	29.531554
1005.240511	29.760073
1005.637886	29.895575
1006.035221	29.997061
1006.432517	30.343475
1006.829774	30.590921
1007.226991	30.842683
1007.624168	31.096663
1008.021306	31.292945
1008.418404	31.707003
1008.815462	31.898109
1009.212481	31.947087
1009.609460	32.151828
1010.006399	32.394501
1010.403298	32.622717
1010.800158	33.198503
1011.196978	33.383725
1011.593758	33.951643
1011.990498	34.549664
1012.387199	34.907213
1012.783860	35.470684
1013.180480	36.003120
1013.577061	36.174031
1013.973602	36.897168
1014.370103	37.316865
1014.766564	37.864078
1015.162985	38.376600
1015.559366	38.708186
1015.955708	39.034909
1016.352009	39.474588
1016.748270	40.041795
1017.144491	40.173410
1017.540671	40.455986
1017.936812	40.990893
1018.332913	41.407699
1018.728973	41.800643
1019.124994	41.969937
1019.520974	42.531179
1019.916914	42.857143
1020.312814	43.462490
