Time1=100ms:Average1=5:Objective=10X:Aperture=1: (11/28/2018 10:49:32 AM)
11/28/2018 10:49:32 AM
Reflectance
10X
Ap#: 1
Avg1: 5.000000
Avg2: 0.000000
Int.Time1:100.000000

350.166136	70.163800
350.601937	70.303183
351.037728	70.579124
351.473509	70.168823
351.909281	70.207075
352.345042	70.144826
352.780794	69.926714
353.216536	69.721395
353.652267	69.737533
354.087989	69.707069
354.523701	69.963981
354.959403	69.967518
355.395095	69.976193
355.830777	70.115551
356.266449	70.378226
356.702110	70.633380
357.137762	71.113864
357.573404	70.736262
358.009035	70.418522
358.444656	70.463269
358.880268	70.447441
359.315869	70.508143
359.751459	70.389865
360.187040	70.537308
360.622610	70.325058
361.058170	70.536114
361.493720	70.707161
361.929260	70.786818
362.364789	71.314990
362.800308	71.099243
363.235816	70.921356
363.671314	71.304193
364.106802	71.424765
364.542279	71.452673
364.977746	71.602308
365.413203	71.243799
365.848649	71.643642
366.284084	71.720659
366.719509	71.964934
367.154924	71.927176
367.590328	71.826983
368.025721	71.933711
368.461104	72.227152
368.896477	71.787857
369.331838	71.692633
369.767189	71.146765
370.202530	71.234557
370.637859	70.989281
371.073178	71.190601
371.508486	71.341304
371.943784	71.426088
372.379071	71.112076
372.814347	71.040724
373.249612	71.320327
373.684866	71.240634
374.120110	71.609985
374.555343	71.702054
374.990565	71.814368
375.425776	71.945464
375.860976	71.797331
376.296165	71.823591
376.731343	71.932744
377.166511	71.596080
377.601667	71.716464
378.036812	71.632813
378.471946	71.444735
378.907070	71.903350
379.342182	71.629726
379.777283	71.817391
380.212373	71.475580
380.647452	71.093075
381.082520	71.149880
381.517576	70.847312
381.952622	70.629792
382.387656	70.996457
382.822679	70.791180
383.257691	71.105723
383.692692	70.915713
384.127681	70.853142
384.562659	71.031026
384.997626	71.085793
385.432581	71.110151
385.867525	71.163953
386.302458	71.714384
386.737379	71.654491
387.172289	71.680658
387.607188	71.560813
388.042075	71.548547
388.476951	71.595763
388.911815	71.564303
389.346668	71.670620
389.781509	71.736375
390.216338	71.754564
390.651157	71.411695
391.085963	71.167914
391.520758	71.208291
391.955541	71.145115
392.390313	70.916569
392.825073	70.829481
393.259821	70.929356
393.694558	70.726191
394.129283	70.655532
394.563996	70.321613
394.998698	70.467739
395.433388	70.454452
395.868066	70.333155
396.302732	70.355780
396.737386	70.405201
397.172029	70.324525
397.606659	70.261636
398.041278	69.664945
398.475885	69.624478
398.910480	69.219574
399.345063	68.785069
399.779634	67.712815
400.214194	66.429164
400.648741	65.485516
401.083276	64.142435
401.517799	62.210644
401.952310	60.382144
402.386809	58.086701
402.821296	55.768389
403.255771	53.538581
403.690234	51.075849
404.124684	48.950918
404.559123	46.630911
404.993549	43.934542
405.427963	41.600899
405.862365	39.494435
406.296754	37.357862
406.731131	35.112370
407.165496	33.332782
407.599849	31.536591
408.034190	29.947678
408.468518	28.342692
408.902833	26.917639
409.337137	25.485789
409.771428	24.156976
410.205706	22.956573
410.639973	21.824263
411.074226	20.826653
411.508467	19.973514
411.942696	19.162868
412.376912	18.483594
412.811116	17.922085
413.245307	17.401769
413.679486	17.022597
414.113652	16.624622
414.547805	16.291381
414.981946	16.045020
415.416074	15.777650
415.850190	15.558421
416.284293	15.341781
416.718383	15.146990
417.152460	15.041157
417.586525	14.943833
418.020577	14.834908
418.454616	14.777474
418.888643	14.713554
419.322656	14.638491
419.756657	14.599323
420.190645	14.577346
420.624620	14.532035
421.058582	14.501629
421.492531	14.479914
421.926468	14.467506
422.360391	14.474266
422.794301	14.557561
423.228199	14.689495
423.662083	14.831504
424.095955	15.005529
424.529813	15.177551
424.963658	15.376360
425.397491	15.532494
425.831310	15.723354
426.265116	15.871810
426.698909	16.031287
427.132689	16.199204
427.566455	16.379599
428.000209	16.567728
428.433949	16.758960
428.867676	16.986311
429.301389	17.206850
429.735090	17.414896
430.168777	17.617217
430.602451	17.798876
431.036111	17.940363
431.469759	18.105936
431.903392	18.267108
432.337013	18.422013
432.770620	18.602302
433.204213	18.798643
433.637794	19.028840
434.071360	19.295980
434.504914	19.591939
434.938453	19.896797
435.371979	20.245206
435.805492	20.588331
436.238991	20.904644
436.672477	21.217526
437.105949	21.504409
437.539407	21.755582
437.972852	21.998364
438.406283	22.221848
438.839700	22.479629
439.273104	22.725100
439.706494	23.013964
440.139871	23.314955
440.573233	23.610453
441.006582	23.926345
441.439917	24.229210
441.873238	24.486178
442.306546	24.699190
442.739839	24.899879
443.173119	25.085363
443.606385	25.252990
444.039636	25.414942
444.472874	25.592371
444.906099	25.784375
445.339309	26.017674
445.772505	26.279287
446.205687	26.534459
446.638855	26.813382
447.072009	27.104138
447.505149	27.387144
447.938275	27.693229
448.371387	28.002520
448.804485	28.277061
449.237569	28.533994
449.670638	28.770023
450.103694	28.971693
450.536735	29.160563
450.969762	29.383964
451.402774	29.611843
451.835773	29.858492
452.268757	30.095110
452.701727	30.380700
453.134683	30.640531
453.567624	30.895119
454.000551	31.145928
454.433464	31.360201
454.866362	31.564163
455.299246	31.746904
455.732116	31.934003
456.164971	32.115472
456.597811	32.277949
457.030638	32.465625
457.463449	32.650102
457.896246	32.848129
458.329029	33.027515
458.761797	33.198937
459.194551	33.367601
459.627290	33.565695
460.060014	33.772906
460.492724	33.991652
460.925419	34.218376
461.358099	34.426556
461.790765	34.625203
462.223416	34.821127
462.656052	35.006396
463.088674	35.181740
463.521281	35.345032
463.953873	35.510145
464.386450	35.650028
464.819012	35.797871
465.251560	35.932721
465.684093	36.110646
466.116611	36.274529
466.549114	36.466109
466.981602	36.650368
467.414075	36.845764
467.846533	37.042312
468.278977	37.219908
468.711405	37.395590
469.143818	37.535605
469.576216	37.653032
470.008600	37.789383
470.440968	37.878963
470.873321	37.968914
471.305659	38.040883
471.737982	38.123216
472.170289	38.181220
472.602582	38.231658
473.034859	38.265336
473.467122	38.302889
473.899369	38.340468
474.331600	38.385702
474.763817	38.439416
475.196018	38.520660
475.628204	38.613426
476.060375	38.718428
476.492530	38.839709
476.924670	38.942237
477.356795	39.025915
477.788904	39.078233
478.220998	39.104136
478.653076	39.116651
479.085139	39.075285
479.517186	39.017714
479.949219	38.943418
480.381235	38.888167
480.813236	38.837277
481.245221	38.811722
481.677191	38.820747
482.109146	38.837375
482.541084	38.862571
482.973008	38.884232
483.404915	38.869267
483.836807	38.828347
484.268683	38.770169
484.700544	38.668274
485.132388	38.536030
485.564217	38.392489
485.996031	38.232131
486.427828	38.047448
486.859610	37.847221
487.291376	37.634342
487.723126	37.422684
488.154860	37.226017
488.586579	37.042450
489.018281	36.875572
489.449968	36.757222
489.881639	36.684736
490.313293	36.677531
490.744932	36.718178
491.176555	36.801163
491.608162	36.907660
492.039753	37.018003
492.471328	37.155654
492.902886	37.256718
493.334429	37.360244
493.765956	37.425358
494.197466	37.502777
494.628960	37.584762
495.060439	37.686843
495.491901	37.843472
495.923347	38.075553
496.354776	38.356703
496.786190	38.716077
497.217587	39.151577
497.648968	39.612462
498.080332	40.133875
498.511681	40.664718
498.943013	41.213093
499.374328	41.765763
499.805628	42.283919
500.236911	42.788748
500.668177	43.286946
501.099427	43.757608
501.530661	44.221169
501.961878	44.655486
502.393079	45.071339
502.824264	45.479802
503.255431	45.850687
503.686583	46.242131
504.117717	46.644870
504.548835	47.065269
504.979937	47.542100
505.411022	48.066895
505.842090	48.643538
506.273142	49.300400
506.704177	49.989645
507.135195	50.717328
507.566197	51.450222
507.997182	52.180424
508.428150	52.855089
508.859102	53.477090
509.290036	54.017183
509.720954	54.504991
510.151855	54.925555
510.582739	55.304202
511.013607	55.676456
511.444457	56.038088
511.875291	56.446635
512.306107	56.888376
512.736907	57.389129
513.167690	57.965242
513.598456	58.581737
514.029205	59.212650
514.459936	59.858731
514.890651	60.486720
515.321349	61.066993
515.752030	61.622016
516.182693	62.119910
516.613340	62.557005
517.043969	62.894262
517.474582	63.156521
517.905177	63.341026
518.335755	63.437622
518.766315	63.491887
519.196859	63.473051
519.627385	63.406592
520.057894	63.295976
520.488386	63.190436
520.918860	63.077302
521.349318	62.967169
521.779757	62.907655
522.210180	62.915379
522.640585	62.986270
523.070973	63.136047
523.501343	63.349865
523.931696	63.614971
524.362031	63.902891
524.792349	64.196543
525.222650	64.465913
525.652933	64.678227
526.083198	64.835943
526.513446	64.933922
526.943677	64.949760
527.373890	64.907204
527.804085	64.835666
528.234262	64.757134
528.664422	64.704738
529.094565	64.683068
529.524689	64.685828
529.954796	64.776147
530.384885	64.940347
530.814957	65.190862
531.245011	65.521168
531.675047	65.895715
532.105065	66.308122
532.535065	66.754332
532.965048	67.188993
533.395013	67.626605
533.824959	68.009345
534.254888	68.361554
534.684799	68.649130
535.114693	68.890064
535.544568	69.055730
535.974425	69.149912
536.404264	69.182218
536.834086	69.165748
537.263889	69.092501
537.693674	68.992283
538.123441	68.873232
538.553190	68.748917
538.982921	68.644477
539.412634	68.549303
539.842329	68.513032
540.272006	68.547553
540.701664	68.638577
541.131304	68.803658
541.560926	69.010499
541.990530	69.257224
542.420116	69.540257
542.849683	69.849639
543.279232	70.157081
543.708763	70.434386
544.138275	70.679557
544.567769	70.860721
544.997245	70.997637
545.426702	71.072409
545.856141	71.089084
546.285562	71.073481
546.714964	71.016932
547.144347	70.958069
547.573713	70.900615
548.003059	70.868897
548.432387	70.875202
548.861697	70.916790
549.290988	70.999442
549.720260	71.136136
550.149514	71.321052
550.578750	71.563076
551.007966	71.848366
551.437164	72.161568
551.866344	72.500015
552.295504	72.847507
552.724646	73.182573
553.153769	73.479726
553.582874	73.721171
554.011960	73.899014
554.441027	73.983673
554.870075	73.988047
555.299104	73.912766
555.728115	73.743927
556.157106	73.497820
556.586079	73.188591
557.015033	72.841706
557.443968	72.451941
557.872884	72.074327
558.301781	71.715159
558.730659	71.366867
559.159518	71.049788
559.588358	70.762539
560.017180	70.514342
560.445982	70.327398
560.874765	70.166028
561.303528	70.043673
561.732273	69.937193
562.160999	69.854825
562.589705	69.797497
563.018393	69.721385
563.447061	69.663765
563.875710	69.573013
564.304340	69.468384
564.732950	69.364111
565.161542	69.219443
565.590114	69.061042
566.018666	68.893048
566.447200	68.695233
566.875714	68.499900
567.304208	68.301401
567.732684	68.098610
568.161140	67.918384
568.589576	67.757861
569.017993	67.629143
569.446391	67.536098
569.874769	67.492090
570.303128	67.493552
570.731467	67.556379
571.159787	67.662872
571.588087	67.818612
572.016368	68.035910
572.444629	68.290806
572.872870	68.594427
573.301092	68.918750
573.729294	69.231161
574.157476	69.536670
574.585639	69.809175
575.013782	70.041559
575.441906	70.211955
575.870009	70.311016
576.298093	70.352859
576.726157	70.303690
577.154202	70.214218
577.582226	70.075797
578.010231	69.892539
578.438216	69.686533
578.866181	69.467429
579.294126	69.232239
579.722051	69.007571
580.149957	68.787355
580.577842	68.574779
581.005707	68.389691
581.433553	68.197803
581.861378	68.009642
582.289184	67.821636
582.716969	67.631667
583.144734	67.421364
583.572479	67.202767
584.000205	66.949052
584.427910	66.676604
584.855594	66.366132
585.283259	66.038436
585.710904	65.693576
586.138528	65.321647
586.566132	64.952665
586.993716	64.573302
587.421280	64.181110
587.848823	63.789450
588.276346	63.391525
588.703849	62.989943
589.131332	62.594723
589.558794	62.201379
589.986236	61.816031
590.413657	61.439214
590.841058	61.053808
591.268438	60.682475
591.695799	60.334935
592.123138	60.012505
592.550458	59.721845
592.977756	59.485588
593.405034	59.285212
593.832292	59.159039
594.259529	59.083692
594.686746	59.066051
595.113942	59.121400
595.541117	59.230500
595.968272	59.383897
596.395406	59.568981
596.822519	59.774124
597.249612	59.997318
597.676684	60.223905
598.103735	60.443712
598.530766	60.638085
598.957775	60.809652
599.384764	60.941704
599.811733	61.042601
600.238680	61.123226
600.665606	61.173997
601.092512	61.207944
601.519397	61.216784
601.946261	61.232854
602.373104	61.252069
602.799926	61.274660
603.226727	61.292229
603.653507	61.310364
604.080266	61.341469
604.507004	61.368488
604.933721	61.380149
605.360417	61.369696
605.787092	61.340632
606.213746	61.280755
606.640379	61.175664
607.066991	61.032894
607.493581	60.863301
607.920150	60.665310
608.346699	60.423832
608.773226	60.170180
609.199731	59.907152
609.626216	59.649995
610.052679	59.388204
610.479121	59.156975
610.905542	58.935465
611.331941	58.735265
611.758319	58.554245
612.184676	58.395087
612.611011	58.260707
613.037325	58.142446
613.463617	58.028173
613.889888	57.920216
614.316138	57.821861
614.742366	57.740487
615.168573	57.654259
615.594758	57.579711
616.020921	57.516249
616.447063	57.486869
616.873184	57.478659
617.299283	57.498270
617.725360	57.553173
618.151416	57.652796
618.577450	57.800630
619.003462	58.011728
619.429453	58.254920
619.855422	58.562012
620.281369	58.885832
620.707295	59.242524
621.133199	59.628167
621.559081	60.025036
621.984941	60.399087
622.410779	60.751318
622.836596	61.049787
623.262391	61.316133
623.688163	61.515236
624.113914	61.662624
624.539644	61.752304
624.965351	61.785805
625.391036	61.755905
625.816699	61.665381
626.242340	61.519376
626.667960	61.346847
627.093557	61.144599
627.519132	60.909536
627.944685	60.652478
628.370216	60.389444
628.795725	60.102995
629.221212	59.798438
629.646677	59.471509
630.072119	59.129344
630.497540	58.772987
630.922938	58.394440
631.348314	57.999060
631.773668	57.583316
632.198999	57.138415
632.624308	56.693843
633.049595	56.232970
633.474860	55.799841
633.900102	55.371380
634.325322	54.947323
634.750520	54.555908
635.175695	54.214508
635.600848	53.935956
636.025978	53.724187
636.451086	53.579204
636.876171	53.501229
637.301234	53.497973
637.726275	53.580229
638.151293	53.741735
638.576288	53.979631
639.001261	54.307000
639.426211	54.698596
639.851139	55.142249
640.276044	55.654043
640.700927	56.216979
641.125787	56.802616
641.550624	57.411170
641.975438	58.029417
642.400230	58.652689
642.824999	59.265377
643.249745	59.868935
643.674469	60.455425
644.099169	61.031412
644.523847	61.577531
644.948502	62.112483
645.373135	62.629261
645.797744	63.104302
646.222330	63.570933
646.646894	63.988500
647.071435	64.374567
647.495953	64.727351
647.920447	65.027741
648.344919	65.282466
648.769368	65.468487
649.193794	65.590943
649.618197	65.647899
650.042576	65.631549
650.466933	65.557975
650.891267	65.399415
651.315577	65.168415
651.739864	64.883507
652.164129	64.533749
652.588370	64.144015
653.012587	63.696976
653.436782	63.204841
653.860953	62.685469
654.285102	62.165305
654.709226	61.623618
655.133328	61.092814
655.557406	60.575845
655.981461	60.076079
656.405493	59.594313
656.829501	59.123472
657.253486	58.657475
657.677448	58.207317
658.101386	57.768002
658.525301	57.337216
658.949192	56.919028
659.373060	56.504881
659.796904	56.104557
660.220725	55.696599
660.644522	55.306026
661.068296	54.937131
661.492046	54.577641
661.915772	54.246382
662.339475	53.959734
662.763154	53.710585
663.186810	53.520202
663.610442	53.370372
664.034050	53.292383
664.457635	53.273966
664.881196	53.320576
665.304733	53.423289
665.728247	53.592238
666.151736	53.833273
666.575202	54.129296
666.998644	54.479872
667.422062	54.863225
667.845457	55.292408
668.268827	55.747453
668.692174	56.224464
669.115496	56.711807
669.538795	57.196947
669.962070	57.684807
670.385321	58.161809
670.808547	58.622502
671.231750	59.044842
671.654929	59.431594
672.078084	59.797404
672.501214	60.115533
672.924321	60.400766
673.347404	60.662193
673.770462	60.892481
674.193496	61.093052
674.616506	61.273826
675.039492	61.435149
675.462454	61.560365
675.885391	61.679342
676.308305	61.788056
676.731194	61.901738
677.154058	61.999802
677.576899	62.096866
677.999715	62.196053
678.422507	62.303655
678.845274	62.408836
679.268017	62.521563
679.690736	62.625154
680.113430	62.727680
680.536100	62.834022
680.958746	62.933996
681.381367	63.028209
681.803963	63.122645
682.226535	63.215417
682.649083	63.308542
683.071605	63.413815
683.494104	63.510656
683.916578	63.620718
684.339027	63.750043
684.761451	63.897234
685.183851	64.049661
685.606227	64.214330
686.028577	64.375638
686.450903	64.545986
686.873204	64.706082
687.295481	64.856135
687.717733	64.995461
688.139959	65.110381
688.562162	65.205488
688.984339	65.261974
689.406492	65.286215
689.828619	65.258558
690.250722	65.188942
690.672800	65.066856
691.094853	64.888485
691.516881	64.668836
691.938884	64.393640
692.360863	64.067492
692.782816	63.727415
693.204744	63.345188
693.626647	62.950981
694.048526	62.541948
694.470379	62.133628
694.892207	61.733718
695.314010	61.358190
695.735788	61.007034
696.157540	60.678098
696.579268	60.404559
697.000970	60.172906
697.422648	59.978983
697.844300	59.825205
698.265926	59.726401
698.687528	59.691418
699.109104	59.720775
699.530655	59.779410
699.952181	59.896893
700.373681	60.052526
700.795156	60.246778
701.216606	60.473994
701.638030	60.730122
702.059429	61.016407
702.480803	61.304011
702.902151	61.601622
703.323473	61.886957
703.744770	62.180678
704.166042	62.457634
704.587288	62.704629
705.008509	62.937331
705.429704	63.147545
705.850873	63.328520
706.272017	63.492311
706.693135	63.619839
707.114228	63.721084
707.535295	63.794729
707.956336	63.840307
708.377352	63.849168
708.798342	63.829387
709.219306	63.798862
709.640245	63.743605
710.061157	63.665413
710.482044	63.575607
710.902905	63.472508
711.323741	63.343841
711.744550	63.193751
712.165334	63.014823
712.586092	62.838844
713.006823	62.640455
713.427529	62.447464
713.848209	62.238368
714.268863	62.036342
714.689492	61.833270
715.110094	61.630262
715.530670	61.432424
715.951220	61.242738
716.371744	61.079614
716.792242	60.929254
717.212714	60.792064
717.633159	60.686427
718.053579	60.597044
718.473973	60.517226
718.894340	60.449639
719.314681	60.389416
719.734996	60.335876
720.155285	60.307010
720.575547	60.275173
720.995784	60.237697
721.415994	60.197114
721.836177	60.152942
722.256335	60.073596
722.676466	59.976911
723.096570	59.860496
723.516649	59.710859
723.936701	59.544663
724.356726	59.349442
724.776725	59.125491
725.196698	58.884385
725.616644	58.621366
726.036564	58.334178
726.456457	58.031782
726.876324	57.734998
727.296164	57.432977
727.715977	57.132731
728.135764	56.837217
728.555525	56.558406
728.975258	56.299379
729.394966	56.069900
729.814646	55.867462
730.234300	55.703560
730.653927	55.570983
731.073527	55.475613
731.493101	55.439778
731.912648	55.447159
732.332168	55.506391
732.751661	55.620521
733.171128	55.772858
733.590568	55.979400
734.009980	56.232606
734.429366	56.529287
734.848726	56.866630
735.268058	57.239985
735.687363	57.652029
736.106641	58.083672
736.525893	58.544006
736.945117	59.006769
737.364314	59.476673
737.783485	59.955414
738.202628	60.423710
738.621744	60.877806
739.040834	61.331115
739.459896	61.757379
739.878931	62.136557
740.297939	62.467437
740.716919	62.780327
741.135873	63.041548
741.554799	63.261511
741.973698	63.432553
742.392570	63.544400
742.811415	63.595765
743.230232	63.592446
743.649022	63.555609
744.067785	63.477488
744.486521	63.340350
744.905229	63.155532
745.323909	62.943203
745.742563	62.705666
746.161189	62.434549
746.579787	62.148077
746.998358	61.845058
747.416902	61.519264
747.835418	61.196187
748.253907	60.884405
748.672368	60.570718
749.090802	60.276031
749.509208	59.993006
749.927586	59.747332
750.345937	59.528852
750.764261	59.347953
751.182556	59.205598
751.600824	59.103980
752.019065	59.037489
752.437277	59.007826
752.855462	59.033058
753.273620	59.105954
753.691749	59.205224
754.109851	59.342096
754.527925	59.510969
754.945971	59.704557
755.363989	59.928751
755.781980	60.162192
756.199943	60.418869
756.617877	60.656754
757.035784	60.876344
757.453663	61.092134
757.871514	61.299844
758.289337	61.470441
758.707132	61.597421
759.124899	61.686141
759.542639	61.706745
759.960350	61.683108
760.378033	61.623026
760.795688	61.493005
761.213314	61.316655
761.630913	61.084185
762.048484	60.804153
762.466026	60.473226
762.883541	60.091537
763.301027	59.682693
763.718485	59.223592
764.135914	58.743609
764.553316	58.231433
764.970689	57.706316
765.388034	57.168130
765.805351	56.626874
766.222639	56.082230
766.639899	55.535821
767.057131	55.014501
767.474334	54.503722
767.891509	54.016747
768.308655	53.554989
768.725773	53.138475
769.142863	52.744029
769.559924	52.396461
769.976957	52.095108
770.393961	51.833766
770.810936	51.610646
771.227883	51.436866
771.644802	51.313228
772.061692	51.232495
772.478553	51.215191
772.895386	51.231022
773.312190	51.296997
773.728965	51.412441
774.145712	51.564520
774.562430	51.744514
774.979119	51.966847
775.395780	52.217052
775.812411	52.494363
776.229014	52.785993
776.645589	53.082445
777.062134	53.384257
777.478651	53.692287
777.895138	53.998636
778.311597	54.297439
778.728027	54.578429
779.144428	54.851528
779.560800	55.097978
779.977143	55.319026
780.393458	55.515917
780.809743	55.693948
781.225999	55.829889
781.642226	55.935773
782.058425	56.008946
782.474594	56.041680
782.890734	56.047652
783.306845	56.021262
783.722926	55.952514
784.138979	55.838165
784.555003	55.670019
784.970997	55.476331
785.386962	55.239882
785.802898	54.975373
786.218805	54.672728
786.634682	54.345584
787.050531	53.975589
787.466349	53.609980
787.882139	53.215893
788.297899	52.831099
788.713630	52.448593
789.129332	52.070520
789.545004	51.717021
789.960647	51.390563
790.376260	51.100248
790.791844	50.833848
791.207399	50.598419
791.622924	50.406226
792.038419	50.238578
792.453885	50.129793
792.869321	50.049515
793.284728	50.014944
793.700106	50.009556
794.115453	50.041963
794.530771	50.098102
794.946060	50.183014
795.361319	50.288651
795.776548	50.408715
796.191747	50.534809
796.606917	50.675452
797.022057	50.817920
797.437167	50.982711
797.852248	51.138199
798.267298	51.291977
798.682319	51.436758
799.097310	51.577038
799.512271	51.699871
799.927203	51.816920
800.342104	51.912400
800.756976	51.985778
801.171818	52.029864
801.586629	52.039560
802.001411	52.027853
802.416163	51.981869
802.830885	51.914105
803.245577	51.822043
803.660238	51.697396
804.074870	51.557657
804.489472	51.392450
804.904043	51.212415
805.318585	51.004491
805.733096	50.784614
806.147577	50.546006
806.562028	50.296859
806.976449	50.031404
807.390840	49.763481
807.805200	49.498649
808.219530	49.231123
808.633830	48.948626
809.048100	48.671438
809.462339	48.408183
809.876548	48.156854
810.290727	47.904402
810.704875	47.657328
811.118993	47.427433
811.533080	47.204916
811.947137	46.987795
812.361164	46.784726
812.775160	46.584885
813.189126	46.407965
813.603061	46.235421
814.016966	46.075666
814.430840	45.932710
814.844684	45.813082
815.258497	45.727190
815.672280	45.647379
816.086032	45.588003
816.499753	45.548273
816.913444	45.542152
817.327104	45.552896
817.740733	45.592735
818.154331	45.654574
818.567899	45.740673
818.981436	45.849745
819.394943	45.985727
819.808418	46.171411
820.221863	46.366953
820.635277	46.591795
821.048660	46.838180
821.462013	47.129213
821.875334	47.440962
822.288625	47.772692
822.701884	48.124543
823.115113	48.503608
823.528311	48.910960
823.941478	49.321830
824.354614	49.742459
824.767718	50.173853
825.180792	50.605620
825.593835	51.057727
826.006847	51.463902
826.419827	51.873679
826.832777	52.261791
827.245695	52.634045
827.658582	52.955853
828.071438	53.234834
828.484263	53.473774
828.897057	53.652868
829.309819	53.802136
829.722551	53.882072
830.135251	53.908124
830.547919	53.867602
830.960557	53.782039
831.373163	53.625543
831.785738	53.416571
832.198281	53.171909
832.610793	52.852082
833.023274	52.525988
833.435723	52.144173
833.848141	51.758217
834.260528	51.327481
834.672883	50.890587
835.085206	50.445203
835.497498	49.997156
835.909758	49.557193
836.321987	49.110735
836.734185	48.687146
837.146350	48.294450
837.558485	47.934715
837.970587	47.597721
838.382658	47.286682
838.794697	47.038841
839.206705	46.817568
839.618681	46.638012
840.030625	46.492829
840.442538	46.395651
840.854418	46.350230
841.266267	46.344407
841.678084	46.402834
842.089870	46.477011
842.501623	46.607516
842.913345	46.777923
843.325035	46.984408
843.736693	47.214620
844.148319	47.492093
844.559913	47.799548
844.971475	48.112491
845.383005	48.456454
845.794504	48.786046
846.205970	49.152149
846.617404	49.500695
847.028806	49.859164
847.440176	50.202217
847.851514	50.524581
848.262820	50.833468
848.674094	51.108621
849.085336	51.361290
849.496546	51.575569
849.907723	51.742098
850.318868	51.851419
850.729981	51.914175
851.141062	51.957497
851.552110	51.917876
851.963127	51.838113
852.374111	51.736610
852.785062	51.579493
853.195982	51.376534
853.606869	51.121155
854.017723	50.848982
854.428546	50.513364
854.839336	50.186095
855.250093	49.819335
855.660818	49.426296
856.071511	49.019812
856.482171	48.592090
856.892799	48.149198
857.303394	47.694685
857.713956	47.235431
858.124486	46.787103
858.534984	46.338875
858.945449	45.867276
859.355881	45.398922
859.766280	44.932256
860.176647	44.489986
860.586982	44.063804
860.997283	43.649426
861.407552	43.242966
861.817789	42.875372
862.227992	42.525350
862.638163	42.224101
863.048301	41.936095
863.458406	41.671314
863.868478	41.409720
864.278518	41.203855
864.688524	41.023798
865.098498	40.852207
865.508439	40.709615
865.918347	40.608445
866.328222	40.521319
866.738064	40.444300
867.147873	40.403579
867.557649	40.350888
867.967392	40.312255
868.377102	40.285927
868.786779	40.282200
869.196423	40.308017
869.606034	40.346957
870.015612	40.387239
870.425156	40.432242
870.834668	40.483324
871.244146	40.552515
871.653591	40.659714
872.063003	40.756217
872.472382	40.871689
872.881728	40.990231
873.291040	41.119231
873.700319	41.239444
874.109564	41.371784
874.518777	41.503800
874.927956	41.626675
875.337102	41.757711
875.746214	41.892112
876.155293	42.022798
876.564338	42.159445
876.973350	42.287689
877.382329	42.406188
877.791274	42.516156
878.200186	42.599672
878.609064	42.670147
879.017909	42.747615
879.426720	42.791971
879.835497	42.827752
880.244241	42.839892
880.652952	42.858728
881.061629	42.844854
881.470272	42.808647
881.878881	42.746656
882.287457	42.666082
882.695999	42.566643
883.104507	42.453103
883.512982	42.332463
883.921423	42.194927
884.329830	42.035447
884.738203	41.869914
885.146543	41.681281
885.554849	41.490471
885.963120	41.262200
886.371358	41.063517
886.779563	40.830995
887.187733	40.592278
887.595869	40.360026
888.003971	40.098847
888.412040	39.869970
888.820074	39.626335
889.228074	39.365148
889.636041	39.119695
890.043973	38.884323
890.451871	38.665608
890.859736	38.459500
891.267566	38.265141
891.675362	38.078755
892.083124	37.896206
892.490851	37.730107
892.898545	37.605216
893.306204	37.467891
893.713829	37.366737
894.121420	37.293082
894.528977	37.234091
894.936499	37.199652
895.343987	37.195161
895.751441	37.212811
896.158860	37.253413
896.566246	37.317655
896.973596	37.362903
897.380913	37.467732
897.788195	37.591056
898.195442	37.713082
898.602655	37.865786
899.009834	38.022085
899.416978	38.200703
899.824088	38.389592
900.231163	38.595625
900.638204	38.812263
901.045210	39.007459
901.452181	39.216921
901.859118	39.445169
902.266021	39.663819
902.672888	39.884883
903.079721	40.078954
903.486520	40.279563
903.893283	40.458723
904.300012	40.603045
904.706707	40.768265
905.113366	40.873771
905.519991	40.963007
905.926581	41.032457
906.333136	41.075396
906.739656	41.080498
907.146142	41.039708
907.552592	40.989119
907.959008	40.903421
908.365389	40.781013
908.771735	40.611104
909.178046	40.411410
909.584322	40.209896
909.990563	39.944040
910.396769	39.691168
910.802940	39.395721
911.209076	39.079718
911.615177	38.730758
912.021243	38.392832
912.427274	38.036316
912.833270	37.660135
913.239231	37.276744
913.645156	36.883199
914.051046	36.523053
914.456902	36.145471
914.862721	35.752515
915.268506	35.369358
915.674256	35.019986
916.079970	34.656861
916.485649	34.297978
916.891292	33.967317
917.296901	33.641318
917.702474	33.343453
918.108011	33.050144
918.513514	32.782653
918.918980	32.524256
919.324412	32.307215
919.729808	32.118398
920.135169	31.947436
920.540494	31.789178
920.945783	31.644171
921.351037	31.540654
921.756256	31.446085
922.161439	31.373794
922.566586	31.339621
922.971698	31.303714
923.376775	31.292389
923.781815	31.315766
924.186820	31.327041
924.591790	31.361729
924.996723	31.395109
925.401621	31.450526
925.806484	31.493888
926.211310	31.548125
926.616101	31.604313
927.020856	31.646510
927.425575	31.683987
927.830259	31.724231
928.234906	31.727156
928.639518	31.753216
929.044094	31.772242
929.448634	31.781460
929.853138	31.778077
930.257606	31.776508
930.662038	31.760513
931.066434	31.723712
931.470795	31.682131
931.875119	31.614061
932.279407	31.543111
932.683659	31.459066
933.087875	31.369641
933.492055	31.291886
933.896199	31.191985
934.300307	31.081325
934.704379	30.989818
935.108414	30.860073
935.512414	30.732350
935.916377	30.584307
936.320304	30.439012
936.724195	30.309768
937.128049	30.163636
937.531867	30.009649
937.935649	29.850313
938.339395	29.721072
938.743104	29.589238
939.146777	29.455979
939.550414	29.349360
939.954014	29.288529
940.357578	29.212153
940.761105	29.138785
941.164596	29.070093
941.568050	29.024037
941.971468	28.977295
942.374850	28.956559
942.778195	28.939146
943.181503	28.937832
943.584775	28.963400
943.988010	28.973677
944.391209	29.010640
944.794371	29.049868
945.197496	29.090503
945.600585	29.133110
946.003637	29.177490
946.406653	29.206366
946.809632	29.255385
947.212574	29.269993
947.615479	29.299595
948.018347	29.310237
948.421179	29.359462
948.823974	29.392636
949.226732	29.428011
949.629453	29.441696
950.032138	29.476375
950.434785	29.503913
950.837396	29.517763
951.239969	29.502149
951.642506	29.465542
952.045006	29.416511
952.447469	29.363650
952.849895	29.305366
953.252283	29.279217
953.654635	29.216614
954.056950	29.163038
954.459227	29.123883
954.861468	29.060615
955.263671	29.004224
955.665838	28.954241
956.067967	28.871315
956.470059	28.804693
956.872114	28.698970
957.274131	28.603586
957.676112	28.499639
958.078055	28.413810
958.479961	28.319697
958.881829	28.232312
959.283661	28.135475
959.685455	28.060840
960.087211	27.981369
960.488931	27.922535
960.890613	27.830223
961.292257	27.704692
961.693864	27.632084
962.095434	27.538951
962.496966	27.434702
962.898461	27.317159
963.299918	27.241397
963.701338	27.156383
964.102720	27.072115
964.504065	27.006741
964.905372	26.886703
965.306641	26.783926
965.707873	26.656356
966.109068	26.550440
966.510224	26.445030
966.911343	26.323241
967.312425	26.188619
967.713468	26.070309
968.114474	25.893038
968.515442	25.728969
968.916373	25.557529
969.317265	25.383746
969.718120	25.207609
970.118937	25.047494
970.519716	24.856121
970.920458	24.682579
971.321161	24.508973
971.721827	24.327791
972.122454	24.121083
972.523044	23.946092
972.923596	23.783832
973.324110	23.621976
973.724585	23.495151
974.125023	23.299435
974.525423	23.148466
974.925785	23.026116
975.326108	22.917011
975.726394	22.708344
976.126642	22.538694
976.526851	22.401481
976.927022	22.242320
977.327155	22.178251
977.727250	22.070276
978.127307	21.953951
978.527325	21.851345
978.927306	21.735037
979.327248	21.628172
979.727151	21.530097
980.127017	21.445367
980.526844	21.398280
980.926633	21.367980
981.326383	21.365207
981.726095	21.393573
982.125769	21.431263
982.525404	21.401320
982.925001	21.390556
983.324560	21.448547
983.724079	21.454274
984.123561	21.507063
984.523004	21.583197
984.922408	21.624621
985.321774	21.690352
985.721102	21.727702
986.120390	21.731708
986.519641	21.798362
986.918852	21.843567
987.318025	21.888571
987.717159	21.918361
988.116255	22.072138
988.515312	22.194629
988.914330	22.310508
989.313310	22.448401
989.712250	22.488710
990.111152	22.644105
990.510015	22.771379
990.908840	22.926091
991.307625	23.002459
991.706372	23.058956
992.105080	23.189861
992.503749	23.276022
992.902379	23.419051
993.300970	23.557033
993.699522	23.688326
994.098035	23.782562
994.496510	23.885878
994.894945	24.044620
995.293341	24.272838
995.691698	24.308380
996.090016	24.577563
996.488296	24.752329
996.886535	24.914323
997.284736	25.096568
997.682898	25.130807
998.081021	25.294743
998.479104	25.551879
998.877148	25.805282
999.275153	26.002718
999.673119	26.151744
1000.071046	26.383573
1000.468933	26.528506
1000.866781	26.761481
1001.264590	26.967259
1001.662359	27.158319
1002.060089	27.416592
1002.457780	27.478560
1002.855431	27.716798
1003.253043	27.965944
1003.650615	28.219980
1004.048148	28.570962
1004.445642	28.866840
1004.843096	29.183039
1005.240511	29.385842
1005.637886	29.604909
1006.035221	30.041152
1006.432517	30.509369
1006.829774	30.939205
1007.226991	31.347975
1007.624168	31.730455
1008.021306	32.227250
1008.418404	32.497958
1008.815462	32.748667
1009.212481	33.206487
1009.609460	33.589171
1010.006399	34.161996
1010.403298	34.626557
1010.800158	35.291738
1011.196978	35.666997
1011.593758	36.187208
1011.990498	36.798589
1012.387199	37.216957
1012.783860	37.917543
1013.180480	38.516919
1013.577061	38.711474
1013.973602	39.289360
1014.370103	39.872545
1014.766564	40.457698
1015.162985	40.979890
1015.559366	41.321104
1015.955708	41.826023
1016.352009	42.273352
1016.748270	42.776667
1017.144491	43.169557
1017.540671	43.748083
1017.936812	44.405898
1018.332913	44.538497
1018.728973	44.731635
1019.124994	44.844409
1019.520974	45.252268
1019.916914	45.540479
1020.312814	45.820280
