Time1=100ms:Average1=5:Objective=10X:Aperture=1: (11/28/2018 10:48:01 AM)
11/28/2018 10:48:01 AM
Reflectance
10X
Ap#: 1
Avg1: 5.000000
Avg2: 0.000000
Int.Time1:100.000000

350.166136	64.586405
350.601937	64.432687
351.037728	64.581361
351.473509	64.521381
351.909281	64.572908
352.345042	65.041005
352.780794	65.267842
353.216536	65.183108
353.652267	65.205599
354.087989	65.058762
354.523701	65.246420
354.959403	64.963568
355.395095	65.126532
355.830777	65.387669
356.266449	65.986214
356.702110	66.081510
357.137762	66.637176
357.573404	66.494754
358.009035	66.340160
358.444656	66.276890
358.880268	66.160579
359.315869	66.005162
359.751459	66.107592
360.187040	66.110318
360.622610	65.931416
361.058170	65.765685
361.493720	66.084788
361.929260	66.160579
362.364789	66.517777
362.800308	66.408545
363.235816	66.039411
363.671314	66.302416
364.106802	66.468289
364.542279	66.577872
364.977746	66.560142
365.413203	66.637137
365.848649	66.702090
366.284084	66.454240
366.719509	66.412822
367.154924	66.714032
367.590328	66.862066
368.025721	66.926622
368.461104	67.542147
368.896477	67.499118
369.331838	67.045154
369.767189	66.543924
370.202530	66.433015
370.637859	66.438236
371.073178	66.710503
371.508486	66.829566
371.943784	66.785435
372.379071	66.794092
372.814347	66.776888
373.249612	67.226964
373.684866	67.407214
374.120110	67.469775
374.555343	67.873303
374.990565	67.453242
375.425776	67.619297
375.860976	67.532921
376.296165	67.448372
376.731343	67.589106
377.166511	67.422121
377.601667	67.501971
378.036812	67.465783
378.471946	67.249782
378.907070	67.210398
379.342182	67.092568
379.777283	67.286957
380.212373	67.206443
380.647452	66.663789
381.082520	66.689584
381.517576	66.744086
381.952622	66.632205
382.387656	66.588886
382.822679	66.822309
383.257691	66.689757
383.692692	66.779396
384.127681	66.427522
384.562659	66.511105
384.997626	66.312791
385.432581	66.306695
385.867525	66.477126
386.302458	66.522939
386.737379	66.428878
387.172289	66.446805
387.607188	66.435245
388.042075	66.483846
388.476951	66.760636
388.911815	66.465898
389.346668	66.282616
389.781509	66.582172
390.216338	66.590602
390.651157	66.340393
391.085963	66.223829
391.520758	66.194810
391.955541	66.268707
392.390313	66.392479
392.825073	66.484579
393.259821	66.714154
393.694558	66.580116
394.129283	66.688935
394.563996	66.597234
394.998698	66.462100
395.433388	66.401123
395.868066	66.453898
396.302732	66.317863
396.737386	66.316392
397.172029	65.975813
397.606659	65.667839
398.041278	65.085465
398.475885	64.816213
398.910480	64.373377
399.345063	63.665056
399.779634	63.295175
400.214194	61.973158
400.648741	60.726426
401.083276	59.618299
401.517799	57.776768
401.952310	56.060196
402.386809	54.116688
402.821296	52.081120
403.255771	49.829790
403.690234	47.845464
404.124684	45.696623
404.559123	43.458226
404.993549	40.967742
405.427963	38.660112
405.862365	36.508686
406.296754	34.451932
406.731131	32.295117
407.165496	30.581673
407.599849	29.003816
408.034190	27.351613
408.468518	25.887323
408.902833	24.628398
409.337137	23.352084
409.771428	22.106792
410.205706	21.000641
410.639973	20.067443
411.074226	19.286859
411.508467	18.576989
411.942696	17.928644
412.376912	17.377556
412.811116	16.923447
413.245307	16.406230
413.679486	16.041351
414.113652	15.703798
414.547805	15.407660
414.981946	15.228981
415.416074	15.040504
415.850190	14.892453
416.284293	14.733501
416.718383	14.584482
417.152460	14.472045
417.586525	14.387256
418.020577	14.343626
418.454616	14.332203
418.888643	14.313863
419.322656	14.281554
419.756657	14.299642
420.190645	14.301358
420.624620	14.267426
421.058582	14.268421
421.492531	14.255268
421.926468	14.293239
422.360391	14.305123
422.794301	14.426728
423.228199	14.556955
423.662083	14.736906
424.095955	14.922838
424.529813	15.104284
424.963658	15.289642
425.397491	15.458735
425.831310	15.635826
426.265116	15.800373
426.698909	16.000640
427.132689	16.195715
427.566455	16.398460
428.000209	16.580376
428.433949	16.775565
428.867676	16.973629
429.301389	17.206447
429.735090	17.474081
430.168777	17.707640
430.602451	17.919483
431.036111	18.081471
431.469759	18.258243
431.903392	18.419554
432.337013	18.569762
432.770620	18.751356
433.204213	18.951566
433.637794	19.186584
434.071360	19.450394
434.504914	19.726001
434.938453	20.062790
435.371979	20.380661
435.805492	20.727243
436.238991	21.035672
436.672477	21.373454
437.105949	21.672065
437.539407	21.933955
437.972852	22.177154
438.406283	22.420495
438.839700	22.671323
439.273104	22.938455
439.706494	23.249753
440.139871	23.544495
440.573233	23.851285
441.006582	24.167902
441.439917	24.495360
441.873238	24.760718
442.306546	25.000963
442.739839	25.215108
443.173119	25.403784
443.606385	25.568649
444.039636	25.732404
444.472874	25.925173
444.906099	26.108138
445.339309	26.326475
445.772505	26.593110
446.205687	26.876257
446.638855	27.171443
447.072009	27.476095
447.505149	27.799505
447.938275	28.115515
448.371387	28.432931
448.804485	28.737284
449.237569	29.024375
449.670638	29.255922
450.103694	29.452208
450.536735	29.651945
450.969762	29.855706
451.402774	30.084969
451.835773	30.327345
452.268757	30.599018
452.701727	30.877048
453.134683	31.140852
453.567624	31.400261
454.000551	31.646081
454.433464	31.877748
454.866362	32.067794
455.299246	32.257345
455.732116	32.434634
456.164971	32.591694
456.597811	32.718681
457.030638	32.875747
457.463449	33.036714
457.896246	33.216576
458.329029	33.400237
458.761797	33.587026
459.194551	33.757821
459.627290	33.944339
460.060014	34.134600
460.492724	34.338835
460.925419	34.551676
461.358099	34.757126
461.790765	34.948059
462.223416	35.134370
462.656052	35.290745
463.088674	35.457851
463.521281	35.631891
463.953873	35.784123
464.386450	35.926456
464.819012	36.070258
465.251560	36.213385
465.684093	36.372994
466.116611	36.519725
466.549114	36.681958
466.981602	36.846599
467.414075	37.010753
467.846533	37.171217
468.278977	37.332982
468.711405	37.460677
469.143818	37.577468
469.576216	37.670826
470.008600	37.775362
470.440968	37.855872
470.873321	37.908218
471.305659	37.959909
471.737982	38.012754
472.170289	38.037430
472.602582	38.047535
473.034859	38.056212
473.467122	38.068253
473.899369	38.074052
474.331600	38.070576
474.763817	38.088367
475.196018	38.118472
475.628204	38.146334
476.060375	38.215445
476.492530	38.287120
476.924670	38.329057
477.356795	38.347010
477.788904	38.333526
478.220998	38.299930
478.653076	38.238615
479.085139	38.128253
479.517186	38.030570
479.949219	37.927061
480.381235	37.830500
480.813236	37.756949
481.245221	37.703290
481.677191	37.674004
482.109146	37.680069
482.541084	37.681895
482.973008	37.675284
483.404915	37.646899
483.836807	37.604427
484.268683	37.561027
484.700544	37.474704
485.132388	37.372865
485.564217	37.263147
485.996031	37.153899
486.427828	37.009380
486.859610	36.858953
487.291376	36.725221
487.723126	36.597568
488.154860	36.474483
488.586579	36.378436
489.018281	36.323033
489.449968	36.300607
489.881639	36.342145
490.313293	36.446586
490.744932	36.612909
491.176555	36.837720
491.608162	37.077470
492.039753	37.340649
492.471328	37.605221
492.902886	37.847898
493.334429	38.060017
493.765956	38.275429
494.197466	38.484239
494.628960	38.708180
495.060439	38.965694
495.491901	39.261099
495.923347	39.631858
496.354776	40.082943
496.786190	40.576270
497.217587	41.145445
497.648968	41.746560
498.080332	42.394456
498.511681	43.030189
498.943013	43.669468
499.374328	44.283453
499.805628	44.880542
500.236911	45.448550
500.668177	45.984154
501.099427	46.481717
501.530661	46.955807
501.961878	47.401648
502.393079	47.820691
502.824264	48.212404
503.255431	48.578079
503.686583	48.954174
504.117717	49.339863
504.548835	49.729146
504.979937	50.165565
505.411022	50.640359
505.842090	51.190928
506.273142	51.773666
506.704177	52.426795
507.135195	53.085210
507.566197	53.753762
507.997182	54.403113
508.428150	54.986740
508.859102	55.536116
509.290036	55.988876
509.720954	56.380006
510.151855	56.717021
510.582739	56.996052
511.013607	57.267144
511.444457	57.540554
511.875291	57.864169
512.306107	58.224947
512.736907	58.677973
513.167690	59.187657
513.598456	59.737053
514.029205	60.329020
514.459936	60.929641
514.890651	61.518793
515.321349	62.065089
515.752030	62.586622
516.182693	63.049675
516.613340	63.447244
517.043969	63.754888
517.474582	63.999431
517.905177	64.174672
518.335755	64.269426
518.766315	64.332937
519.196859	64.312517
519.627385	64.282850
520.057894	64.189595
520.488386	64.106106
520.918860	64.020902
521.349318	63.947516
521.779757	63.933817
522.210180	63.979283
522.640585	64.109174
523.070973	64.296578
523.501343	64.561084
523.931696	64.882212
524.362031	65.219406
524.792349	65.568838
525.222650	65.898755
525.652933	66.174022
526.083198	66.373996
526.513446	66.519592
526.943677	66.597304
527.373890	66.601966
527.804085	66.580699
528.234262	66.549106
528.664422	66.533849
529.094565	66.539205
529.524689	66.598288
529.954796	66.719951
530.384885	66.917800
530.814957	67.180291
531.245011	67.523017
531.675047	67.925645
532.105065	68.333901
532.535065	68.781550
532.965048	69.204029
533.395013	69.617533
533.824959	69.979799
534.254888	70.300372
534.684799	70.542477
535.114693	70.727071
535.544568	70.826700
535.974425	70.836074
536.404264	70.781956
536.834086	70.667002
537.263889	70.485512
537.693674	70.258806
538.123441	70.010973
538.553190	69.742630
538.982921	69.493621
539.412634	69.272472
539.842329	69.090740
540.272006	68.965982
540.701664	68.901617
541.131304	68.890999
541.560926	68.948076
541.990530	69.040665
542.420116	69.188318
542.849683	69.338709
543.279232	69.491740
543.708763	69.633291
544.138275	69.733481
544.567769	69.810347
544.997245	69.822594
545.426702	69.804135
545.856141	69.727057
546.285562	69.633351
546.714964	69.501933
547.144347	69.388261
547.573713	69.280461
548.003059	69.215380
548.432387	69.188432
548.861697	69.193575
549.290988	69.272187
549.720260	69.410886
550.149514	69.611522
550.578750	69.869894
551.007966	70.191906
551.437164	70.537382
551.866344	70.911748
552.295504	71.297940
552.724646	71.665409
553.153769	72.004624
553.582874	72.293216
554.011960	72.515154
554.441027	72.655775
554.870075	72.708259
555.299104	72.692652
555.728115	72.565069
556.157106	72.367293
556.586079	72.112053
557.015033	71.792161
557.443968	71.442622
557.872884	71.065485
558.301781	70.689000
558.730659	70.312043
559.159518	69.971800
559.588358	69.646873
560.017180	69.376784
560.445982	69.141737
560.874765	68.939830
561.303528	68.767092
561.732273	68.613116
562.160999	68.486796
562.589705	68.364547
563.018393	68.238599
563.447061	68.113399
563.875710	67.974061
564.304340	67.831996
564.732950	67.679450
565.161542	67.504049
565.590114	67.317155
566.018666	67.124907
566.447200	66.914215
566.875714	66.714685
567.304208	66.526249
567.732684	66.343833
568.161140	66.178916
568.589576	66.024100
569.017993	65.918126
569.446391	65.833864
569.874769	65.809441
570.303128	65.831603
570.731467	65.909728
571.159787	66.033491
571.588087	66.231256
572.016368	66.471049
572.444629	66.751689
572.872870	67.062679
573.301092	67.401116
573.729294	67.718836
574.157476	68.022667
574.585639	68.280177
575.013782	68.494370
575.441906	68.638562
575.870009	68.698708
576.298093	68.683870
576.726157	68.588441
577.154202	68.415138
577.582226	68.173427
578.010231	67.877017
578.438216	67.554481
578.866181	67.191005
579.294126	66.800007
579.722051	66.413191
580.149957	66.019683
580.577842	65.624728
581.005707	65.248286
581.433553	64.875693
581.861378	64.503944
582.289184	64.118000
582.716969	63.747127
583.144734	63.352279
583.572479	62.967681
584.000205	62.567158
584.427910	62.149679
584.855594	61.709168
585.283259	61.279708
585.710904	60.840620
586.138528	60.402124
586.566132	59.958654
586.993716	59.525503
587.421280	59.107960
587.848823	58.716448
588.276346	58.331369
588.703849	57.960488
589.131332	57.623466
589.558794	57.309654
589.986236	57.020569
590.413657	56.759833
590.841058	56.525658
591.268438	56.326242
591.695799	56.148265
592.123138	56.025820
592.550458	55.956652
592.977756	55.925340
593.405034	55.956035
593.832292	56.047036
594.259529	56.190442
594.686746	56.390160
595.113942	56.650411
595.541117	56.965699
595.968272	57.309313
596.395406	57.666414
596.822519	58.029390
597.249612	58.387986
597.676684	58.734815
598.103735	59.040681
598.530766	59.297788
598.957775	59.507913
599.384764	59.667649
599.811733	59.773889
600.238680	59.823738
600.665606	59.828838
601.092512	59.788873
601.519397	59.720974
601.946261	59.647185
602.373104	59.553577
602.799926	59.445808
603.226727	59.334960
603.653507	59.232642
604.080266	59.123778
604.507004	58.996167
604.933721	58.865868
605.360417	58.725172
605.787092	58.569347
606.213746	58.410923
606.640379	58.212482
607.066991	57.990781
607.493581	57.759718
607.920150	57.500407
608.346699	57.230099
608.773226	56.942165
609.199731	56.670784
609.626216	56.410240
610.052679	56.152435
610.479121	55.919157
610.905542	55.709131
611.331941	55.531669
611.758319	55.375461
612.184676	55.244114
612.611011	55.144268
613.037325	55.059592
613.463617	55.012748
613.889888	54.969385
614.316138	54.938885
614.742366	54.918023
615.168573	54.891480
615.594758	54.864341
616.020921	54.855682
616.447063	54.846305
616.873184	54.844740
617.299283	54.853199
617.725360	54.883334
618.151416	54.921729
618.577450	54.971385
619.003462	55.041979
619.429453	55.115969
619.855422	55.209252
620.281369	55.305941
620.707295	55.398629
621.133199	55.486170
621.559081	55.551508
621.984941	55.592639
622.410779	55.590518
622.836596	55.550278
623.262391	55.463622
623.688163	55.322474
624.113914	55.131109
624.539644	54.908943
624.965351	54.653624
625.391036	54.359287
625.816699	54.038610
626.242340	53.708522
626.667960	53.362237
627.093557	53.026828
627.519132	52.706349
627.944685	52.403505
628.370216	52.136911
628.795725	51.895173
629.221212	51.667325
629.646677	51.464308
630.072119	51.282936
630.497540	51.126666
630.922938	50.982806
631.348314	50.862924
631.773668	50.755714
632.198999	50.653402
632.624308	50.565943
633.049595	50.495505
633.474860	50.449504
633.900102	50.419063
634.325322	50.424838
634.750520	50.471573
635.175695	50.559292
635.600848	50.693427
636.025978	50.884951
636.451086	51.128612
636.876171	51.433550
637.301234	51.787341
637.726275	52.194539
638.151293	52.637328
638.576288	53.127689
639.001261	53.642550
639.426211	54.179691
639.851139	54.722154
640.276044	55.264608
640.700927	55.787839
641.125787	56.290670
641.550624	56.749102
641.975438	57.169319
642.400230	57.536092
642.824999	57.845524
643.249745	58.102334
643.674469	58.304763
644.099169	58.471561
644.523847	58.592830
644.948502	58.671182
645.373135	58.722374
645.797744	58.736915
646.222330	58.729069
646.646894	58.681816
647.071435	58.623448
647.495953	58.535818
647.920447	58.423772
648.344919	58.286974
648.769368	58.127472
649.193794	57.932652
649.618197	57.715789
650.042576	57.465599
650.466933	57.207175
650.891267	56.905352
651.315577	56.584578
651.739864	56.243168
652.164129	55.884099
652.588370	55.513385
653.012587	55.134977
653.436782	54.746859
653.860953	54.381532
654.285102	54.018580
654.709226	53.670378
655.133328	53.344025
655.557406	53.048130
655.981461	52.778419
656.405493	52.539072
656.829501	52.320597
657.253486	52.106944
657.677448	51.918204
658.101386	51.738795
658.525301	51.566480
658.949192	51.388420
659.373060	51.212705
659.796904	51.044573
660.220725	50.863362
660.644522	50.675735
661.068296	50.482146
661.492046	50.286960
661.915772	50.089448
662.339475	49.894684
662.763154	49.703565
663.186810	49.534581
663.610442	49.371681
664.034050	49.238851
664.457635	49.141703
664.881196	49.072644
665.304733	49.047943
665.728247	49.062833
666.151736	49.118723
666.575202	49.220166
666.998644	49.351286
667.422062	49.529186
667.845457	49.746536
668.268827	49.988761
668.692174	50.254885
669.115496	50.546521
669.538795	50.842077
669.962070	51.151315
670.385321	51.474356
670.808547	51.784851
671.231750	52.102201
671.654929	52.403443
672.078084	52.705050
672.501214	52.980173
672.924321	53.236249
673.347404	53.484969
673.770462	53.735133
674.193496	53.974083
674.616506	54.211246
675.039492	54.443625
675.462454	54.672647
675.885391	54.908614
676.308305	55.137325
676.731194	55.382884
677.154058	55.635033
677.576899	55.885519
677.999715	56.151135
678.422507	56.414698
678.845274	56.682291
679.268017	56.957912
679.690736	57.219745
680.113430	57.479986
680.536100	57.715085
680.958746	57.942262
681.381367	58.151848
681.803963	58.354124
682.226535	58.537482
682.649083	58.712322
683.071605	58.879283
683.494104	59.020575
683.916578	59.157139
684.339027	59.279402
684.761451	59.393137
685.183851	59.498902
685.606227	59.592492
686.028577	59.667029
686.450903	59.733974
686.873204	59.760288
687.295481	59.764842
687.717733	59.747093
688.139959	59.694347
688.562162	59.610450
688.984339	59.490268
689.406492	59.334553
689.828619	59.129994
690.250722	58.878582
690.672800	58.590154
691.094853	58.260746
691.516881	57.905987
691.938884	57.506208
692.360863	57.075005
692.782816	56.641726
693.204744	56.188111
693.626647	55.746706
694.048526	55.299566
694.470379	54.878231
694.892207	54.477180
695.314010	54.117908
695.735788	53.791220
696.157540	53.499630
696.579268	53.270070
697.000970	53.080059
697.422648	52.945812
697.844300	52.862087
698.265926	52.838117
698.687528	52.866643
699.109104	52.962513
699.530655	53.097926
699.952181	53.288437
700.373681	53.530048
700.795156	53.790865
701.216606	54.076608
701.638030	54.389707
702.059429	54.717186
702.480803	55.042733
702.902151	55.365736
703.323473	55.683825
703.744770	55.981439
704.166042	56.256985
704.587288	56.497777
705.008509	56.716999
705.429704	56.916326
705.850873	57.073626
706.272017	57.202454
706.693135	57.291767
707.114228	57.353189
707.535295	57.382102
707.956336	57.373412
708.377352	57.320070
708.798342	57.235935
709.219306	57.127622
709.640245	56.995070
710.061157	56.850483
710.482044	56.675762
710.902905	56.498675
711.323741	56.297291
711.744550	56.094053
712.165334	55.869051
712.586092	55.651590
713.006823	55.427079
713.427529	55.196034
713.848209	54.981065
714.268863	54.772971
714.689492	54.572220
715.110094	54.386939
715.530670	54.221941
715.951220	54.081720
716.371744	53.950272
716.792242	53.850708
717.212714	53.760769
717.633159	53.692429
718.053579	53.648068
718.473973	53.607320
718.894340	53.584141
719.314681	53.577473
719.734996	53.580793
720.155285	53.596504
720.575547	53.612685
720.995784	53.636408
721.415994	53.661238
721.836177	53.688787
722.256335	53.694385
722.676466	53.679065
723.096570	53.644880
723.516649	53.596305
723.936701	53.510689
724.356726	53.401336
724.776725	53.266740
725.196698	53.117375
725.616644	52.925629
726.036564	52.716763
726.456457	52.482273
726.876324	52.236043
727.296164	51.986062
727.715977	51.728247
728.135764	51.463112
728.555525	51.204692
728.975258	50.947943
729.394966	50.725176
729.814646	50.515971
730.234300	50.341766
730.653927	50.196196
731.073527	50.078511
731.493101	50.002212
731.912648	49.957264
732.332168	49.945494
732.751661	49.976046
733.171128	50.034202
733.590568	50.131391
734.009980	50.262605
734.429366	50.425821
734.848726	50.614922
735.268058	50.832261
735.687363	51.080194
736.106641	51.340056
736.525893	51.619785
736.945117	51.902978
737.364314	52.198832
737.783485	52.489567
738.202628	52.774654
738.621744	53.065084
739.040834	53.350852
739.459896	53.623815
739.878931	53.875324
740.297939	54.101734
740.716919	54.310770
741.135873	54.484884
741.554799	54.637012
741.973698	54.764797
742.392570	54.844341
742.811415	54.894187
743.230232	54.900623
743.649022	54.878300
744.067785	54.823129
744.486521	54.724214
744.905229	54.602185
745.323909	54.461568
745.742563	54.294437
746.161189	54.113806
746.579787	53.919252
746.998358	53.708325
747.416902	53.483191
747.835418	53.258978
748.253907	53.035571
748.672368	52.811651
749.090802	52.609057
749.509208	52.404955
749.927586	52.226737
750.345937	52.061908
750.764261	51.924905
751.182556	51.810929
751.600824	51.711650
752.019065	51.630156
752.437277	51.570430
752.855462	51.533960
753.273620	51.528669
753.691749	51.540774
754.109851	51.589138
754.527925	51.640128
754.945971	51.709165
755.363989	51.799182
755.781980	51.884499
756.199943	51.991856
756.617877	52.085876
757.035784	52.175693
757.453663	52.272733
757.871514	52.357858
758.289337	52.422140
758.707132	52.463574
759.124899	52.475295
759.542639	52.457716
759.960350	52.415620
760.378033	52.342565
760.795688	52.227022
761.213314	52.087161
761.630913	51.909262
762.048484	51.695024
762.466026	51.450953
762.883541	51.169188
763.301027	50.863527
763.718485	50.534957
764.135914	50.187597
764.553316	49.821159
764.970689	49.447560
765.388034	49.064738
765.805351	48.676712
766.222639	48.292779
766.639899	47.904191
767.057131	47.521146
767.474334	47.156511
767.891509	46.802116
768.308655	46.464376
768.725773	46.159034
769.142863	45.874694
769.559924	45.613786
769.976957	45.379639
770.393961	45.176410
770.810936	44.996103
771.227883	44.841178
771.644802	44.714015
772.061692	44.631048
772.478553	44.560261
772.895386	44.519399
773.312190	44.504393
773.728965	44.524483
774.145712	44.569976
774.562430	44.634436
774.979119	44.720415
775.395780	44.825405
775.812411	44.960090
776.229014	45.103212
776.645589	45.259212
777.062134	45.419549
777.478651	45.586514
777.895138	45.754220
778.311597	45.934582
778.728027	46.113607
779.144428	46.285741
779.560800	46.449458
779.977143	46.604464
780.393458	46.747136
780.809743	46.872705
781.225999	46.970992
781.642226	47.049686
782.058425	47.094177
782.474594	47.119011
782.890734	47.120312
783.306845	47.098220
783.722926	47.045010
784.138979	46.955099
784.555003	46.839454
784.970997	46.686753
785.386962	46.522201
785.802898	46.321259
786.218805	46.105716
786.634682	45.869348
787.050531	45.600525
787.466349	45.324596
787.882139	45.037856
788.297899	44.750436
788.713630	44.440912
789.129332	44.144399
789.545004	43.841704
789.960647	43.558518
790.376260	43.297493
790.791844	43.050943
791.207399	42.820157
791.622924	42.609972
792.038419	42.418049
792.453885	42.253285
792.869321	42.109464
793.284728	42.003079
793.700106	41.915464
794.115453	41.866123
794.530771	41.836746
794.946060	41.837556
795.361319	41.868200
795.776548	41.922606
796.191747	41.981956
796.606917	42.062912
797.022057	42.164290
797.437167	42.271546
797.852248	42.387216
798.267298	42.503961
798.682319	42.639995
799.097310	42.764245
799.512271	42.871359
799.927203	42.995267
800.342104	43.108035
800.756976	43.198534
801.171818	43.270247
801.586629	43.340338
802.001411	43.391831
802.416163	43.425916
802.830885	43.448583
803.245577	43.442080
803.660238	43.417612
804.074870	43.385739
804.489472	43.324275
804.904043	43.254205
805.318585	43.167301
805.733096	43.062182
806.147577	42.935061
806.562028	42.802338
806.976449	42.661084
807.390840	42.490404
807.805200	42.316402
808.219530	42.140892
808.633830	41.948119
809.048100	41.743284
809.462339	41.538902
809.876548	41.330463
810.290727	41.119507
810.704875	40.898159
811.118993	40.684982
811.533080	40.449151
811.947137	40.227910
812.361164	40.012489
812.775160	39.779555
813.189126	39.556741
813.603061	39.348087
814.016966	39.147090
814.430840	38.964212
814.844684	38.787575
815.258497	38.637716
815.672280	38.493631
816.086032	38.377921
816.499753	38.287925
816.913444	38.211311
817.327104	38.168365
817.740733	38.146249
818.154331	38.163261
818.567899	38.215383
818.981436	38.289622
819.394943	38.403769
819.808418	38.542974
820.221863	38.729325
820.635277	38.944155
821.048660	39.172670
821.462013	39.444825
821.875334	39.743533
822.288625	40.072649
822.701884	40.428614
823.115113	40.796948
823.528311	41.198182
823.941478	41.598568
824.354614	42.023229
824.767718	42.442743
825.180792	42.860882
825.593835	43.286886
826.006847	43.694000
826.419827	44.075401
826.832777	44.429894
827.245695	44.749282
827.658582	45.027841
828.071438	45.272092
828.484263	45.466964
828.897057	45.614329
829.309819	45.708553
829.722551	45.741269
830.135251	45.719402
830.547919	45.646585
830.960557	45.513828
831.373163	45.328048
831.785738	45.101898
832.198281	44.828900
832.610793	44.522051
833.023274	44.195576
833.435723	43.828869
833.848141	43.459847
834.260528	43.065829
834.672883	42.685768
835.085206	42.297166
835.497498	41.915555
835.909758	41.578857
836.321987	41.222994
836.734185	40.908998
837.146350	40.621079
837.558485	40.373046
837.970587	40.156518
838.382658	39.974761
838.794697	39.829492
839.206705	39.735097
839.618681	39.680154
840.030625	39.667722
840.442538	39.709778
840.854418	39.774666
841.266267	39.897699
841.678084	40.056583
842.089870	40.255217
842.501623	40.460333
842.913345	40.717203
843.325035	40.983774
843.736693	41.276851
844.148319	41.572793
844.559913	41.894746
844.971475	42.204899
845.383005	42.510522
845.794504	42.821805
846.205970	43.124153
846.617404	43.421674
847.028806	43.692544
847.440176	43.945054
847.851514	44.159404
848.262820	44.366674
848.674094	44.507447
849.085336	44.638591
849.496546	44.720511
849.907723	44.746374
850.318868	44.743927
850.729981	44.693864
851.141062	44.605398
851.552110	44.492953
851.963127	44.339095
852.374111	44.157815
852.785062	43.935862
853.195982	43.670326
853.606869	43.394371
854.017723	43.079222
854.428546	42.735990
854.839336	42.377702
855.250093	42.050903
855.660818	41.687331
856.071511	41.318461
856.482171	40.949191
856.892799	40.580109
857.303394	40.199089
857.713956	39.840214
858.124486	39.507963
858.534984	39.158140
858.945449	38.834020
859.355881	38.503110
859.766280	38.186031
860.176647	37.886376
860.586982	37.601044
860.997283	37.300745
861.407552	37.021718
861.817789	36.782329
862.227992	36.546206
862.638163	36.355112
863.048301	36.155235
863.458406	35.972043
863.868478	35.802051
864.278518	35.634193
864.688524	35.476729
865.098498	35.330873
865.508439	35.195270
865.918347	35.086623
866.328222	34.966337
866.738064	34.871056
867.147873	34.796775
867.557649	34.719399
867.967392	34.643207
868.377102	34.595880
868.786779	34.559950
869.196423	34.515223
869.606034	34.501318
870.015612	34.526009
870.425156	34.548075
870.834668	34.573629
871.244146	34.639879
871.653591	34.704456
872.063003	34.801280
872.472382	34.942685
872.881728	35.068112
873.291040	35.227203
873.700319	35.396032
874.109564	35.598786
874.518777	35.785458
874.927956	36.006457
875.337102	36.234550
875.746214	36.464828
876.155293	36.731404
876.564338	36.989953
876.973350	37.252087
877.382329	37.516338
877.791274	37.798641
878.200186	38.076569
878.609064	38.336026
879.017909	38.615896
879.426720	38.849767
879.835497	39.080844
880.244241	39.291185
880.652952	39.499595
881.061629	39.683893
881.470272	39.833029
881.878881	39.956163
882.287457	40.061313
882.695999	40.093504
883.104507	40.119512
883.512982	40.116363
883.921423	40.069531
884.329830	40.013283
884.738203	39.914689
885.146543	39.782566
885.554849	39.636701
885.963120	39.449119
886.371358	39.267791
886.779563	39.048502
887.187733	38.828998
887.595869	38.580285
888.003971	38.302619
888.412040	38.048536
888.820074	37.751074
889.228074	37.478578
889.636041	37.212652
890.043973	36.942555
890.451871	36.672547
890.859736	36.418138
891.267566	36.178236
891.675362	35.949255
892.083124	35.742861
892.490851	35.558451
892.898545	35.391127
893.306204	35.236784
893.713829	35.101387
894.121420	34.990897
894.528977	34.926411
894.936499	34.894775
895.343987	34.899053
895.751441	34.929930
896.158860	34.998327
896.566246	35.083545
896.973596	35.177439
897.380913	35.315917
897.788195	35.459790
898.195442	35.637682
898.602655	35.849964
899.009834	36.045500
899.416978	36.271538
899.824088	36.489159
900.231163	36.737793
900.638204	36.992566
901.045210	37.223405
901.452181	37.470227
901.859118	37.682363
902.266021	37.898001
902.672888	38.106082
903.079721	38.289378
903.486520	38.458913
903.893283	38.596262
904.300012	38.687177
904.706707	38.767902
905.113366	38.800657
905.519991	38.828421
905.926581	38.810406
906.333136	38.755727
906.739656	38.706804
907.146142	38.610193
907.552592	38.485564
907.959008	38.339695
908.365389	38.163191
908.771735	37.962277
909.178046	37.764807
909.584322	37.557208
909.990563	37.313342
910.396769	37.081192
910.802940	36.804558
911.209076	36.532375
911.615177	36.268979
912.021243	35.996791
912.427274	35.736557
912.833270	35.466941
913.239231	35.217809
913.645156	34.965536
914.051046	34.723296
914.456902	34.513691
914.862721	34.302674
915.268506	34.111416
915.674256	33.935595
916.079970	33.752625
916.485649	33.603241
916.891292	33.483779
917.296901	33.389982
917.702474	33.285608
918.108011	33.192729
918.513514	33.119628
918.918980	33.051326
919.324412	32.984747
919.729808	32.939425
920.135169	32.885328
920.540494	32.857519
920.945783	32.822499
921.351037	32.788808
921.756256	32.763363
922.161439	32.722717
922.566586	32.701191
922.971698	32.684487
923.376775	32.666164
923.781815	32.637196
924.186820	32.612269
924.591790	32.589542
924.996723	32.542960
925.401621	32.516112
925.806484	32.449440
926.211310	32.395637
926.616101	32.344017
927.020856	32.280645
927.425575	32.192006
927.830259	32.094153
928.234906	31.995205
928.639518	31.924726
929.044094	31.826602
929.448634	31.714330
929.853138	31.595223
930.257606	31.487832
930.662038	31.391534
931.066434	31.282608
931.470795	31.199670
931.875119	31.138539
932.279407	31.076244
932.683659	31.014206
933.087875	30.937546
933.492055	30.883675
933.896199	30.836268
934.300307	30.776733
934.704379	30.751375
935.108414	30.724869
935.512414	30.676398
935.916377	30.666596
936.320304	30.678380
936.724195	30.671730
937.128049	30.667132
937.531867	30.675335
937.935649	30.674979
938.339395	30.698561
938.743104	30.697003
939.146777	30.709354
939.550414	30.720640
939.954014	30.750741
940.357578	30.773816
940.761105	30.801766
941.164596	30.780595
941.568050	30.783757
941.971468	30.786813
942.374850	30.767171
942.778195	30.754244
943.181503	30.701458
943.584775	30.681808
943.988010	30.619093
944.391209	30.520789
944.794371	30.416393
945.197496	30.310844
945.600585	30.221419
946.003637	30.124141
946.406653	29.989132
946.809632	29.855615
947.212574	29.749433
947.615479	29.630227
948.018347	29.482903
948.421179	29.330757
948.823974	29.154045
949.226732	29.009622
949.629453	28.851310
950.032138	28.722244
950.434785	28.562530
950.837396	28.426678
951.239969	28.310033
951.642506	28.196898
952.045006	28.078541
952.447469	27.948632
952.849895	27.830485
953.252283	27.718161
953.654635	27.628593
954.056950	27.522007
954.459227	27.440540
954.861468	27.393596
955.263671	27.330155
955.665838	27.308166
956.067967	27.253714
956.470059	27.207291
956.872114	27.182150
957.274131	27.138670
957.676112	27.131175
958.078055	27.120203
958.479961	27.063516
958.881829	27.030191
959.283661	27.000303
959.685455	26.977715
960.087211	26.922545
960.488931	26.893209
960.890613	26.841322
961.292257	26.778342
961.693864	26.746453
962.095434	26.667877
962.496966	26.569336
962.898461	26.465463
963.299918	26.347758
963.701338	26.240141
964.102720	26.045179
964.504065	25.872262
964.905372	25.721006
965.306641	25.541809
965.707873	25.354526
966.109068	25.154706
966.510224	24.965429
966.911343	24.737711
967.312425	24.490842
967.713468	24.272520
968.114474	23.996710
968.515442	23.773992
968.916373	23.525821
969.317265	23.296539
969.718120	23.114635
970.118937	22.861521
970.519716	22.615584
970.920458	22.405974
971.321161	22.223098
971.721827	22.020415
972.122454	21.822844
972.523044	21.671520
972.923596	21.547686
973.324110	21.409580
973.724585	21.315116
974.125023	21.161232
974.525423	21.068065
974.925785	20.989919
975.326108	20.940216
975.726394	20.898772
976.126642	20.827892
976.526851	20.867402
976.927022	20.878919
977.327155	20.897165
977.727250	20.905047
978.127307	20.948560
978.527325	21.034076
978.927306	21.150241
979.327248	21.244402
979.727151	21.322072
980.127017	21.432657
980.526844	21.559968
980.926633	21.657638
981.326383	21.808282
981.726095	21.906933
982.125769	22.036134
982.525404	22.136095
982.925001	22.254644
983.324560	22.413197
983.724079	22.514548
984.123561	22.699600
984.523004	22.791643
984.922408	22.854296
985.321774	22.970537
985.721102	23.073750
986.120390	23.158768
986.519641	23.246518
986.918852	23.338588
987.318025	23.444285
987.717159	23.492241
988.116255	23.566481
988.515312	23.736243
988.914330	23.816457
989.313310	23.914552
989.712250	24.021538
990.111152	24.104013
990.510015	24.195157
990.908840	24.292486
991.307625	24.328372
991.706372	24.460374
992.105080	24.539544
992.503749	24.559217
992.902379	24.696203
993.300970	24.793359
993.699522	24.858452
994.098035	25.051014
994.496510	25.154321
994.894945	25.348591
995.293341	25.475263
995.691698	25.603028
996.090016	25.780992
996.488296	25.861051
996.886535	25.998491
997.284736	26.182541
997.682898	26.242670
998.081021	26.395118
998.479104	26.520917
998.877148	26.779112
999.275153	27.008526
999.673119	27.095403
1000.071046	27.384401
1000.468933	27.555450
1000.866781	27.589295
1001.264590	27.885683
1001.662359	28.016250
1002.060089	28.186068
1002.457780	28.342087
1002.855431	28.608247
1003.253043	28.767634
1003.650615	29.041087
1004.048148	29.125612
1004.445642	29.374624
1004.843096	29.575973
1005.240511	29.802043
1005.637886	29.935049
1006.035221	30.386537
1006.432517	30.671493
1006.829774	30.834720
1007.226991	31.137105
1007.624168	31.378803
1008.021306	31.644880
1008.418404	32.025104
1008.815462	32.404918
1009.212481	32.762526
1009.609460	33.063541
1010.006399	33.453082
1010.403298	33.883118
1010.800158	34.437254
1011.196978	34.546213
1011.593758	34.782609
1011.990498	35.508764
1012.387199	35.923046
1012.783860	36.527680
1013.180480	37.077034
1013.577061	36.929075
1013.973602	37.554223
1014.370103	37.908153
1014.766564	38.488211
1015.162985	38.676417
1015.559366	38.962540
1015.955708	39.124420
1016.352009	39.474588
1016.748270	39.987280
1017.144491	40.481696
1017.540671	40.588897
1017.936812	41.272767
1018.332913	41.198980
1018.728973	41.120455
1019.124994	41.482068
1019.520974	41.850907
1019.916914	42.628449
1020.312814	42.967848
