Time1=100ms:Average1=5:Objective=10X:Aperture=1: (11/28/2018 10:45:47 AM)
11/28/2018 10:45:47 AM
Reflectance
10X
Ap#: 1
Avg1: 5.000000
Avg2: 0.000000
Int.Time1:100.000000

350.166136	41.302211
350.601937	41.681364
351.037728	41.795026
351.473509	41.683092
351.909281	41.699741
352.345042	41.467458
352.780794	41.258070
353.216536	41.098651
353.652267	41.128609
354.087989	41.326083
354.523701	41.263287
354.959403	40.979721
355.395095	40.992858
355.830777	41.166093
356.266449	41.198303
356.702110	41.452011
357.137762	41.581881
357.573404	41.268006
358.009035	40.952805
358.444656	40.917611
358.880268	41.198535
359.315869	41.167571
359.751459	41.261486
360.187040	41.351303
360.622610	41.418110
361.058170	41.376533
361.493720	41.503384
361.929260	41.528981
362.364789	41.736645
362.800308	41.673342
363.235816	41.674064
363.671314	42.190832
364.106802	42.094511
364.542279	42.488013
364.977746	42.352419
365.413203	42.487597
365.848649	42.507970
366.284084	42.759780
366.719509	42.982378
367.154924	43.152753
367.590328	42.685851
368.025721	43.007799
368.461104	43.487134
368.896477	43.310978
369.331838	43.121204
369.767189	43.564790
370.202530	43.170069
370.637859	43.076788
371.073178	43.196563
371.508486	43.302208
371.943784	43.330147
372.379071	42.884448
372.814347	42.734076
373.249612	42.806131
373.684866	43.117268
374.120110	43.202575
374.555343	43.186565
374.990565	43.191750
375.425776	43.226709
375.860976	43.280719
376.296165	43.358418
376.731343	43.594010
377.166511	42.885894
377.601667	42.863401
378.036812	42.716415
378.471946	42.793734
378.907070	42.812282
379.342182	42.963929
379.777283	43.121739
380.212373	43.158989
380.647452	43.015023
381.082520	43.365418
381.517576	42.924731
381.952622	42.793142
382.387656	42.917639
382.822679	42.862084
383.257691	42.696337
383.692692	42.863337
384.127681	42.691676
384.562659	42.788004
384.997626	42.698084
385.432581	42.669546
385.867525	42.801758
386.302458	43.273543
386.737379	43.343361
387.172289	43.241391
387.607188	43.241622
388.042075	43.354186
388.476951	43.490518
388.911815	43.043773
389.346668	42.790579
389.781509	42.771441
390.216338	42.647059
390.651157	42.443676
391.085963	42.604894
391.520758	42.534547
391.955541	42.382714
392.390313	42.110123
392.825073	41.986722
393.259821	41.934132
393.694558	41.795795
394.129283	41.711900
394.563996	41.601400
394.998698	41.880909
395.433388	41.800471
395.868066	41.572293
396.302732	41.983668
396.737386	41.603631
397.172029	41.512277
397.606659	41.469530
398.041278	41.227333
398.475885	41.315319
398.910480	41.070726
399.345063	40.652276
399.779634	39.893208
400.214194	39.180427
400.648741	38.571534
401.083276	37.913991
401.517799	37.320792
401.952310	36.141359
402.386809	35.257497
402.821296	34.144741
403.255771	32.778906
403.690234	31.585670
404.124684	30.474228
404.559123	28.914237
404.993549	27.409936
405.427963	26.085711
405.862365	25.095486
406.296754	23.976799
406.731131	22.771307
407.165496	21.801960
407.599849	20.749985
408.034190	19.895071
408.468518	19.064205
408.902833	18.301634
409.337137	17.603633
409.771428	16.842462
410.205706	16.252773
410.639973	15.708471
411.074226	15.235041
411.508467	14.793531
411.942696	14.479147
412.376912	14.195570
412.811116	13.962244
413.245307	13.742218
413.679486	13.582266
414.113652	13.399473
414.547805	13.256880
414.981946	13.110753
415.416074	13.038151
415.850190	13.003998
416.284293	12.932602
416.718383	12.865567
417.152460	12.825774
417.586525	12.821637
418.020577	12.829091
418.454616	12.868547
418.888643	12.862352
419.322656	12.855159
419.756657	12.854236
420.190645	12.847991
420.624620	12.824329
421.058582	12.858491
421.492531	12.852090
421.926468	12.878372
422.360391	12.898509
422.794301	12.991820
423.228199	13.076155
423.662083	13.199947
424.095955	13.346219
424.529813	13.488985
424.963658	13.658773
425.397491	13.766050
425.831310	13.898614
426.265116	14.027092
426.698909	14.151576
427.132689	14.296058
427.566455	14.428279
428.000209	14.568436
428.433949	14.736943
428.867676	14.900302
429.301389	15.070304
429.735090	15.236147
430.168777	15.403224
430.602451	15.521227
431.036111	15.618540
431.469759	15.736956
431.903392	15.821355
432.337013	15.921841
432.770620	16.024617
433.204213	16.154059
433.637794	16.290469
434.071360	16.463912
434.504914	16.637851
434.938453	16.844127
435.371979	17.034597
435.805492	17.290407
436.238991	17.495649
436.672477	17.707046
437.105949	17.879985
437.539407	18.027298
437.972852	18.164748
438.406283	18.277677
438.839700	18.412324
439.273104	18.567348
439.706494	18.735189
440.139871	18.916606
440.573233	19.082299
441.006582	19.262254
441.439917	19.433437
441.873238	19.565642
442.306546	19.693385
442.739839	19.786154
443.173119	19.858866
443.606385	19.929049
444.039636	20.019131
444.472874	20.103184
444.906099	20.184092
445.339309	20.294680
445.772505	20.427067
446.205687	20.573550
446.638855	20.725134
447.072009	20.891105
447.505149	21.081791
447.938275	21.254841
448.371387	21.427618
448.804485	21.580191
449.237569	21.679673
449.670638	21.777973
450.103694	21.867363
450.536735	21.964600
450.969762	22.061047
451.402774	22.169006
451.835773	22.282676
452.268757	22.419897
452.701727	22.555138
453.134683	22.702476
453.567624	22.848809
454.000551	22.993525
454.433464	23.118442
454.866362	23.206582
455.299246	23.286189
455.732116	23.355917
456.164971	23.413903
456.597811	23.461792
457.030638	23.528365
457.463449	23.583905
457.896246	23.660823
458.329029	23.742880
458.761797	23.825667
459.194551	23.906973
459.627290	23.983066
460.060014	24.058045
460.492724	24.151705
460.925419	24.224335
461.358099	24.318158
461.790765	24.383312
462.223416	24.460600
462.656052	24.531995
463.088674	24.586482
463.521281	24.633930
463.953873	24.663476
464.386450	24.693395
464.819012	24.723845
465.251560	24.775968
465.684093	24.826954
466.116611	24.867186
466.549114	24.893756
466.981602	24.925636
467.414075	24.946177
467.846533	24.968137
468.278977	24.979978
468.711405	24.983586
469.143818	24.956511
469.576216	24.927354
470.008600	24.898212
470.440968	24.844621
470.873321	24.780181
471.305659	24.720700
471.737982	24.650071
472.170289	24.570544
472.602582	24.489185
473.034859	24.401918
473.467122	24.328286
473.899369	24.234228
474.331600	24.152529
474.763817	24.066653
475.196018	24.004615
475.628204	23.941609
476.060375	23.886421
476.492530	23.847515
476.924670	23.800433
477.356795	23.733732
477.788904	23.657872
478.220998	23.574433
478.653076	23.458147
479.085139	23.314371
479.517186	23.169638
479.949219	23.038143
480.381235	22.913787
480.813236	22.785108
481.245221	22.674178
481.677191	22.592734
482.109146	22.511495
482.541084	22.445343
482.973008	22.368940
483.404915	22.285685
483.836807	22.178835
484.268683	22.064839
484.700544	21.921286
485.132388	21.763044
485.564217	21.581382
485.996031	21.402883
486.427828	21.207572
486.859610	21.005441
487.291376	20.801026
487.723126	20.591800
488.154860	20.394875
488.586579	20.212111
489.018281	20.033840
489.449968	19.881014
489.881639	19.749338
490.313293	19.644622
490.744932	19.571184
491.176555	19.509522
491.608162	19.449234
492.039753	19.397882
492.471328	19.349695
492.902886	19.289020
493.334429	19.218473
493.765956	19.123788
494.197466	19.045553
494.628960	18.975678
495.060439	18.913701
495.491901	18.888106
495.923347	18.895160
496.354776	18.945038
496.786190	19.042246
497.217587	19.175626
497.648968	19.330987
498.080332	19.508671
498.511681	19.689293
498.943013	19.887884
499.374328	20.065804
499.805628	20.249070
500.236911	20.418958
500.668177	20.590371
501.099427	20.742353
501.530661	20.887126
501.961878	21.015945
502.393079	21.144338
502.824264	21.266875
503.255431	21.388296
503.686583	21.507557
504.117717	21.638354
504.548835	21.786373
504.979937	21.963013
505.411022	22.170805
505.842090	22.394551
506.273142	22.655167
506.704177	22.926512
507.135195	23.227666
507.566197	23.531650
507.997182	23.827140
508.428150	24.107751
508.859102	24.356855
509.290036	24.564836
509.720954	24.749571
510.151855	24.902730
510.582739	25.041168
511.013607	25.182455
511.444457	25.320094
511.875291	25.489351
512.306107	25.678211
512.736907	25.907133
513.167690	26.168839
513.598456	26.445593
514.029205	26.744931
514.459936	27.052426
514.890651	27.350576
515.321349	27.628345
515.752030	27.894171
516.182693	28.125535
516.613340	28.324850
517.043969	28.491105
517.474582	28.620782
517.905177	28.699965
518.335755	28.742091
518.766315	28.753893
519.196859	28.746758
519.627385	28.710223
520.057894	28.666704
520.488386	28.614885
520.918860	28.564076
521.349318	28.510574
521.779757	28.479312
522.210180	28.480485
522.640585	28.522666
523.070973	28.579199
523.501343	28.660361
523.931696	28.763001
524.362031	28.864623
524.792349	28.969314
525.222650	29.049896
525.652933	29.101004
526.083198	29.115910
526.513446	29.088057
526.943677	29.021672
527.373890	28.913808
527.804085	28.792708
528.234262	28.659861
528.664422	28.539278
529.094565	28.415559
529.524689	28.320980
529.954796	28.252779
530.384885	28.204626
530.814957	28.187843
531.245011	28.196856
531.675047	28.222165
532.105065	28.258722
532.535065	28.292516
532.965048	28.324630
533.395013	28.331739
533.824959	28.306168
534.254888	28.253466
534.684799	28.163736
535.114693	28.042848
535.544568	27.884411
535.974425	27.689542
536.404264	27.467943
536.834086	27.216095
537.263889	26.934035
537.693674	26.636364
538.123441	26.338052
538.553190	26.051495
538.982921	25.784073
539.412634	25.533959
539.842329	25.315468
540.272006	25.135679
540.701664	24.992287
541.131304	24.889282
541.560926	24.823735
541.990530	24.786440
542.420116	24.786896
542.849683	24.807275
543.279232	24.837078
543.708763	24.880475
544.138275	24.929464
544.567769	24.981187
544.997245	25.023281
545.426702	25.059274
545.856141	25.087500
546.285562	25.110883
546.714964	25.134872
547.144347	25.160822
547.573713	25.189455
548.003059	25.242305
548.432387	25.299324
548.861697	25.361847
549.290988	25.444606
549.720260	25.541379
550.149514	25.661745
550.578750	25.802714
551.007966	25.964061
551.437164	26.120478
551.866344	26.279874
552.295504	26.429272
552.724646	26.568673
553.153769	26.687331
553.582874	26.791562
554.011960	26.863648
554.441027	26.895418
554.870075	26.893851
555.299104	26.856418
555.728115	26.776648
556.157106	26.668427
556.586079	26.532249
557.015033	26.377738
557.443968	26.203126
557.872884	26.029840
558.301781	25.866112
558.730659	25.711272
559.159518	25.567442
559.588358	25.445869
560.017180	25.352344
560.445982	25.290561
560.874765	25.264652
561.303528	25.260690
561.732273	25.284284
562.160999	25.339170
562.589705	25.409107
563.018393	25.503562
563.447061	25.599008
563.875710	25.706675
564.304340	25.825833
564.732950	25.955808
565.161542	26.070828
565.590114	26.183939
566.018666	26.291675
566.447200	26.383152
566.875714	26.453955
567.304208	26.520723
567.732684	26.578704
568.161140	26.621841
568.589576	26.657573
569.017993	26.691125
569.446391	26.706739
569.874769	26.732559
570.303128	26.753847
570.731467	26.781151
571.159787	26.805744
571.588087	26.832884
572.016368	26.862301
572.444629	26.897748
572.872870	26.928053
573.301092	26.950040
573.729294	26.953076
574.157476	26.937957
574.585639	26.888027
575.013782	26.813086
575.441906	26.702977
575.870009	26.556480
576.298093	26.372599
576.726157	26.165306
577.154202	25.932903
577.582226	25.675174
578.010231	25.403392
578.438216	25.135336
578.866181	24.863700
579.294126	24.604818
579.722051	24.372538
580.149957	24.165482
580.577842	23.977692
581.005707	23.817638
581.433553	23.687679
581.861378	23.585158
582.289184	23.514737
582.716969	23.472263
583.144734	23.454354
583.572479	23.465383
584.000205	23.501288
584.427910	23.566329
584.855594	23.652868
585.283259	23.760445
585.710904	23.888390
586.138528	24.038367
586.566132	24.210605
586.993716	24.401723
587.421280	24.609086
587.848823	24.836357
588.276346	25.069773
588.703849	25.305019
589.131332	25.544965
589.558794	25.787119
589.986236	26.020869
590.413657	26.244935
590.841058	26.454553
591.268438	26.656774
591.695799	26.844318
592.123138	27.031862
592.550458	27.204881
592.977756	27.360874
593.405034	27.509689
593.832292	27.656480
594.259529	27.787839
594.686746	27.917768
595.113942	28.034702
595.541117	28.131921
595.968272	28.216673
596.395406	28.267748
596.822519	28.286607
597.249612	28.267993
597.676684	28.211228
598.103735	28.105810
598.530766	27.952630
598.957775	27.760400
599.384764	27.519049
599.811733	27.232121
600.238680	26.916106
600.665606	26.567840
601.092512	26.198270
601.519397	25.811076
601.946261	25.426489
602.373104	25.048214
602.799926	24.666482
603.226727	24.294453
603.653507	23.937588
604.080266	23.599980
604.507004	23.272369
604.933721	22.961796
605.360417	22.663350
605.787092	22.375201
606.213746	22.103461
606.640379	21.837165
607.066991	21.585254
607.493581	21.343083
607.920150	21.110261
608.346699	20.896167
608.773226	20.698684
609.199731	20.518498
609.626216	20.365354
610.052679	20.236276
610.479121	20.134789
610.905542	20.059166
611.331941	20.013887
611.758319	19.998021
612.184676	20.005384
612.611011	20.040889
613.037325	20.108108
613.463617	20.192493
613.889888	20.290358
614.316138	20.406876
614.742366	20.543320
615.168573	20.683341
615.594758	20.831885
616.020921	20.998871
616.447063	21.181956
616.873184	21.373221
617.299283	21.569127
617.725360	21.785236
618.151416	22.014493
618.577450	22.256149
619.003462	22.514325
619.429453	22.788097
619.855422	23.075719
620.281369	23.368501
620.707295	23.678087
621.133199	23.989642
621.559081	24.302547
621.984941	24.611042
622.410779	24.909554
622.836596	25.186781
623.262391	25.454937
623.688163	25.698959
624.113914	25.920318
624.539644	26.121721
624.965351	26.292484
625.391036	26.436185
625.816699	26.552360
626.242340	26.645399
626.667960	26.719903
627.093557	26.778628
627.519132	26.823960
627.944685	26.852473
628.370216	26.876573
628.795725	26.891448
629.221212	26.883447
629.646677	26.863004
630.072119	26.827901
630.497540	26.776215
630.922938	26.701131
631.348314	26.608790
631.773668	26.489797
632.198999	26.346223
632.624308	26.183398
633.049595	26.010157
633.474860	25.819574
633.900102	25.615974
634.325322	25.403961
634.750520	25.182360
635.175695	24.962849
635.600848	24.748801
636.025978	24.549021
636.451086	24.358419
636.876171	24.184457
637.301234	24.024544
637.726275	23.881342
638.151293	23.760045
638.576288	23.659581
639.001261	23.579615
639.426211	23.512668
639.851139	23.458038
640.276044	23.416209
640.700927	23.385802
641.125787	23.366528
641.550624	23.349739
641.975438	23.332960
642.400230	23.330247
642.824999	23.323640
643.249745	23.325368
643.674469	23.344150
644.099169	23.358078
644.523847	23.384090
644.948502	23.429185
645.373135	23.494186
645.797744	23.572988
646.222330	23.656352
646.646894	23.751539
647.071435	23.858969
647.495953	23.978225
647.920447	24.112462
648.344919	24.252787
648.769368	24.398646
649.193794	24.548274
649.618197	24.697272
650.042576	24.843345
650.466933	24.989725
650.891267	25.129746
651.315577	25.270618
651.739864	25.410039
652.164129	25.540390
652.588370	25.672335
653.012587	25.792665
653.436782	25.909976
653.860953	26.026072
654.285102	26.138693
654.709226	26.243332
655.133328	26.349455
655.557406	26.456451
655.981461	26.563228
656.405493	26.670239
656.829501	26.759773
657.253486	26.855828
657.677448	26.937925
658.101386	27.010899
658.525301	27.069764
658.949192	27.108471
659.373060	27.144478
659.796904	27.165433
660.220725	27.173170
660.644522	27.165708
661.068296	27.141093
661.492046	27.109439
661.915772	27.068647
662.339475	27.025334
662.763154	26.978362
663.186810	26.932442
663.610442	26.890290
664.034050	26.854459
664.457635	26.825098
664.881196	26.805046
665.304733	26.798599
665.728247	26.807856
666.151736	26.836070
666.575202	26.881149
666.998644	26.933993
667.422062	26.999877
667.845457	27.082482
668.268827	27.167141
668.692174	27.256891
669.115496	27.352330
669.538795	27.440735
669.962070	27.532342
670.385321	27.611394
670.808547	27.679743
671.231750	27.734689
671.654929	27.775328
672.078084	27.808599
672.501214	27.820119
672.924321	27.817852
673.347404	27.798497
673.770462	27.767889
674.193496	27.727282
674.616506	27.676808
675.039492	27.622235
675.462454	27.553687
675.885391	27.483558
676.308305	27.420140
676.731194	27.353693
677.154058	27.293271
677.576899	27.235172
677.999715	27.179128
678.422507	27.123376
678.845274	27.070992
679.268017	27.028059
679.690736	26.978041
680.113430	26.934544
680.536100	26.885271
680.958746	26.848415
681.381367	26.812646
681.803963	26.772419
682.226535	26.740322
682.649083	26.711085
683.071605	26.688503
683.494104	26.674210
683.916578	26.676676
684.339027	26.682773
684.761451	26.705967
685.183851	26.735784
685.606227	26.770786
686.028577	26.816236
686.450903	26.876480
686.873204	26.939735
687.295481	27.010223
687.717733	27.080938
688.139959	27.150286
688.562162	27.216087
688.984339	27.274013
689.406492	27.315904
689.828619	27.340371
690.250722	27.347800
690.672800	27.336772
691.094853	27.307065
691.516881	27.271114
691.938884	27.208273
692.360863	27.122692
692.782816	27.036563
693.204744	26.938704
693.626647	26.840434
694.048526	26.731119
694.470379	26.627172
694.892207	26.532747
695.314010	26.445867
695.735788	26.374691
696.157540	26.315567
696.579268	26.273245
697.000970	26.244908
697.422648	26.240647
697.844300	26.255675
698.265926	26.289899
698.687528	26.350729
699.109104	26.432971
699.530655	26.533395
699.952181	26.655785
700.373681	26.788465
700.795156	26.932178
701.216606	27.091119
701.638030	27.267810
702.059429	27.448972
702.480803	27.634844
702.902151	27.834529
703.323473	28.032471
703.744770	28.229885
704.166042	28.430040
704.587288	28.625225
705.008509	28.818657
705.429704	29.015109
705.850873	29.204678
706.272017	29.392225
706.693135	29.576813
707.114228	29.760748
707.535295	29.943102
707.956336	30.118716
708.377352	30.286897
708.798342	30.447291
709.219306	30.614229
709.640245	30.789379
710.061157	30.958952
710.482044	31.133105
710.902905	31.300262
711.323741	31.478696
711.744550	31.657565
712.165334	31.836690
712.586092	32.019937
713.006823	32.203034
713.427529	32.397403
713.848209	32.597792
714.268863	32.796626
714.689492	32.995316
715.110094	33.202348
715.530670	33.405828
715.951220	33.609439
716.371744	33.819711
716.792242	34.029248
717.212714	34.233100
717.633159	34.423290
718.053579	34.619329
718.473973	34.800270
718.894340	34.972594
719.314681	35.130569
719.734996	35.270576
720.155285	35.392647
720.575547	35.490527
720.995784	35.571453
721.415994	35.629235
721.836177	35.657587
722.256335	35.650763
722.676466	35.600517
723.096570	35.521603
723.516649	35.402394
723.936701	35.249598
724.356726	35.048643
724.776725	34.815105
725.196698	34.550752
725.616644	34.244173
726.036564	33.909121
726.456457	33.540340
726.876324	33.151884
727.296164	32.742298
727.715977	32.318565
728.135764	31.885921
728.555525	31.452755
728.975258	31.020316
729.394966	30.594950
729.814646	30.184046
730.234300	29.791878
730.653927	29.429410
731.073527	29.075592
731.493101	28.761624
731.912648	28.469846
732.332168	28.214921
732.751661	27.989151
733.171128	27.792957
733.590568	27.636661
734.009980	27.510387
734.429366	27.416198
734.848726	27.358105
735.268058	27.316577
735.687363	27.308910
736.106641	27.325814
736.525893	27.369893
736.945117	27.430943
737.364314	27.514530
737.783485	27.616088
738.202628	27.724967
738.621744	27.855464
739.040834	27.994434
739.459896	28.142020
739.878931	28.298223
740.297939	28.458744
740.716919	28.628383
741.135873	28.792678
741.554799	28.958063
741.973698	29.123808
742.392570	29.276773
742.811415	29.429355
743.230232	29.571741
743.649022	29.701820
744.067785	29.831726
744.486521	29.942472
744.905229	30.043771
745.323909	30.126766
745.742563	30.211125
746.161189	30.283284
746.579787	30.347647
746.998358	30.405220
747.416902	30.455877
747.835418	30.500434
748.253907	30.557452
748.672368	30.608228
749.090802	30.664069
749.509208	30.717129
749.927586	30.782947
750.345937	30.853830
750.764261	30.931256
751.182556	31.023562
751.600824	31.124600
752.019065	31.234161
752.437277	31.358305
752.855462	31.489514
753.273620	31.633419
753.691749	31.771086
754.109851	31.927939
754.527925	32.089056
754.945971	32.252706
755.363989	32.430972
755.781980	32.601580
756.199943	32.773626
756.617877	32.947599
757.035784	33.112104
757.453663	33.275322
757.871514	33.429849
758.289337	33.581276
758.707132	33.703553
759.124899	33.812883
759.542639	33.897738
759.960350	33.966124
760.378033	34.009820
760.795688	34.027790
761.213314	34.023646
761.630913	33.997311
762.048484	33.943053
762.466026	33.862591
762.883541	33.757999
763.301027	33.636304
763.718485	33.491814
764.135914	33.325596
764.553316	33.134668
764.970689	32.935685
765.388034	32.724466
765.805351	32.506601
766.222639	32.281994
766.639899	32.060234
767.057131	31.839339
767.474334	31.625550
767.891509	31.415912
768.308655	31.214634
768.725773	31.033666
769.142863	30.872306
769.559924	30.727632
769.976957	30.601310
770.393961	30.495209
770.810936	30.414310
771.227883	30.351293
771.644802	30.326814
772.061692	30.325265
772.478553	30.348744
772.895386	30.387786
773.312190	30.466428
773.728965	30.573252
774.145712	30.704246
774.562430	30.852928
774.979119	31.029473
775.395780	31.238751
775.812411	31.461851
776.229014	31.697112
776.645589	31.953156
777.062134	32.220569
777.478651	32.495030
777.895138	32.783407
778.311597	33.069608
778.728027	33.353847
779.144428	33.646105
779.560800	33.930400
779.977143	34.195903
780.393458	34.450321
780.809743	34.696092
781.225999	34.910295
781.642226	35.100601
782.058425	35.258679
782.474594	35.389042
782.890734	35.496541
783.306845	35.563899
783.722926	35.595592
784.138979	35.586294
784.555003	35.528966
784.970997	35.448640
785.386962	35.331343
785.802898	35.180625
786.218805	34.991014
786.634682	34.776131
787.050531	34.522892
787.466349	34.259875
787.882139	33.962147
788.297899	33.646209
788.713630	33.326761
789.129332	32.998728
789.545004	32.660811
789.960647	32.331751
790.376260	32.018748
790.791844	31.707281
791.207399	31.414852
791.622924	31.138615
792.038419	30.868331
792.453885	30.634113
792.869321	30.416380
793.284728	30.235302
793.700106	30.069318
794.115453	29.939071
794.530771	29.824740
794.946060	29.749716
795.361319	29.689355
795.776548	29.651045
796.191747	29.641625
796.606917	29.648279
797.022057	29.664592
797.437167	29.710957
797.852248	29.756979
798.267298	29.810561
798.682319	29.879226
799.097310	29.946111
799.512271	30.006876
799.927203	30.077132
800.342104	30.141686
800.756976	30.213596
801.171818	30.273211
801.586629	30.319863
802.001411	30.371250
802.416163	30.406221
802.830885	30.446433
803.245577	30.474236
803.660238	30.487701
804.074870	30.497535
804.489472	30.493022
804.904043	30.490520
805.318585	30.468309
805.733096	30.449916
806.147577	30.409482
806.562028	30.376895
806.976449	30.331059
807.390840	30.286209
807.805200	30.225966
808.219530	30.168370
808.633830	30.093942
809.048100	30.016738
809.462339	29.938557
809.876548	29.867277
810.290727	29.787708
810.704875	29.710126
811.118993	29.639419
811.533080	29.573861
811.947137	29.510020
812.361164	29.459065
812.775160	29.407447
813.189126	29.357250
813.603061	29.319016
814.016966	29.288665
814.430840	29.277270
814.844684	29.273244
815.258497	29.293341
815.672280	29.308246
816.086032	29.338488
816.499753	29.386148
816.913444	29.450343
817.327104	29.534764
817.740733	29.621974
818.154331	29.727011
818.567899	29.847009
818.981436	29.980705
819.394943	30.118662
819.808418	30.273166
820.221863	30.440508
820.635277	30.615397
821.048660	30.793292
821.462013	30.986630
821.875334	31.173616
822.288625	31.375795
822.701884	31.583127
823.115113	31.777916
823.528311	31.974321
823.941478	32.162030
824.354614	32.337284
824.767718	32.497073
825.180792	32.647979
825.593835	32.788982
826.006847	32.913328
826.419827	33.009592
826.832777	33.076461
827.245695	33.110995
827.658582	33.114953
828.071438	33.075159
828.484263	33.012885
828.897057	32.904382
829.309819	32.777713
829.722551	32.607202
830.135251	32.409450
830.547919	32.179216
830.960557	31.923603
831.373163	31.637662
831.785738	31.331456
832.198281	31.019757
832.610793	30.686319
833.023274	30.355567
833.435723	30.016831
833.848141	29.681255
834.260528	29.351200
834.672883	29.040598
835.085206	28.736721
835.497498	28.439041
835.909758	28.183335
836.321987	27.945455
836.734185	27.720491
837.146350	27.520866
837.558485	27.362186
837.970587	27.219607
838.382658	27.101232
838.794697	27.015455
839.206705	26.956062
839.618681	26.932742
840.030625	26.943375
840.442538	26.977502
840.854418	27.038202
841.266267	27.124494
841.678084	27.254063
842.089870	27.393908
842.501623	27.555132
842.913345	27.736269
843.325035	27.943150
843.736693	28.164905
844.148319	28.404711
844.559913	28.663787
844.971475	28.922121
845.383005	29.203946
845.794504	29.476054
846.205970	29.756513
846.617404	30.043200
847.028806	30.339385
847.440176	30.622088
847.851514	30.890810
848.262820	31.163404
848.674094	31.423467
849.085336	31.664694
849.496546	31.908015
849.907723	32.125315
850.318868	32.317002
850.729981	32.494121
851.141062	32.656179
851.552110	32.799750
851.963127	32.932391
852.374111	33.039788
852.785062	33.112968
853.195982	33.165705
853.606869	33.202126
854.017723	33.226718
854.428546	33.225943
854.839336	33.203042
855.250093	33.173787
855.660818	33.125670
856.071511	33.072057
856.482171	32.997437
856.892799	32.908111
857.303394	32.805588
857.713956	32.694850
858.124486	32.584080
858.534984	32.462454
858.945449	32.323420
859.355881	32.177359
859.766280	32.013709
860.176647	31.864447
860.586982	31.721658
860.997283	31.574167
861.407552	31.402023
861.817789	31.245744
862.227992	31.084802
862.638163	30.942731
863.048301	30.802651
863.458406	30.658704
863.868478	30.527211
864.278518	30.393290
864.688524	30.249787
865.098498	30.131499
865.508439	30.019199
865.918347	29.917571
866.328222	29.842476
866.738064	29.764641
867.147873	29.707775
867.557649	29.663255
867.967392	29.658369
868.377102	29.652023
868.786779	29.640307
869.196423	29.662672
869.606034	29.719080
870.015612	29.798904
870.425156	29.883172
870.834668	29.995844
871.244146	30.128408
871.653591	30.279032
872.063003	30.449920
872.472382	30.653374
872.881728	30.859981
873.291040	31.071760
873.700319	31.292383
874.109564	31.550856
874.518777	31.802147
874.927956	32.068347
875.337102	32.355915
875.746214	32.646383
876.155293	32.934475
876.564338	33.217733
876.973350	33.501495
877.382329	33.780203
877.791274	34.050762
878.200186	34.323114
878.609064	34.589003
879.017909	34.819066
879.426720	35.038356
879.835497	35.227237
880.244241	35.415678
880.652952	35.552070
881.061629	35.683806
881.470272	35.809319
881.878881	35.907072
882.287457	35.973827
882.695999	36.004215
883.104507	36.010523
883.512982	35.993120
883.921423	35.962619
884.329830	35.935863
884.738203	35.891588
885.146543	35.819785
885.554849	35.734596
885.963120	35.649046
886.371358	35.579419
886.779563	35.473887
887.187733	35.381600
887.595869	35.284105
888.003971	35.164682
888.412040	35.073634
888.820074	34.987625
889.228074	34.921605
889.636041	34.862066
890.043973	34.824262
890.451871	34.803670
890.859736	34.791311
891.267566	34.798840
891.675362	34.846023
892.083124	34.891522
892.490851	34.974822
892.898545	35.061446
893.306204	35.185611
893.713829	35.317195
894.121420	35.480248
894.528977	35.655003
894.936499	35.865222
895.343987	36.081605
895.751441	36.336908
896.158860	36.602075
896.566246	36.865129
896.973596	37.110623
897.380913	37.381637
897.788195	37.643448
898.195442	37.926695
898.602655	38.213061
899.009834	38.474739
899.416978	38.745590
899.824088	39.010524
900.231163	39.283269
900.638204	39.551924
901.045210	39.785463
901.452181	40.018551
901.859118	40.210886
902.266021	40.433823
902.672888	40.636142
903.079721	40.803147
903.486520	40.963888
903.893283	41.077444
904.300012	41.168247
904.706707	41.265778
905.113366	41.327748
905.519991	41.390753
905.926581	41.415800
906.333136	41.411039
906.739656	41.393062
907.146142	41.362301
907.552592	41.279527
907.959008	41.221989
908.365389	41.147573
908.771735	41.037047
909.178046	40.929381
909.584322	40.837020
909.990563	40.691452
910.396769	40.579090
910.802940	40.436757
911.209076	40.275577
911.615177	40.122222
912.021243	39.959062
912.427274	39.804792
912.833270	39.620678
913.239231	39.446458
913.645156	39.284516
914.051046	39.103359
914.456902	38.950933
914.862721	38.764529
915.268506	38.595434
915.674256	38.436006
916.079970	38.276301
916.485649	38.138583
916.891292	38.006995
917.296901	37.889283
917.702474	37.774876
918.108011	37.680009
918.513514	37.589768
918.918980	37.531145
919.324412	37.483252
919.729808	37.437619
920.135169	37.426713
920.540494	37.419371
920.945783	37.416158
921.351037	37.438725
921.756256	37.511738
922.161439	37.558278
922.566586	37.673973
922.971698	37.781055
923.376775	37.896760
923.781815	38.065742
924.186820	38.218738
924.591790	38.429029
924.996723	38.622656
925.401621	38.848833
925.806484	39.051647
926.211310	39.261653
926.616101	39.503157
927.020856	39.749549
927.425575	39.983779
927.830259	40.211495
928.234906	40.454987
928.639518	40.686455
929.044094	40.924277
929.448634	41.172497
929.853138	41.373027
930.257606	41.565867
930.662038	41.737966
931.066434	41.899429
931.470795	42.045164
931.875119	42.170932
932.279407	42.293071
932.683659	42.391504
933.087875	42.454220
933.492055	42.522975
933.896199	42.552853
934.300307	42.531618
934.704379	42.563664
935.108414	42.519131
935.512414	42.453187
935.916377	42.406833
936.320304	42.312962
936.724195	42.203255
937.128049	42.070588
937.531867	41.930305
937.935649	41.735211
938.339395	41.581726
938.743104	41.404043
939.146777	41.236715
939.550414	41.051399
939.954014	40.869146
940.357578	40.668241
940.761105	40.463374
941.164596	40.286852
941.568050	40.100581
941.971468	39.892441
942.374850	39.720963
942.778195	39.574735
943.181503	39.454483
943.584775	39.333741
943.988010	39.235652
944.391209	39.135229
944.794371	39.041063
945.197496	38.992992
945.600585	38.937044
946.003637	38.890888
946.406653	38.865256
946.809632	38.853673
947.212574	38.847235
947.615479	38.850855
948.018347	38.872747
948.421179	38.894723
948.823974	38.920367
949.226732	38.997367
949.629453	39.035102
950.032138	39.105400
950.434785	39.218512
950.837396	39.320027
951.239969	39.443729
951.642506	39.535972
952.045006	39.607293
952.447469	39.681825
952.849895	39.798641
953.252283	39.902330
953.654635	39.979152
954.056950	40.062870
954.459227	40.156129
954.861468	40.254815
955.263671	40.317902
955.665838	40.356135
956.067967	40.404529
956.470059	40.445198
956.872114	40.477814
957.274131	40.503871
957.676112	40.469353
958.078055	40.510319
958.479961	40.506393
958.881829	40.471998
959.283661	40.474115
959.685455	40.425803
960.087211	40.394544
960.488931	40.364654
960.890613	40.310770
961.292257	40.199575
961.693864	40.102227
962.095434	40.000303
962.496966	39.824683
962.898461	39.698710
963.299918	39.558916
963.701338	39.410001
964.102720	39.208919
964.504065	39.073572
964.905372	38.926971
965.306641	38.764818
965.707873	38.628183
966.109068	38.487590
966.510224	38.356390
966.911343	38.181044
967.312425	38.052680
967.713468	37.952687
968.114474	37.794849
968.515442	37.642808
968.916373	37.498703
969.317265	37.383795
969.718120	37.284574
970.118937	37.239418
970.519716	37.131010
970.920458	37.038791
971.321161	36.977207
971.721827	36.894081
972.122454	36.800097
972.523044	36.734165
972.923596	36.692273
973.324110	36.642364
973.724585	36.691000
974.125023	36.675249
974.525423	36.682739
974.925785	36.749185
975.326108	36.785344
975.726394	36.814178
976.126642	36.775285
976.526851	36.870478
976.927022	36.888322
977.327155	36.995314
977.727250	37.057077
978.127307	37.113368
978.527325	37.167931
978.927306	37.258459
979.327248	37.389128
979.727151	37.394425
980.127017	37.437015
980.526844	37.499654
980.926633	37.559719
981.326383	37.664239
981.726095	37.719785
982.125769	37.777646
982.525404	37.728860
982.925001	37.688024
983.324560	37.724012
983.724079	37.773744
984.123561	37.758247
984.523004	37.832795
984.922408	37.836859
985.321774	37.801271
985.721102	37.755331
986.120390	37.690255
986.519641	37.652050
986.918852	37.580694
987.318025	37.515966
987.717159	37.340560
988.116255	37.324009
988.515312	37.336645
988.914330	37.232715
989.313310	37.180740
989.712250	36.989057
990.111152	36.963628
990.510015	36.836855
990.908840	36.755238
991.307625	36.627357
991.706372	36.493235
992.105080	36.434861
992.503749	36.257852
992.902379	36.126889
993.300970	36.104956
993.699522	35.982745
994.098035	35.819990
994.496510	35.683905
994.894945	35.695740
995.293341	35.775574
995.691698	35.736721
996.090016	35.744313
996.488296	35.734160
996.886535	35.725833
997.284736	35.698047
997.682898	35.527740
998.081021	35.632715
998.479104	35.566060
998.877148	35.734480
999.275153	35.717287
999.673119	35.846383
1000.071046	36.034964
1000.468933	35.980096
1000.866781	35.981435
1001.264590	36.132075
1001.662359	36.158064
1002.060089	36.426726
1002.457780	36.285943
1002.855431	36.416010
1003.253043	36.554596
1003.650615	36.685656
1004.048148	36.799347
1004.445642	37.038151
1004.843096	37.431237
1005.240511	37.583940
1005.637886	37.714860
1006.035221	38.043798
1006.432517	38.457188
1006.829774	38.887814
1007.226991	39.086496
1007.624168	39.176480
1008.021306	39.332998
1008.418404	39.534884
1008.815462	39.773478
1009.212481	39.870436
1009.609460	40.096753
1010.006399	40.585333
1010.403298	40.746394
1010.800158	41.247851
1011.196978	41.328259
1011.593758	41.837774
1011.990498	42.001984
1012.387199	42.262074
1012.783860	42.647746
1013.180480	43.004560
1013.577061	43.080827
1013.973602	43.588926
1014.370103	43.729059
1014.766564	44.278779
1015.162985	44.519196
1015.559366	44.673963
1015.955708	44.877533
1016.352009	45.080701
1016.748270	45.275304
1017.144491	45.279383
1017.540671	45.946222
1017.936812	46.259757
1018.332913	46.069109
1018.728973	46.141479
1019.124994	46.004747
1019.520974	46.286848
1019.916914	46.805916
1020.312814	47.040396
