Time1=100ms:Average1=5:Objective=10X:Aperture=1: (11/28/2018 10:55:07 AM)
11/28/2018 10:55:07 AM
Reflectance
10X
Ap#: 1
Avg1: 5.000000
Avg2: 0.000000
Int.Time1:100.000000

350.166136	64.701065
350.601937	64.861006
351.037728	65.338611
351.473509	64.864170
351.909281	64.952545
352.345042	65.424882
352.780794	65.355086
353.216536	65.270720
353.652267	65.258093
354.087989	65.120154
354.523701	65.369411
354.959403	64.867000
355.395095	64.844370
355.830777	64.884890
356.266449	65.164369
356.702110	65.340508
357.137762	65.761302
357.573404	65.970123
358.009035	65.957257
358.444656	65.759172
358.880268	65.999821
359.315869	66.005162
359.751459	66.196806
360.187040	65.985362
360.622610	65.761743
361.058170	65.711984
361.493720	65.559316
361.929260	65.767616
362.364789	66.115776
362.800308	65.936805
363.235816	65.950648
363.671314	65.742715
364.106802	65.500089
364.542279	65.645534
364.977746	66.267199
365.413203	66.025868
365.848649	65.975912
366.284084	66.002832
366.719509	65.757549
367.154924	65.923623
367.590328	65.849543
368.025721	66.022687
368.461104	66.353150
368.896477	66.254854
369.331838	65.944899
369.767189	65.789935
370.202530	65.250153
370.637859	65.225795
371.073178	65.027179
371.508486	65.040579
371.943784	64.847484
372.379071	64.865334
372.814347	64.749391
373.249612	64.709981
373.684866	64.723819
374.120110	64.712534
374.555343	65.019144
374.990565	65.014858
375.425776	64.805104
375.860976	64.855673
376.296165	64.971999
376.731343	65.137052
377.166511	65.269513
377.601667	65.399106
378.036812	65.164327
378.471946	64.682332
378.907070	65.169225
379.342182	64.867449
379.777283	65.191304
380.212373	65.561136
380.647452	65.351407
381.082520	65.520798
381.517576	65.221505
381.952622	65.193418
382.387656	65.646876
382.822679	65.715521
383.257691	65.763270
383.692692	66.085675
384.127681	66.116345
384.562659	66.208625
384.997626	66.053858
385.432581	66.306695
385.867525	66.115275
386.302458	66.669541
386.737379	66.626558
387.172289	66.866541
387.607188	67.069512
388.042075	67.126575
388.476951	67.290278
388.911815	67.314218
389.346668	67.121315
389.781509	67.283481
390.216338	67.131508
390.651157	66.863556
391.085963	66.761961
391.520758	66.818335
391.955541	66.823609
392.390313	66.484808
392.825073	66.703084
393.259821	66.538171
393.694558	66.245079
394.129283	65.920668
394.563996	65.605732
394.998698	65.732294
395.433388	65.777851
395.868066	65.477906
396.302732	65.493044
396.737386	65.510897
397.172029	65.246956
397.606659	64.911642
398.041278	64.561066
398.475885	64.271806
398.910480	63.924947
399.345063	63.672849
399.779634	62.572987
400.214194	61.535852
400.648741	60.430831
401.083276	59.149289
401.517799	57.573956
401.952310	55.661143
402.386809	53.862451
402.821296	51.949878
403.255771	49.716316
403.690234	47.731918
404.124684	45.348713
404.559123	43.166138
404.993549	40.760537
405.427963	38.567523
405.862365	36.562076
406.296754	34.421303
406.731131	32.330733
407.165496	30.578362
407.599849	28.917646
408.034190	27.337317
408.468518	25.725751
408.902833	24.314887
409.337137	23.127303
409.771428	21.970042
410.205706	20.830088
410.639973	19.846003
411.074226	18.901911
411.508467	18.014367
411.942696	17.291941
412.376912	16.574970
412.811116	15.936824
413.245307	15.424553
413.679486	14.943119
414.113652	14.463965
414.547805	14.025706
414.981946	13.671460
415.416074	13.367824
415.850190	13.055012
416.284293	12.749940
416.718383	12.509227
417.152460	12.277017
417.586525	12.075619
418.020577	11.875160
418.454616	11.696896
418.888643	11.532151
419.322656	11.374581
419.756657	11.264878
420.190645	11.157883
420.624620	11.029033
421.058582	10.961969
421.492531	10.877504
421.926468	10.796696
422.360391	10.722567
422.794301	10.646932
423.228199	10.577663
423.662083	10.553753
424.095955	10.523248
424.529813	10.519709
424.963658	10.530224
425.397491	10.510812
425.831310	10.530607
426.265116	10.530718
426.698909	10.512523
427.132689	10.528152
427.566455	10.557361
428.000209	10.563950
428.433949	10.552184
428.867676	10.560142
429.301389	10.569047
429.735090	10.614101
430.168777	10.635075
430.602451	10.660368
431.036111	10.664229
431.469759	10.695874
431.903392	10.715322
432.337013	10.723897
432.770620	10.751499
433.204213	10.766684
433.637794	10.801966
434.071360	10.846921
434.504914	10.875893
434.938453	10.902775
435.371979	10.931863
435.805492	10.984475
436.238991	11.019625
436.672477	11.048853
437.105949	11.081813
437.539407	11.116824
437.972852	11.147606
438.406283	11.169845
438.839700	11.205043
439.273104	11.231966
439.706494	11.267056
440.139871	11.312583
440.573233	11.337569
441.006582	11.365992
441.439917	11.406331
441.873238	11.440652
442.306546	11.476461
442.739839	11.512532
443.173119	11.519396
443.606385	11.559197
444.039636	11.579021
444.472874	11.624175
444.906099	11.659017
445.339309	11.716094
445.772505	11.775560
446.205687	11.817728
446.638855	11.874460
447.072009	11.914445
447.505149	11.959433
447.938275	11.997899
448.371387	12.044502
448.804485	12.087225
449.237569	12.113244
449.670638	12.140448
450.103694	12.175367
450.536735	12.197057
450.969762	12.239118
451.402774	12.285746
451.835773	12.332332
452.268757	12.381587
452.701727	12.414120
453.134683	12.458900
453.567624	12.494127
454.000551	12.536173
454.433464	12.578117
454.866362	12.616685
455.299246	12.662802
455.732116	12.706411
456.164971	12.758448
456.597811	12.815877
457.030638	12.857311
457.463449	12.909698
457.896246	12.971826
458.329029	13.023846
458.761797	13.068652
459.194551	13.110453
459.627290	13.161879
460.060014	13.186147
460.492724	13.228644
460.925419	13.264374
461.358099	13.290553
461.790765	13.323241
462.223416	13.357693
462.656052	13.391437
463.088674	13.421503
463.521281	13.459269
463.953873	13.502850
464.386450	13.533012
464.819012	13.557831
465.251560	13.594149
465.684093	13.629747
466.116611	13.675029
466.549114	13.700820
466.981602	13.740022
467.414075	13.758315
467.846533	13.776677
468.278977	13.794877
468.711405	13.810940
469.143818	13.820414
469.576216	13.826082
470.008600	13.846931
470.440968	13.852398
470.873321	13.867821
471.305659	13.870835
471.737982	13.865631
472.170289	13.871981
472.602582	13.865048
473.034859	13.848028
473.467122	13.851845
473.899369	13.831336
474.331600	13.808073
474.763817	13.781928
475.196018	13.757054
475.628204	13.736415
476.060375	13.699600
476.492530	13.681835
476.924670	13.651735
477.356795	13.614089
477.788904	13.579588
478.220998	13.554847
478.653076	13.533555
479.085139	13.496654
479.517186	13.473531
479.949219	13.459344
480.381235	13.434314
480.813236	13.423592
481.245221	13.413937
481.677191	13.407621
482.109146	13.388906
482.541084	13.373936
482.973008	13.358381
483.404915	13.329585
483.836807	13.321742
484.268683	13.310197
484.700544	13.300609
485.132388	13.303458
485.564217	13.300212
485.996031	13.317840
486.427828	13.338327
486.859610	13.365422
487.291376	13.408319
487.723126	13.463225
488.154860	13.531333
488.586579	13.604747
489.018281	13.669383
489.449968	13.754532
489.881639	13.841399
490.313293	13.933066
490.744932	14.032967
491.176555	14.144309
491.608162	14.247282
492.039753	14.344819
492.471328	14.463689
492.902886	14.583137
493.334429	14.706496
493.765956	14.835976
494.197466	14.968761
494.628960	15.107394
495.060439	15.252846
495.491901	15.403736
495.923347	15.563963
496.354776	15.725213
496.786190	15.893145
497.217587	16.052763
497.648968	16.211623
498.080332	16.377038
498.511681	16.536767
498.943013	16.699131
499.374328	16.857453
499.805628	17.014154
500.236911	17.167855
500.668177	17.319304
501.099427	17.466692
501.530661	17.618432
501.961878	17.763599
502.393079	17.918846
502.824264	18.077749
503.255431	18.223736
503.686583	18.381578
504.117717	18.533363
504.548835	18.675932
504.979937	18.820299
505.411022	18.963455
505.842090	19.096882
506.273142	19.225577
506.704177	19.346813
507.135195	19.471178
507.566197	19.582567
507.997182	19.694693
508.428150	19.807147
508.859102	19.920706
509.290036	20.019715
509.720954	20.122036
510.151855	20.225877
510.582739	20.338252
511.013607	20.451983
511.444457	20.561507
511.875291	20.684782
512.306107	20.811891
512.736907	20.940427
513.167690	21.092630
513.598456	21.240532
514.029205	21.393137
514.459936	21.551515
514.890651	21.715262
515.321349	21.883038
515.752030	22.048970
516.182693	22.223265
516.613340	22.404548
517.043969	22.593064
517.474582	22.798958
517.905177	23.004574
518.335755	23.224977
518.766315	23.462784
519.196859	23.721265
519.627385	23.983868
520.057894	24.268775
520.488386	24.577285
520.918860	24.913059
521.349318	25.270530
521.779757	25.645262
522.210180	26.061973
522.640585	26.508522
523.070973	26.990269
523.501343	27.505341
523.931696	28.051450
524.362031	28.637862
524.792349	29.274466
525.222650	29.943085
525.652933	30.640119
526.083198	31.389410
526.513446	32.166823
526.943677	32.980863
527.373890	33.825072
527.804085	34.705259
528.234262	35.621762
528.664422	36.574028
529.094565	37.561553
529.524689	38.563665
529.954796	39.603423
530.384885	40.650580
530.814957	41.706244
531.245011	42.790948
531.675047	43.883638
532.105065	44.982579
532.535065	46.112009
532.965048	47.259345
533.395013	48.402789
533.824959	49.534739
534.254888	50.688387
534.684799	51.862451
535.114693	53.038233
535.544568	54.184858
535.974425	55.307340
536.404264	56.432325
536.834086	57.536950
537.263889	58.624969
537.693674	59.681958
538.123441	60.704028
538.553190	61.700334
538.982921	62.681924
539.412634	63.623613
539.842329	64.545192
540.272006	65.452652
540.701664	66.341400
541.131304	67.214692
541.560926	68.050094
541.990530	68.858062
542.420116	69.632099
542.849683	70.388577
543.279232	71.108563
543.708763	71.817255
544.138275	72.503424
544.567769	73.177755
544.997245	73.830204
545.426702	74.456742
545.856141	75.057155
546.285562	75.665224
546.714964	76.242742
547.144347	76.831250
547.573713	77.394321
548.003059	77.938707
548.432387	78.484244
548.861697	79.006340
549.290988	79.526616
549.720260	80.019136
550.149514	80.490604
550.578750	80.941045
551.007966	81.380156
551.437164	81.800550
551.866344	82.211709
552.295504	82.594253
552.724646	82.953000
553.153769	83.287733
553.582874	83.584350
554.011960	83.858651
554.441027	84.088850
554.870075	84.308304
555.299104	84.513375
555.728115	84.692275
556.157106	84.852713
556.586079	85.007466
557.015033	85.124122
557.443968	85.215058
557.872884	85.300689
558.301781	85.385682
558.730659	85.455371
559.159518	85.513544
559.588358	85.538456
560.017180	85.578874
560.445982	85.622598
560.874765	85.668338
561.303528	85.709207
561.732273	85.735003
562.160999	85.772587
562.589705	85.816054
563.018393	85.860209
563.447061	85.910206
563.875710	85.949881
564.304340	85.993906
564.732950	86.055993
565.161542	86.105216
565.590114	86.175187
566.018666	86.242421
566.447200	86.323059
566.875714	86.412457
567.304208	86.504653
567.732684	86.594218
568.161140	86.675718
568.589576	86.766365
569.017993	86.865935
569.446391	86.939735
569.874769	87.015741
570.303128	87.082062
570.731467	87.155236
571.159787	87.184900
571.588087	87.207363
572.016368	87.242316
572.444629	87.252223
572.872870	87.256396
573.301092	87.252865
573.729294	87.226646
574.157476	87.191564
574.585639	87.130845
575.013782	87.080297
575.441906	87.013154
575.870009	86.938425
576.298093	86.862408
576.726157	86.774711
577.154202	86.704785
577.582226	86.644456
578.010231	86.568568
578.438216	86.503212
578.866181	86.442667
579.294126	86.397477
579.722051	86.355902
580.149957	86.322538
580.577842	86.285295
581.005707	86.276181
581.433553	86.275913
581.861378	86.256381
582.289184	86.255218
582.716969	86.267745
583.144734	86.287281
583.572479	86.332095
584.000205	86.377900
584.427910	86.448072
584.855594	86.515174
585.283259	86.582191
585.710904	86.649534
586.138528	86.734908
586.566132	86.820447
586.993716	86.906351
587.421280	86.987115
587.848823	87.093185
588.276346	87.177155
588.703849	87.264644
589.131332	87.359545
589.558794	87.431554
589.986236	87.521536
590.413657	87.600076
590.841058	87.660620
591.268438	87.717578
591.695799	87.773963
592.123138	87.811412
592.550458	87.835627
592.977756	87.849825
593.405034	87.867474
593.832292	87.879249
594.259529	87.875593
594.686746	87.873262
595.113942	87.876422
595.541117	87.858590
595.968272	87.840993
596.395406	87.808845
596.822519	87.783755
597.249612	87.742638
597.676684	87.695104
598.103735	87.643711
598.530766	87.588305
598.957775	87.543981
599.384764	87.474763
599.811733	87.401485
600.238680	87.327670
600.665606	87.241334
601.092512	87.134595
601.519397	87.013641
601.946261	86.885712
602.373104	86.748247
602.799926	86.595029
603.226727	86.406583
603.653507	86.199389
604.080266	85.977382
604.507004	85.732886
604.933721	85.450447
605.360417	85.148081
605.787092	84.816531
606.213746	84.455709
606.640379	84.053040
607.066991	83.629585
607.493581	83.191120
607.920150	82.707392
608.346699	82.201030
608.773226	81.670302
609.199731	81.114114
609.626216	80.539093
610.052679	79.919362
610.479121	79.295418
610.905542	78.645963
611.331941	77.969578
611.758319	77.268938
612.184676	76.544836
612.611011	75.796294
613.037325	75.028577
613.463617	74.237749
613.889888	73.416991
614.316138	72.583020
614.742366	71.745575
615.168573	70.889299
615.594758	70.013603
616.020921	69.135543
616.447063	68.246205
616.873184	67.364829
617.299283	66.466533
617.725360	65.575667
618.151416	64.689912
618.577450	63.808170
619.003462	62.940195
619.429453	62.068465
619.855422	61.213099
620.281369	60.355327
620.707295	59.498499
621.133199	58.658638
621.559081	57.826676
621.984941	56.993981
622.410779	56.178023
622.836596	55.350596
623.262391	54.539090
623.688163	53.726360
624.113914	52.913351
624.539644	52.122046
624.965351	51.332374
625.391036	50.537985
625.816699	49.759923
626.242340	48.981189
626.667960	48.205957
627.093557	47.456714
627.519132	46.713123
627.944685	45.979335
628.370216	45.267073
628.795725	44.564346
629.221212	43.886637
629.646677	43.241904
630.072119	42.615206
630.497540	42.032959
630.922938	41.478366
631.348314	40.961683
631.773668	40.486564
632.198999	40.042807
632.624308	39.654127
633.049595	39.301805
633.474860	38.997704
633.900102	38.735411
634.325322	38.513510
634.750520	38.335747
635.175695	38.209328
635.600848	38.118998
636.025978	38.076202
636.451086	38.069077
636.876171	38.100032
637.301234	38.173123
637.726275	38.268752
638.151293	38.396849
638.576288	38.568641
639.001261	38.766407
639.426211	38.998757
639.851139	39.260021
640.276044	39.544077
640.700927	39.848191
641.125787	40.181617
641.550624	40.523695
641.975438	40.883182
642.400230	41.252577
642.824999	41.624333
643.249745	41.997726
643.674469	42.373636
644.099169	42.745921
644.523847	43.107971
644.948502	43.456159
645.373135	43.799868
645.797744	44.118783
646.222330	44.424797
646.646894	44.708928
647.071435	44.974797
647.495953	45.216443
647.920447	45.425843
648.344919	45.606067
648.769368	45.765785
649.193794	45.893110
649.618197	46.000693
650.042576	46.082384
650.466933	46.150910
650.891267	46.202027
651.315577	46.231359
651.739864	46.243338
652.164129	46.239081
652.588370	46.219008
653.012587	46.181913
653.436782	46.127050
653.860953	46.063229
654.285102	45.990532
654.709226	45.913473
655.133328	45.830741
655.557406	45.737286
655.981461	45.655916
656.405493	45.579870
656.829501	45.485974
657.253486	45.395643
657.677448	45.312816
658.101386	45.239714
658.525301	45.171148
658.949192	45.126321
659.373060	45.083970
659.796904	45.058049
660.220725	45.048316
660.644522	45.044660
661.068296	45.054079
661.492046	45.079872
661.915772	45.121743
662.339475	45.180569
662.763154	45.249312
663.186810	45.326467
663.610442	45.402631
664.034050	45.489874
664.457635	45.589317
664.881196	45.688444
665.304733	45.786752
665.728247	45.888895
666.151736	45.993667
666.575202	46.102256
666.998644	46.206924
667.422062	46.305455
667.845457	46.406508
668.268827	46.504343
668.692174	46.602253
669.115496	46.681692
669.538795	46.751220
669.962070	46.830703
670.385321	46.903876
670.808547	46.958305
671.231750	47.003174
671.654929	47.033384
672.078084	47.042764
672.501214	47.033929
672.924321	46.999313
673.347404	46.944060
673.770462	46.881109
674.193496	46.799379
674.616506	46.697834
675.039492	46.571937
675.462454	46.427185
675.885391	46.259380
676.308305	46.079121
676.731194	45.892094
677.154058	45.688550
677.576899	45.468633
677.999715	45.241938
678.422507	45.003998
678.845274	44.764873
679.268017	44.525668
679.690736	44.275004
680.113430	44.031471
680.536100	43.780905
680.958746	43.535517
681.381367	43.285868
681.803963	43.047952
682.226535	42.820501
682.649083	42.602323
683.071605	42.388785
683.494104	42.175994
683.916578	41.987145
684.339027	41.811047
684.761451	41.650696
685.183851	41.508640
685.606227	41.383386
686.028577	41.280594
686.450903	41.191640
686.873204	41.119243
687.295481	41.064495
687.717733	41.035558
688.139959	41.021233
688.562162	41.030811
688.984339	41.058736
689.406492	41.105960
689.828619	41.166189
690.250722	41.239938
690.672800	41.325079
691.094853	41.424407
691.516881	41.546165
691.938884	41.664850
692.360863	41.792914
692.782816	41.938596
693.204744	42.075019
693.626647	42.218816
694.048526	42.361033
694.470379	42.510240
694.892207	42.649299
695.314010	42.788164
695.735788	42.916121
696.157540	43.043489
696.579268	43.166535
697.000970	43.278802
697.422648	43.380530
697.844300	43.473384
698.265926	43.557061
698.687528	43.627278
699.109104	43.695080
699.530655	43.747269
699.952181	43.796935
700.373681	43.838629
700.795156	43.858973
701.216606	43.868561
701.638030	43.872520
702.059429	43.863539
702.480803	43.849463
702.902151	43.824396
703.323473	43.791508
703.744770	43.755070
704.166042	43.718134
704.587288	43.664783
705.008509	43.620630
705.429704	43.570632
705.850873	43.511921
706.272017	43.473444
706.693135	43.436830
707.114228	43.403588
707.535295	43.376666
707.956336	43.362685
708.377352	43.355405
708.798342	43.363431
709.219306	43.376958
709.640245	43.411859
710.061157	43.465299
710.482044	43.519076
710.902905	43.595253
711.323741	43.680631
711.744550	43.775914
712.165334	43.881168
712.586092	44.008733
713.006823	44.139387
713.427529	44.288737
713.848209	44.455289
714.268863	44.634601
714.689492	44.819983
715.110094	45.029856
715.530670	45.248389
715.951220	45.477061
716.371744	45.726129
716.792242	45.988489
717.212714	46.253106
717.633159	46.536818
718.053579	46.832046
718.473973	47.137921
718.894340	47.457327
719.314681	47.777104
719.734996	48.101115
720.155285	48.432113
720.575547	48.773725
720.995784	49.112704
721.415994	49.455230
721.836177	49.795729
722.256335	50.129871
722.676466	50.446454
723.096570	50.749405
723.516649	51.055310
723.936701	51.345275
724.356726	51.612450
724.776725	51.877886
725.196698	52.130628
725.616644	52.364632
726.036564	52.576109
726.456457	52.773471
726.876324	52.951870
727.296164	53.118467
727.715977	53.255112
728.135764	53.373115
728.555525	53.467914
728.975258	53.551222
729.394966	53.608079
729.814646	53.651855
730.234300	53.673585
730.653927	53.681061
731.073527	53.662539
731.493101	53.634950
731.912648	53.582193
732.332168	53.517103
732.751661	53.446174
733.171128	53.358076
733.590568	53.243187
734.009980	53.119461
734.429366	52.976524
734.848726	52.826871
735.268058	52.659046
735.687363	52.494043
736.106641	52.320497
736.525893	52.144782
736.945117	51.963749
737.364314	51.783170
737.783485	51.602789
738.202628	51.414274
738.621744	51.220886
739.040834	51.029959
739.459896	50.837917
739.878931	50.655113
740.297939	50.469078
740.716919	50.301038
741.135873	50.130217
741.554799	49.970793
741.973698	49.812049
742.392570	49.665033
742.811415	49.521008
743.230232	49.381568
743.649022	49.260238
744.067785	49.150809
744.486521	49.034561
744.905229	48.929212
745.323909	48.828145
745.742563	48.730404
746.161189	48.643819
746.579787	48.577296
746.998358	48.514645
747.416902	48.454789
747.835418	48.399098
748.253907	48.357578
748.672368	48.316202
749.090802	48.274039
749.509208	48.238381
749.927586	48.207895
750.345937	48.177010
750.764261	48.144698
751.182556	48.119576
751.600824	48.094261
752.019065	48.084207
752.437277	48.068257
752.855462	48.054964
753.273620	48.046729
753.691749	48.044131
754.109851	48.041663
754.527925	48.040860
754.945971	48.049011
755.363989	48.056365
755.781980	48.056352
756.199943	48.084114
756.617877	48.091274
757.035784	48.091618
757.453663	48.107993
757.871514	48.122370
758.289337	48.138203
758.707132	48.149087
759.124899	48.156266
759.542639	48.158475
759.960350	48.158913
760.378033	48.166434
760.795688	48.166357
761.213314	48.163312
761.630913	48.150925
762.048484	48.148160
762.466026	48.131895
762.883541	48.099823
763.301027	48.076596
763.718485	48.050100
764.135914	48.019227
764.553316	47.981744
764.970689	47.936456
765.388034	47.884686
765.805351	47.817170
766.222639	47.747383
766.639899	47.655896
767.057131	47.565719
767.474334	47.468240
767.891509	47.361137
768.308655	47.249968
768.725773	47.137921
769.142863	47.016792
769.559924	46.893996
769.976957	46.775727
770.393961	46.644268
770.810936	46.524050
771.227883	46.405112
771.644802	46.284225
772.061692	46.169442
772.478553	46.049650
772.895386	45.932856
773.312190	45.822614
773.728965	45.720882
774.145712	45.630669
774.562430	45.555135
774.979119	45.483526
775.395780	45.416052
775.812411	45.374126
776.229014	45.337755
776.645589	45.311540
777.062134	45.287980
777.478651	45.283113
777.895138	45.290582
778.311597	45.310389
778.728027	45.350598
779.144428	45.408421
779.560800	45.483892
779.977143	45.568072
780.393458	45.667081
780.809743	45.785703
781.225999	45.905396
781.642226	46.054416
782.058425	46.205571
782.474594	46.374841
782.890734	46.559665
783.306845	46.757826
783.722926	46.958628
784.138979	47.165514
784.555003	47.390658
784.970997	47.621227
785.386962	47.860408
785.802898	48.105651
786.218805	48.349892
786.634682	48.591713
787.050531	48.833264
787.466349	49.067340
787.882139	49.291200
788.297899	49.524461
788.713630	49.745453
789.129332	49.958652
789.545004	50.165140
789.960647	50.359970
790.376260	50.545752
790.791844	50.718551
791.207399	50.887146
791.622924	51.035251
792.038419	51.172658
792.453885	51.307344
792.869321	51.439542
793.284728	51.567508
793.700106	51.677728
794.115453	51.792855
794.530771	51.881882
794.946060	51.971165
795.361319	52.049494
795.776548	52.120284
796.191747	52.187100
796.606917	52.248434
797.022057	52.300177
797.437167	52.340058
797.852248	52.380092
798.267298	52.405005
798.682319	52.430527
799.097310	52.457384
799.512271	52.473216
799.927203	52.484424
800.342104	52.508006
800.756976	52.517398
801.171818	52.532576
801.586629	52.536559
802.001411	52.533742
802.416163	52.523736
802.830885	52.536322
803.245577	52.546819
803.660238	52.558770
804.074870	52.575054
804.489472	52.605992
804.904043	52.633946
805.318585	52.664261
805.733096	52.693501
806.147577	52.715306
806.562028	52.746393
806.976449	52.780661
807.390840	52.817050
807.805200	52.853922
808.219530	52.901019
808.633830	52.933703
809.048100	52.973202
809.462339	53.024956
809.876548	53.077248
810.290727	53.130737
810.704875	53.170375
811.118993	53.213850
811.533080	53.247567
811.947137	53.263587
812.361164	53.282896
812.775160	53.286897
813.189126	53.274096
813.603061	53.266007
814.016966	53.223755
814.430840	53.180723
814.844684	53.128473
815.258497	53.078728
815.672280	53.000159
816.086032	52.909401
816.499753	52.813831
816.913444	52.704124
817.327104	52.573431
817.740733	52.433319
818.154331	52.281168
818.567899	52.119003
818.981436	51.951157
819.394943	51.773778
819.808418	51.589009
820.221863	51.402457
820.635277	51.203098
821.048660	50.986212
821.462013	50.779420
821.875334	50.556216
822.288625	50.320144
822.701884	50.084907
823.115113	49.846267
823.528311	49.611227
823.941478	49.373892
824.354614	49.146999
824.767718	48.921631
825.180792	48.703671
825.593835	48.498741
826.006847	48.286917
826.419827	48.081031
826.832777	47.898487
827.245695	47.715629
827.658582	47.555423
828.071438	47.396708
828.484263	47.249546
828.897057	47.101625
829.309819	46.964730
829.722551	46.842700
830.135251	46.722404
830.547919	46.622521
830.960557	46.526187
831.373163	46.421898
831.785738	46.320949
832.198281	46.231306
832.610793	46.145380
833.023274	46.062460
833.435723	45.972214
833.848141	45.909335
834.260528	45.848587
834.672883	45.784091
835.085206	45.723268
835.497498	45.660565
835.909758	45.608356
836.321987	45.535306
836.734185	45.478971
837.146350	45.426573
837.558485	45.386273
837.970587	45.342551
838.382658	45.299733
838.794697	45.262482
839.206705	45.236893
839.618681	45.211570
840.030625	45.192160
840.442538	45.188620
840.854418	45.173365
841.266267	45.176112
841.678084	45.211568
842.089870	45.243668
842.501623	45.270440
842.913345	45.329767
843.325035	45.389586
843.736693	45.462327
844.148319	45.567207
844.559913	45.693668
844.971475	45.807495
845.383005	45.943884
845.794504	46.082468
846.205970	46.256680
846.617404	46.416983
847.028806	46.584591
847.440176	46.770726
847.851514	46.961568
848.262820	47.173821
848.674094	47.376796
849.085336	47.613052
849.496546	47.848912
849.907723	48.058981
850.318868	48.274981
850.729981	48.491735
851.141062	48.704140
851.552110	48.912072
851.963127	49.104456
852.374111	49.309936
852.785062	49.492371
853.195982	49.653229
853.606869	49.818995
854.017723	49.965334
854.428546	50.074664
854.839336	50.182428
855.250093	50.287079
855.660818	50.377533
856.071511	50.428199
856.482171	50.468289
856.892799	50.468806
857.303394	50.443104
857.713956	50.421604
858.124486	50.390416
858.534984	50.342752
858.945449	50.258139
859.355881	50.155775
859.766280	50.052750
860.176647	49.964577
860.586982	49.848334
860.997283	49.709168
861.407552	49.570068
861.817789	49.425061
862.227992	49.267204
862.638163	49.131262
863.048301	48.991444
863.458406	48.846809
863.868478	48.706941
864.278518	48.584283
864.688524	48.456331
865.098498	48.314551
865.508439	48.184506
865.918347	48.056641
866.328222	47.920608
866.738064	47.804117
867.147873	47.699846
867.557649	47.570596
867.967392	47.460399
868.377102	47.337002
868.786779	47.242115
869.196423	47.154454
869.606034	47.065906
870.015612	46.999533
870.425156	46.914117
870.834668	46.815846
871.244146	46.739691
871.653591	46.648849
872.063003	46.581574
872.472382	46.487274
872.881728	46.380115
873.291040	46.270147
873.700319	46.143009
874.109564	46.030298
874.518777	45.895549
874.927956	45.756658
875.337102	45.611717
875.746214	45.440934
876.155293	45.277573
876.564338	45.105824
876.973350	44.931693
877.382329	44.751704
877.791274	44.562156
878.200186	44.400635
878.609064	44.222865
879.017909	44.065548
879.426720	43.887078
879.835497	43.713128
880.244241	43.566239
880.652952	43.410544
881.061629	43.278262
881.470272	43.142544
881.878881	43.016990
882.287457	42.925623
882.695999	42.814745
883.104507	42.728195
883.512982	42.664683
883.921423	42.593984
884.329830	42.563108
884.738203	42.529710
885.146543	42.525321
885.554849	42.523063
885.963120	42.531125
886.371358	42.588982
886.779563	42.619288
887.187733	42.678711
887.595869	42.746063
888.003971	42.822333
888.412040	42.936629
888.820074	43.028707
889.228074	43.141238
889.636041	43.252037
890.043973	43.384861
890.451871	43.519586
890.859736	43.650943
891.267566	43.784783
891.675362	43.913625
892.083124	44.026438
892.490851	44.171441
892.898545	44.291267
893.306204	44.402115
893.713829	44.513633
894.121420	44.610560
894.528977	44.699117
894.936499	44.782282
895.343987	44.857984
895.751441	44.921257
896.158860	44.957104
896.566246	44.995661
896.973596	45.000844
897.380913	45.001373
897.788195	44.977502
898.195442	44.934161
898.602655	44.889686
899.009834	44.804814
899.416978	44.728688
899.824088	44.616179
900.231163	44.516076
900.638204	44.381948
901.045210	44.227724
901.452181	44.071545
901.859118	43.873493
902.266021	43.690078
902.672888	43.503355
903.079721	43.317551
903.486520	43.094575
903.893283	42.874369
904.300012	42.645056
904.706707	42.451955
905.113366	42.201453
905.519991	41.976211
905.926581	41.769808
906.333136	41.524484
906.739656	41.300775
907.146142	41.068127
907.552592	40.833805
907.959008	40.620004
908.365389	40.406231
908.771735	40.204068
909.178046	40.019870
909.584322	39.848818
909.990563	39.684545
910.396769	39.531026
910.802940	39.380717
911.209076	39.239889
911.615177	39.096758
912.021243	38.974770
912.427274	38.884326
912.833270	38.770557
913.239231	38.660246
913.645156	38.553204
914.051046	38.466111
914.456902	38.409724
914.862721	38.297102
915.268506	38.228075
915.674256	38.152317
916.079970	38.091283
916.485649	38.020383
916.891292	37.964240
917.296901	37.915277
917.702474	37.867930
918.108011	37.810171
918.513514	37.749236
918.918980	37.696408
919.324412	37.627388
919.729808	37.583062
920.135169	37.521359
920.540494	37.453214
920.945783	37.392302
921.351037	37.324921
921.756256	37.249799
922.161439	37.152747
922.566586	37.088578
922.971698	37.023766
923.376775	36.948568
923.781815	36.899830
924.186820	36.823979
924.591790	36.777443
924.996723	36.694976
925.401621	36.626369
925.806484	36.563496
926.211310	36.494084
926.616101	36.426983
927.020856	36.358687
927.425575	36.303367
927.830259	36.219260
928.234906	36.140125
928.639518	36.070800
929.044094	36.020222
929.448634	35.963159
929.853138	35.887184
930.257606	35.820982
930.662038	35.766671
931.066434	35.694970
931.470795	35.644839
931.875119	35.598891
932.279407	35.566515
932.683659	35.516028
933.087875	35.488011
933.492055	35.473527
933.896199	35.452518
934.300307	35.408304
934.704379	35.403810
935.108414	35.368531
935.512414	35.350757
935.916377	35.359872
936.320304	35.340463
936.724195	35.333186
937.128049	35.297628
937.531867	35.287418
937.935649	35.245561
938.339395	35.240853
938.743104	35.230880
939.146777	35.207604
939.550414	35.175280
939.954014	35.155997
940.357578	35.119720
940.761105	35.078003
941.164596	35.025672
941.568050	34.965781
941.971468	34.880849
942.374850	34.803221
942.778195	34.726671
943.181503	34.652495
943.584775	34.577940
943.988010	34.482229
944.391209	34.395338
944.794371	34.246378
945.197496	34.130718
945.600585	33.997994
946.003637	33.850668
946.406653	33.709270
946.809632	33.576163
947.212574	33.434322
947.615479	33.276111
948.018347	33.082887
948.421179	32.878606
948.823974	32.680596
949.226732	32.523233
949.629453	32.325419
950.032138	32.133701
950.434785	31.962418
950.837396	31.783347
951.239969	31.581860
951.642506	31.425931
952.045006	31.243636
952.447469	31.064388
952.849895	30.902663
953.252283	30.746649
953.654635	30.583330
954.056950	30.426522
954.459227	30.312872
954.861468	30.186867
955.263671	30.078408
955.665838	29.960340
956.067967	29.843073
956.470059	29.744978
956.872114	29.649003
957.274131	29.607708
957.676112	29.572026
958.078055	29.535627
958.479961	29.456004
958.881829	29.400784
959.283661	29.387194
959.685455	29.368319
960.087211	29.338628
960.488931	29.365715
960.890613	29.366020
961.292257	29.344304
961.693864	29.328047
962.095434	29.322963
962.496966	29.309237
962.898461	29.355660
963.299918	29.360271
963.701338	29.389295
964.102720	29.389112
964.504065	29.403847
964.905372	29.426081
965.306641	29.404643
965.707873	29.413565
966.109068	29.444294
966.510224	29.486749
966.911343	29.471279
967.312425	29.475296
967.713468	29.470913
968.114474	29.422282
968.515442	29.414532
968.916373	29.409718
969.317265	29.384586
969.718120	29.351660
970.118937	29.299754
970.519716	29.218632
970.920458	29.214380
971.321161	29.156242
971.721827	29.105360
972.122454	29.029154
972.523044	29.021082
972.923596	28.994598
973.324110	28.946558
973.724585	28.934954
974.125023	28.894147
974.525423	28.835282
974.925785	28.841816
975.326108	28.788106
975.726394	28.743044
976.126642	28.717362
976.526851	28.691599
976.927022	28.684011
977.327155	28.691317
977.727250	28.682559
978.127307	28.670762
978.527325	28.685147
978.927306	28.633376
979.327248	28.651093
979.727151	28.617217
980.127017	28.650415
980.526844	28.697347
980.926633	28.727946
981.326383	28.720442
981.726095	28.749135
982.125769	28.787879
982.525404	28.817699
982.925001	28.912543
983.324560	28.918565
983.724079	28.992579
984.123561	28.990100
984.523004	29.049349
984.922408	29.042303
985.321774	29.013287
985.721102	29.017810
986.120390	28.994446
986.519641	29.042819
986.918852	29.095982
987.318025	29.071936
987.717159	29.043816
988.116255	29.045296
988.515312	29.001615
988.914330	28.966636
989.313310	28.985877
989.712250	28.954377
990.111152	28.999956
990.510015	29.049908
990.908840	29.009248
991.307625	29.034496
991.706372	28.954575
992.105080	28.955642
992.503749	28.903895
992.902379	28.906331
993.300970	28.901551
993.699522	28.933225
994.098035	28.974024
994.496510	28.940831
994.894945	28.948937
995.293341	28.907388
995.691698	28.957436
996.090016	28.985328
996.488296	28.959572
996.886535	29.080720
997.284736	29.067432
997.682898	29.041498
998.081021	29.178418
998.479104	29.215316
998.877148	29.282556
999.275153	29.264797
999.673119	29.397627
1000.071046	29.580014
1000.468933	29.688741
1000.866781	29.877321
1001.264590	30.077691
1001.662359	30.104258
1002.060089	30.317373
1002.457780	30.398528
1002.855431	30.442693
1003.253043	30.610279
1003.650615	30.766048
1004.048148	31.030995
1004.445642	31.165230
1004.843096	31.332217
1005.240511	31.543788
1005.637886	31.732874
1006.035221	31.845238
1006.432517	32.070279
1006.829774	32.347819
1007.226991	32.700724
1007.624168	32.977592
1008.021306	33.371041
1008.418404	33.787560
1008.815462	34.321978
1009.212481	34.352632
1009.609460	34.863708
1010.006399	35.292427
1010.403298	35.434001
1010.800158	36.045101
1011.196978	36.459365
1011.593758	37.044979
1011.990498	37.432477
1012.387199	37.727711
1012.783860	38.168652
1013.180480	38.426926
1013.577061	38.692908
1013.973602	39.212809
1014.370103	39.458643
1014.766564	39.861304
1015.162985	40.226691
1015.559366	40.496377
1015.955708	40.735617
1016.352009	41.002747
1016.748270	41.540978
1017.144491	41.849711
1017.540671	42.020243
1017.936812	42.281006
1018.332913	42.671614
1018.728973	42.987880
1019.124994	43.169831
1019.520974	43.381519
1019.916914	43.802409
1020.312814	43.544930
