Time1=100ms:Average1=5:Objective=10X:Aperture=1: (11/28/2018 10:56:55 AM)
11/28/2018 10:56:55 AM
Reflectance
10X
Ap#: 1
Avg1: 5.000000
Avg2: 0.000000
Int.Time1:100.000000

350.166136	62.964783
350.601937	63.248509
351.037728	63.479907
351.473509	63.313052
351.909281	63.382226
352.345042	63.898098
352.780794	64.290700
353.216536	64.429648
353.652267	64.269466
354.087989	64.111559
354.523701	63.981376
354.959403	63.962778
355.395095	64.156600
355.830777	64.152774
356.266449	64.430894
356.702110	64.652435
357.137762	64.982748
357.573404	65.107594
358.009035	64.755120
358.444656	64.652325
358.880268	64.803072
359.315869	64.554596
359.751459	64.260862
360.187040	63.923599
360.622610	63.752456
361.058170	63.823503
361.493720	63.671179
361.929260	63.731357
362.364789	64.329105
362.800308	64.156653
363.235816	64.033375
363.671314	64.170220
364.106802	63.874578
364.542279	64.091636
364.977746	63.985797
365.413203	63.731396
365.848649	63.620262
366.284084	63.559922
366.719509	63.596918
367.154924	63.836590
367.590328	63.753442
368.025721	64.046437
368.461104	64.409938
368.896477	64.084010
369.331838	63.964440
369.767189	64.080309
370.202530	63.900815
370.637859	63.653137
371.073178	63.571804
371.508486	63.478489
371.943784	63.795950
372.379071	63.570808
372.814347	63.905325
373.249612	64.448702
373.684866	64.575710
374.120110	64.582065
374.555343	64.827706
374.990565	65.198392
375.425776	65.128474
375.860976	64.907997
376.296165	64.674484
376.731343	64.611612
377.166511	64.630732
377.601667	64.855866
378.036812	64.519222
378.471946	64.360313
378.907070	64.924983
379.342182	64.789222
379.777283	64.895652
380.212373	65.058885
380.647452	64.980142
381.082520	65.220007
381.517576	65.015054
381.952622	64.831567
382.387656	64.920923
382.822679	65.058366
383.257691	64.888735
383.692692	64.871661
384.127681	65.001297
384.562659	65.102411
384.997626	65.113067
385.432581	64.872570
385.867525	64.934953
386.302458	64.979303
386.737379	64.770090
387.172289	64.913483
387.607188	64.978143
388.042075	64.761333
388.476951	64.710405
388.911815	64.429929
389.346668	64.232464
389.781509	64.469793
390.216338	64.621366
390.651157	64.357438
391.085963	64.155386
391.520758	64.703404
391.955541	64.889860
392.390313	64.445191
392.825073	64.240692
393.259821	64.174977
393.694558	63.899824
394.129283	63.941545
394.563996	63.889352
394.998698	64.040471
395.433388	63.936930
395.868066	63.723593
396.302732	63.547950
396.737386	63.433782
397.172029	63.251761
397.606659	63.067653
398.041278	62.559545
398.475885	62.197497
398.910480	61.804736
399.345063	61.299875
399.779634	60.487093
400.214194	59.443565
400.648741	58.350576
401.083276	57.233567
401.517799	55.836072
401.952310	54.156239
402.386809	52.196871
402.821296	50.271858
403.255771	48.381510
403.690234	46.338140
404.124684	44.141733
404.559123	42.040590
404.993549	39.580881
405.427963	37.432212
405.862365	35.426506
406.296754	33.588575
406.731131	31.552516
407.165496	29.788784
407.599849	28.054410
408.034190	26.386665
408.468518	24.935106
408.902833	23.654671
409.337137	22.482628
409.771428	21.343538
410.205706	20.346034
410.639973	19.372801
411.074226	18.511819
411.508467	17.748706
411.942696	17.083223
412.376912	16.417572
412.811116	15.828683
413.245307	15.299796
413.679486	14.830908
414.113652	14.370072
414.547805	13.950542
414.981946	13.602010
415.416074	13.290025
415.850190	13.025331
416.284293	12.714472
416.718383	12.420990
417.152460	12.172802
417.586525	11.949587
418.020577	11.700348
418.454616	11.512396
418.888643	11.331604
419.322656	11.164618
419.756657	11.010345
420.190645	10.867336
420.624620	10.742987
421.058582	10.615420
421.492531	10.504821
421.926468	10.379801
422.360391	10.264245
422.794301	10.151256
423.228199	10.066218
423.662083	9.978537
424.095955	9.911530
424.529813	9.842231
424.963658	9.784260
425.397491	9.708866
425.831310	9.656704
426.265116	9.611072
426.698909	9.548239
427.132689	9.516602
427.566455	9.475819
428.000209	9.434869
428.433949	9.370356
428.867676	9.311564
429.301389	9.263335
429.735090	9.252830
430.168777	9.229017
430.602451	9.221184
431.036111	9.175394
431.469759	9.162346
431.903392	9.135391
432.337013	9.098298
432.770620	9.059960
433.204213	9.033324
433.637794	9.021472
434.071360	8.998049
434.504914	8.971337
434.938453	8.958619
435.371979	8.944642
435.805492	8.941984
436.238991	8.930617
436.672477	8.924764
437.105949	8.909250
437.539407	8.893584
437.972852	8.887470
438.406283	8.860457
438.839700	8.849986
439.273104	8.848595
439.706494	8.824068
440.139871	8.822104
440.573233	8.792665
441.006582	8.778828
441.439917	8.776163
441.873238	8.786951
442.306546	8.779758
442.739839	8.774569
443.173119	8.755373
443.606385	8.739134
444.039636	8.715087
444.472874	8.705593
444.906099	8.697376
445.339309	8.697182
445.772505	8.696268
446.205687	8.707100
446.638855	8.708181
447.072009	8.708185
447.505149	8.720987
447.938275	8.737187
448.371387	8.751080
448.804485	8.756981
449.237569	8.753714
449.670638	8.763179
450.103694	8.761179
450.536735	8.763127
450.969762	8.771746
451.402774	8.782246
451.835773	8.805490
452.268757	8.814594
452.701727	8.818884
453.134683	8.840242
453.567624	8.854782
454.000551	8.879494
454.433464	8.900892
454.866362	8.911457
455.299246	8.911679
455.732116	8.916549
456.164971	8.922836
456.597811	8.934292
457.030638	8.947939
457.463449	8.952346
457.896246	8.976922
458.329029	9.003095
458.761797	9.015380
459.194551	9.028610
459.627290	9.037283
460.060014	9.046877
460.492724	9.056932
460.925419	9.057489
461.358099	9.060919
461.790765	9.073086
462.223416	9.080403
462.656052	9.089182
463.088674	9.092529
463.521281	9.107162
463.953873	9.127123
464.386450	9.151143
464.819012	9.170734
465.251560	9.184874
465.684093	9.212774
466.116611	9.233001
466.549114	9.247306
466.981602	9.267404
467.414075	9.284989
467.846533	9.294802
468.278977	9.304905
468.711405	9.319673
469.143818	9.339104
469.576216	9.355534
470.008600	9.380887
470.440968	9.411912
470.873321	9.439324
471.305659	9.472630
471.737982	9.497452
472.170289	9.522892
472.602582	9.554288
473.034859	9.580690
473.467122	9.603820
473.899369	9.615933
474.331600	9.632195
474.763817	9.646828
475.196018	9.656578
475.628204	9.673133
476.060375	9.700761
476.492530	9.722339
476.924670	9.749863
477.356795	9.773407
477.788904	9.786343
478.220998	9.812592
478.653076	9.827198
479.085139	9.844958
479.517186	9.873133
479.949219	9.896158
480.381235	9.917752
480.813236	9.935379
481.245221	9.957313
481.677191	9.983333
482.109146	10.012262
482.541084	10.045790
482.973008	10.085074
483.404915	10.115287
483.836807	10.145276
484.268683	10.187471
484.700544	10.222896
485.132388	10.260974
485.564217	10.296238
485.996031	10.337345
486.427828	10.382964
486.859610	10.426228
487.291376	10.465679
487.723126	10.519243
488.154860	10.573252
488.586579	10.628584
489.018281	10.685894
489.449968	10.733945
489.881639	10.796486
490.313293	10.858183
490.744932	10.925116
491.176555	11.000949
491.608162	11.065561
492.039753	11.141623
492.471328	11.214999
492.902886	11.278384
493.334429	11.348595
493.765956	11.415537
494.197466	11.487588
494.628960	11.562345
495.060439	11.625783
495.491901	11.687175
495.923347	11.747596
496.354776	11.808986
496.786190	11.876003
497.217587	11.946240
497.648968	12.023556
498.080332	12.095179
498.511681	12.169326
498.943013	12.255395
499.374328	12.332387
499.805628	12.406669
500.236911	12.481082
500.668177	12.563545
501.099427	12.625834
501.530661	12.694090
501.961878	12.757837
502.393079	12.817461
502.824264	12.883978
503.255431	12.943186
503.686583	13.005091
504.117717	13.071412
504.548835	13.133620
504.979937	13.206539
505.411022	13.288759
505.842090	13.381018
506.273142	13.483367
506.704177	13.594042
507.135195	13.714995
507.566197	13.848760
507.997182	13.988623
508.428150	14.146931
508.859102	14.327366
509.290036	14.520585
509.720954	14.731192
510.151855	14.972465
510.582739	15.223228
511.013607	15.507729
511.444457	15.824240
511.875291	16.183451
512.306107	16.574695
512.736907	17.012679
513.167690	17.498294
513.598456	18.042375
514.029205	18.638811
514.459936	19.290920
514.890651	19.989233
515.321349	20.753648
515.752030	21.578933
516.182693	22.454081
516.613340	23.392536
517.043969	24.385464
517.474582	25.431371
517.905177	26.530546
518.335755	27.669350
518.766315	28.850589
519.196859	30.064856
519.627385	31.318426
520.057894	32.588363
520.488386	33.878413
520.918860	35.197281
521.349318	36.555203
521.779757	37.938720
522.210180	39.352806
522.640585	40.797923
523.070973	42.263040
523.501343	43.742620
523.931696	45.254406
524.362031	46.762464
524.792349	48.305042
525.222650	49.835697
525.652933	51.373780
526.083198	52.893601
526.513446	54.408415
526.943677	55.902789
527.373890	57.372570
527.804085	58.816045
528.234262	60.237404
528.664422	61.643607
529.094565	63.013274
529.524689	64.353074
529.954796	65.660494
530.384885	66.921875
530.814957	68.158813
531.245011	69.353276
531.675047	70.514295
532.105065	71.635410
532.535065	72.727322
532.965048	73.793141
533.395013	74.832895
533.824959	75.835198
534.254888	76.804575
534.684799	77.768783
535.114693	78.720026
535.544568	79.623236
535.974425	80.488535
536.404264	81.337760
536.834086	82.138804
537.263889	82.923121
537.693674	83.669460
538.123441	84.361254
538.553190	85.034440
538.982921	85.669195
539.412634	86.292635
539.842329	86.892998
540.272006	87.478948
540.701664	88.037356
541.131304	88.581531
541.560926	89.104954
541.990530	89.606583
542.420116	90.106097
542.849683	90.575415
543.279232	91.025468
543.708763	91.467559
544.138275	91.902413
544.567769	92.325986
544.997245	92.722362
545.426702	93.121671
545.856141	93.501692
546.285562	93.872436
546.714964	94.226869
547.144347	94.590550
547.573713	94.960347
548.003059	95.301450
548.432387	95.657528
548.861697	95.982548
549.290988	96.310492
549.720260	96.620869
550.149514	96.941040
550.578750	97.235067
551.007966	97.540660
551.437164	97.846056
551.866344	98.140237
552.295504	98.415988
552.724646	98.670675
553.153769	98.921541
553.582874	99.148218
554.011960	99.374776
554.441027	99.586148
554.870075	99.801471
555.299104	100.011580
555.728115	100.196638
556.157106	100.388547
556.586079	100.580056
557.015033	100.752196
557.443968	100.904272
557.872884	101.061545
558.301781	101.237353
558.730659	101.371735
559.159518	101.502000
559.588358	101.630055
560.017180	101.752897
560.445982	101.868580
560.874765	101.960059
561.303528	102.047829
561.732273	102.113856
562.160999	102.178548
562.589705	102.245597
563.018393	102.291437
563.447061	102.325017
563.875710	102.345876
564.304340	102.356625
564.732950	102.369876
565.161542	102.358513
565.590114	102.371861
566.018666	102.375843
566.447200	102.364203
566.875714	102.363411
567.304208	102.357701
567.732684	102.339057
568.161140	102.307175
568.589576	102.272985
569.017993	102.245550
569.446391	102.201958
569.874769	102.147583
570.303128	102.094024
570.731467	102.026748
571.159787	101.935711
571.588087	101.834676
572.016368	101.750859
572.444629	101.657923
572.872870	101.556831
573.301092	101.439930
573.729294	101.306616
574.157476	101.193949
574.585639	101.059695
575.013782	100.918091
575.441906	100.793026
575.870009	100.629104
576.298093	100.470469
576.726157	100.307200
577.154202	100.137894
577.582226	99.978182
578.010231	99.816269
578.438216	99.655214
578.866181	99.485780
579.294126	99.320181
579.722051	99.164520
580.149957	98.984459
580.577842	98.808919
581.005707	98.644012
581.433553	98.477955
581.861378	98.298181
582.289184	98.123172
582.716969	97.939715
583.144734	97.781189
583.572479	97.613431
584.000205	97.453441
584.427910	97.307987
584.855594	97.147118
585.283259	97.000331
585.710904	96.847296
586.138528	96.680690
586.566132	96.528375
586.993716	96.375397
587.421280	96.199425
587.848823	96.035973
588.276346	95.861716
588.703849	95.657720
589.131332	95.467812
589.558794	95.256138
589.986236	95.040794
590.413657	94.799328
590.841058	94.518865
591.268438	94.218512
591.695799	93.903508
592.123138	93.559471
592.550458	93.177579
592.977756	92.769891
593.405034	92.338214
593.832292	91.878528
594.259529	91.391230
594.686746	90.868794
595.113942	90.321845
595.541117	89.738358
595.968272	89.128930
596.395406	88.463374
596.822519	87.787796
597.249612	87.058116
597.676684	86.317731
598.103735	85.543177
598.530766	84.716862
598.957775	83.873978
599.384764	83.003565
599.811733	82.107562
600.238680	81.188496
600.665606	80.235389
601.092512	79.251715
601.519397	78.235117
601.946261	77.199525
602.373104	76.139595
602.799926	75.062898
603.226727	73.936582
603.653507	72.799180
604.080266	71.645894
604.507004	70.458808
604.933721	69.252091
605.360417	68.020538
605.787092	66.777076
606.213746	65.524919
606.640379	64.265659
607.066991	62.995159
607.493581	61.734035
607.920150	60.472805
608.346699	59.213376
608.773226	57.967186
609.199731	56.737465
609.626216	55.541363
610.052679	54.346356
610.479121	53.201014
610.905542	52.053149
611.331941	50.942348
611.758319	49.861457
612.184676	48.814208
612.611011	47.802074
613.037325	46.819285
613.463617	45.875443
613.889888	44.972883
614.316138	44.115269
614.742366	43.306732
615.168573	42.553262
615.594758	41.852523
616.020921	41.199399
616.447063	40.625462
616.873184	40.126606
617.299283	39.682144
617.725360	39.310178
618.151416	39.002087
618.577450	38.770653
619.003462	38.613338
619.429453	38.516948
619.855422	38.489311
620.281369	38.530970
620.707295	38.620318
621.133199	38.772525
621.559081	38.982654
621.984941	39.241460
622.410779	39.546629
622.836596	39.877752
623.262391	40.260520
623.688163	40.659326
624.113914	41.088866
624.539644	41.544414
624.965351	42.019860
625.391036	42.497152
625.816699	42.980779
626.242340	43.479011
626.667960	43.979742
627.093557	44.475990
627.519132	44.979155
627.944685	45.472263
628.370216	45.955088
628.795725	46.428409
629.221212	46.892966
629.646677	47.346000
630.072119	47.760591
630.497540	48.171142
630.922938	48.549999
631.348314	48.924095
631.773668	49.281412
632.198999	49.605206
632.624308	49.916399
633.049595	50.197956
633.474860	50.463053
633.900102	50.712275
634.325322	50.942547
634.750520	51.154941
635.175695	51.349599
635.600848	51.538726
636.025978	51.721398
636.451086	51.881446
636.876171	52.033860
637.301234	52.177337
637.726275	52.296320
638.151293	52.401351
638.576288	52.500227
639.001261	52.587663
639.426211	52.666092
639.851139	52.724310
640.276044	52.779062
640.700927	52.816289
641.125787	52.839115
641.550624	52.842273
641.975438	52.818925
642.400230	52.780293
642.824999	52.709287
643.249745	52.620914
643.674469	52.494164
644.099169	52.345906
644.523847	52.152047
644.948502	51.923848
645.373135	51.670687
645.797744	51.375030
646.222330	51.051953
646.646894	50.684763
647.071435	50.286173
647.495953	49.850320
647.920447	49.389624
648.344919	48.885463
648.769368	48.346715
649.193794	47.768197
649.618197	47.173292
650.042576	46.554643
650.466933	45.918847
650.891267	45.260238
651.315577	44.583297
651.739864	43.897712
652.164129	43.201631
652.588370	42.479977
653.012587	41.757183
653.436782	41.021687
653.860953	40.283276
654.285102	39.549959
654.709226	38.824161
655.133328	38.104982
655.557406	37.407652
655.981461	36.719630
656.405493	36.061329
656.829501	35.430902
657.253486	34.828104
657.677448	34.272460
658.101386	33.752908
658.525301	33.276931
658.949192	32.845423
659.373060	32.459492
659.796904	32.123038
660.220725	31.831747
660.644522	31.591265
661.068296	31.380982
661.492046	31.228955
661.915772	31.115298
662.339475	31.046128
662.763154	31.007424
663.186810	30.994671
663.610442	31.010260
664.034050	31.063895
664.457635	31.137582
664.881196	31.232015
665.304733	31.344252
665.728247	31.480735
666.151736	31.623517
666.575202	31.791323
666.998644	31.961373
667.422062	32.139735
667.845457	32.318839
668.268827	32.507510
668.692174	32.687166
669.115496	32.874524
669.538795	33.054175
669.962070	33.236887
670.385321	33.418180
670.808547	33.586078
671.231750	33.749120
671.654929	33.903545
672.078084	34.051885
672.501214	34.190761
672.924321	34.325031
673.347404	34.452434
673.770462	34.572315
674.193496	34.695123
674.616506	34.806008
675.039492	34.914626
675.462454	35.022727
675.885391	35.125357
676.308305	35.240562
676.731194	35.362823
677.154058	35.477184
677.576899	35.601664
677.999715	35.734703
678.422507	35.865986
678.845274	36.009097
679.268017	36.173039
679.690736	36.332994
680.113430	36.509905
680.536100	36.693813
680.958746	36.897255
681.381367	37.115292
681.803963	37.346258
682.226535	37.588765
682.649083	37.839127
683.071605	38.100668
683.494104	38.365823
683.916578	38.639309
684.339027	38.912222
684.761451	39.191181
685.183851	39.475042
685.606227	39.759086
686.028577	40.038123
686.450903	40.320632
686.873204	40.592967
687.295481	40.862067
687.717733	41.131277
688.139959	41.392575
688.562162	41.637284
688.984339	41.887924
689.406492	42.111193
689.828619	42.316510
690.250722	42.513770
690.672800	42.693231
691.094853	42.853179
691.516881	43.008894
691.938884	43.139615
692.360863	43.247286
692.782816	43.345460
693.204744	43.420503
693.626647	43.477964
694.048526	43.510429
694.470379	43.525728
694.892207	43.518422
695.314010	43.493667
695.735788	43.452661
696.157540	43.388371
696.579268	43.309830
697.000970	43.222112
697.422648	43.123472
697.844300	43.011486
698.265926	42.880948
698.687528	42.743344
699.109104	42.609029
699.530655	42.462027
699.952181	42.315863
700.373681	42.166656
700.795156	42.006176
701.216606	41.842007
701.638030	41.685768
702.059429	41.516272
702.480803	41.349049
702.902151	41.184777
703.323473	41.018365
703.744770	40.849599
704.166042	40.684014
704.587288	40.515000
705.008509	40.359695
705.429704	40.198390
705.850873	40.047562
706.272017	39.904671
706.693135	39.772717
707.114228	39.656531
707.535295	39.550292
707.956336	39.459456
708.377352	39.375375
708.798342	39.301729
709.219306	39.251694
709.640245	39.215447
710.061157	39.189102
710.482044	39.176030
710.902905	39.175382
711.323741	39.182200
711.744550	39.200313
712.165334	39.211273
712.586092	39.235658
713.006823	39.260956
713.427529	39.288141
713.848209	39.314694
714.268863	39.349677
714.689492	39.374468
715.110094	39.402307
715.530670	39.438766
715.951220	39.473120
716.371744	39.507554
716.792242	39.556879
717.212714	39.593466
717.633159	39.630211
718.053579	39.663187
718.473973	39.698948
718.894340	39.728455
719.314681	39.757600
719.734996	39.775822
720.155285	39.797576
720.575547	39.806945
720.995784	39.814168
721.415994	39.823747
721.836177	39.826380
722.256335	39.820895
722.676466	39.807799
723.096570	39.790038
723.516649	39.768687
723.936701	39.737278
724.356726	39.708459
724.776725	39.677837
725.196698	39.649461
725.616644	39.619119
726.036564	39.592227
726.456457	39.569184
726.876324	39.559213
727.296164	39.541163
727.715977	39.538593
728.135764	39.544100
728.555525	39.552166
728.975258	39.561165
729.394966	39.580205
729.814646	39.597133
730.234300	39.628642
730.653927	39.671748
731.073527	39.710818
731.493101	39.768274
731.912648	39.826430
732.332168	39.893286
732.751661	39.975129
733.171128	40.050834
733.590568	40.137964
734.009980	40.230829
734.429366	40.324058
734.848726	40.436417
735.268058	40.545276
735.687363	40.670922
736.106641	40.803375
736.525893	40.937663
736.945117	41.082267
737.364314	41.233443
737.783485	41.397785
738.202628	41.560940
738.621744	41.728481
739.040834	41.896485
739.459896	42.077748
739.878931	42.250047
740.297939	42.434239
740.716919	42.619733
741.135873	42.795606
741.554799	42.979608
741.973698	43.165444
742.392570	43.356297
742.811415	43.546829
743.230232	43.735007
743.649022	43.929042
744.067785	44.127762
744.486521	44.315412
744.905229	44.502708
745.323909	44.689262
745.742563	44.872698
746.161189	45.063134
746.579787	45.251568
746.998358	45.430202
747.416902	45.602374
747.835418	45.766943
748.253907	45.928111
748.672368	46.083071
749.090802	46.229730
749.509208	46.373679
749.927586	46.507884
750.345937	46.630068
750.764261	46.740928
751.182556	46.851649
751.600824	46.947698
752.019065	47.040526
752.437277	47.116691
752.855462	47.195313
753.273620	47.256166
753.691749	47.306881
754.109851	47.359103
754.527925	47.390992
754.945971	47.424295
755.363989	47.437770
755.781980	47.439847
756.199943	47.442336
756.617877	47.418521
757.035784	47.375222
757.453663	47.333538
757.871514	47.276237
758.289337	47.212235
758.707132	47.136631
759.124899	47.036044
759.542639	46.935747
759.960350	46.836087
760.378033	46.729809
760.795688	46.610426
761.213314	46.494479
761.630913	46.379161
762.048484	46.252934
762.466026	46.124752
762.883541	45.996645
763.301027	45.875619
763.718485	45.754695
764.135914	45.636778
764.553316	45.526058
764.970689	45.429207
765.388034	45.323318
765.805351	45.222390
766.222639	45.137701
766.639899	45.058005
767.057131	44.990181
767.474334	44.929742
767.891509	44.869910
768.308655	44.828846
768.725773	44.789287
769.142863	44.758122
769.559924	44.741365
769.976957	44.736310
770.393961	44.722446
770.810936	44.726577
771.227883	44.729415
771.644802	44.733141
772.061692	44.753408
772.478553	44.761466
772.895386	44.766967
773.312190	44.783452
773.728965	44.806432
774.145712	44.825957
774.562430	44.831441
774.979119	44.853241
775.395780	44.878004
775.812411	44.897896
776.229014	44.914737
776.645589	44.938687
777.062134	44.962234
777.478651	44.979159
777.895138	44.991783
778.311597	45.007564
778.728027	45.025099
779.144428	45.040788
779.560800	45.047367
779.977143	45.054562
780.393458	45.060661
780.809743	45.065011
781.225999	45.052507
781.642226	45.050711
782.058425	45.037428
782.474594	45.021573
782.890734	45.010254
783.306845	45.007567
783.722926	44.999874
784.138979	44.988283
784.555003	44.977315
784.970997	44.968575
785.386962	44.969667
785.802898	44.966619
786.218805	44.965064
786.634682	44.963530
787.050531	44.956834
787.466349	44.967102
787.882139	44.963579
788.297899	44.960666
788.713630	44.968187
789.129332	44.971799
789.545004	44.953887
789.960647	44.939795
790.376260	44.921504
790.791844	44.899724
791.207399	44.881229
791.622924	44.855706
792.038419	44.822020
792.453885	44.802594
792.869321	44.765827
793.284728	44.739262
793.700106	44.700933
794.115453	44.666171
794.530771	44.621426
794.946060	44.588277
795.361319	44.545887
795.776548	44.508343
796.191747	44.465818
796.606917	44.430023
797.022057	44.392946
797.437167	44.358424
797.852248	44.323627
798.267298	44.289594
798.682319	44.269067
799.097310	44.251011
799.512271	44.232067
799.927203	44.246056
800.342104	44.257338
800.756976	44.282622
801.171818	44.317390
801.586629	44.361607
802.001411	44.423398
802.416163	44.497950
802.830885	44.596254
803.245577	44.708889
803.660238	44.837010
804.074870	44.979220
804.489472	45.138085
804.904043	45.315186
805.318585	45.494604
805.733096	45.690364
806.147577	45.877106
806.562028	46.086910
806.976449	46.309654
807.390840	46.545815
807.805200	46.774552
808.219530	47.016666
808.633830	47.247231
809.048100	47.476284
809.462339	47.708674
809.876548	47.955947
810.290727	48.210175
810.704875	48.452044
811.118993	48.685851
811.533080	48.936148
811.947137	49.175045
812.361164	49.419948
812.775160	49.642419
813.189126	49.871033
813.603061	50.102635
814.016966	50.318619
814.430840	50.530581
814.844684	50.743674
815.258497	50.962377
815.672280	51.168382
816.086032	51.382902
816.499753	51.580783
816.913444	51.785990
817.327104	51.976212
817.740733	52.157343
818.154331	52.345707
818.567899	52.527343
818.981436	52.717555
819.394943	52.903011
819.808418	53.083216
820.221863	53.248471
820.635277	53.422367
821.048660	53.587128
821.462013	53.750286
821.875334	53.922930
822.288625	54.079074
822.701884	54.216600
823.115113	54.336697
823.528311	54.473004
823.941478	54.596416
824.354614	54.682081
824.767718	54.773036
825.180792	54.842240
825.593835	54.913110
826.006847	54.956930
826.419827	54.987731
826.832777	55.004506
827.245695	55.006981
827.658582	54.984925
828.071438	54.956459
828.484263	54.883545
828.897057	54.796121
829.309819	54.711032
829.722551	54.592632
830.135251	54.458787
830.547919	54.320740
830.960557	54.163510
831.373163	53.991588
831.785738	53.804255
832.198281	53.604857
832.610793	53.387074
833.023274	53.182833
833.435723	52.945411
833.848141	52.708252
834.260528	52.491001
834.672883	52.256534
835.085206	52.027041
835.497498	51.795481
835.909758	51.586718
836.321987	51.355305
836.734185	51.140395
837.146350	50.923332
837.558485	50.711581
837.970587	50.514031
838.382658	50.310933
838.794697	50.118027
839.206705	49.926362
839.618681	49.737233
840.030625	49.549441
840.442538	49.371419
840.854418	49.184164
841.266267	49.019137
841.678084	48.861233
842.089870	48.681576
842.501623	48.486998
842.913345	48.314601
843.325035	48.129685
843.736693	47.934589
844.148319	47.745391
844.559913	47.563327
844.971475	47.373086
845.383005	47.182542
845.794504	46.980265
846.205970	46.798456
846.617404	46.611291
847.028806	46.423539
847.440176	46.244735
847.851514	46.050001
848.262820	45.871724
848.674094	45.687461
849.085336	45.513229
849.496546	45.344036
849.907723	45.174266
850.318868	45.022039
850.729981	44.873086
851.141062	44.738824
851.552110	44.595798
851.963127	44.464271
852.374111	44.361219
852.785062	44.254034
853.195982	44.159004
853.606869	44.063312
854.017723	43.999262
854.428546	43.927837
854.839336	43.885233
855.250093	43.868628
855.660818	43.849892
856.071511	43.854126
856.482171	43.871360
856.892799	43.873043
857.303394	43.872871
857.713956	43.885326
858.124486	43.922650
858.534984	43.956393
858.945449	43.974809
859.355881	44.004470
859.766280	44.017298
860.176647	44.029727
860.586982	44.057676
860.997283	44.073031
861.407552	44.074012
861.817789	44.082366
862.227992	44.091326
862.638163	44.117245
863.048301	44.112361
863.458406	44.103010
863.868478	44.092795
864.278518	44.110127
864.688524	44.104370
865.098498	44.100733
865.508439	44.101433
865.918347	44.090397
866.328222	44.115046
866.738064	44.105268
867.147873	44.115337
867.557649	44.108593
867.967392	44.112265
868.377102	44.124491
868.786779	44.118455
869.196423	44.135607
869.606034	44.173442
870.015612	44.209544
870.425156	44.234758
870.834668	44.263511
871.244146	44.305898
871.653591	44.344952
872.063003	44.372351
872.472382	44.418931
872.881728	44.463015
873.291040	44.499021
873.700319	44.535964
874.109564	44.556754
874.518777	44.582018
874.927956	44.593380
875.337102	44.602685
875.746214	44.595501
876.155293	44.585548
876.564338	44.563183
876.973350	44.504163
877.382329	44.447903
877.791274	44.353356
878.200186	44.273807
878.609064	44.175075
879.017909	44.053224
879.426720	43.923934
879.835497	43.765408
880.244241	43.598433
880.652952	43.437834
881.061629	43.258515
881.470272	43.075901
881.878881	42.875159
882.287457	42.670990
882.695999	42.467104
883.104507	42.271387
883.512982	42.075992
883.921423	41.880776
884.329830	41.712783
884.738203	41.557506
885.146543	41.393559
885.554849	41.241556
885.963120	41.091870
886.371358	40.971809
886.779563	40.867884
887.187733	40.757807
887.595869	40.658630
888.003971	40.580115
888.412040	40.530551
888.820074	40.488186
889.228074	40.458329
889.636041	40.445107
890.043973	40.445647
890.451871	40.465028
890.859736	40.479064
891.267566	40.491876
891.675362	40.519037
892.083124	40.551436
892.490851	40.591575
892.898545	40.631595
893.306204	40.647266
893.713829	40.669284
894.121420	40.700749
894.528977	40.708911
894.936499	40.717198
895.343987	40.718195
895.751441	40.700855
896.158860	40.651902
896.566246	40.593988
896.973596	40.507824
897.380913	40.427119
897.788195	40.321889
898.195442	40.202543
898.602655	40.086225
899.009834	39.914529
899.416978	39.743187
899.824088	39.564005
900.231163	39.399169
900.638204	39.193469
901.045210	38.981140
901.452181	38.757903
901.859118	38.527580
902.266021	38.290666
902.672888	38.044580
903.079721	37.799058
903.486520	37.539856
903.893283	37.296510
904.300012	37.031721
904.706707	36.766720
905.113366	36.503600
905.519991	36.265593
905.926581	36.020840
906.333136	35.776837
906.739656	35.525598
907.146142	35.303740
907.552592	35.079858
907.959008	34.869067
908.365389	34.666996
908.771735	34.489409
909.178046	34.321325
909.584322	34.158825
909.990563	33.974981
910.396769	33.814631
910.802940	33.653012
911.209076	33.498750
911.615177	33.353598
912.021243	33.220515
912.427274	33.077863
912.833270	32.910240
913.239231	32.759859
913.645156	32.620393
914.051046	32.446930
914.456902	32.283109
914.862721	32.116910
915.268506	31.946185
915.674256	31.786033
916.079970	31.631333
916.485649	31.480999
916.891292	31.318503
917.296901	31.169194
917.702474	31.009897
918.108011	30.835939
918.513514	30.680352
918.918980	30.519403
919.324412	30.378870
919.729808	30.218910
920.135169	30.063444
920.540494	29.916838
920.945783	29.771803
921.351037	29.629937
921.756256	29.499745
922.161439	29.360431
922.566586	29.238427
922.971698	29.121987
923.376775	29.008289
923.781815	28.900027
924.186820	28.804396
924.591790	28.714439
924.996723	28.637064
925.401621	28.585330
925.806484	28.514953
926.211310	28.445964
926.616101	28.428651
927.020856	28.388360
927.425575	28.362497
927.830259	28.359114
928.234906	28.344105
928.639518	28.332332
929.044094	28.317911
929.448634	28.330170
929.853138	28.337091
930.257606	28.344474
930.662038	28.383165
931.066434	28.402029
931.470795	28.420578
931.875119	28.444509
932.279407	28.464561
932.683659	28.510008
933.087875	28.519944
933.492055	28.544970
933.896199	28.551414
934.300307	28.547785
934.704379	28.571845
935.108414	28.567004
935.512414	28.552707
935.916377	28.549966
936.320304	28.521008
936.724195	28.506397
937.128049	28.457170
937.531867	28.406203
937.935649	28.332649
938.339395	28.267646
938.743104	28.187213
939.146777	28.093098
939.550414	28.003179
939.954014	27.912645
940.357578	27.799642
940.761105	27.672432
941.164596	27.562986
941.568050	27.439023
941.971468	27.278490
942.374850	27.120378
942.778195	26.999435
943.181503	26.842241
943.584775	26.703122
943.988010	26.538010
944.391209	26.358532
944.794371	26.214040
945.197496	26.059063
945.600585	25.899219
946.003637	25.756941
946.406653	25.586574
946.809632	25.434855
947.212574	25.278058
947.615479	25.114674
948.018347	24.957527
948.421179	24.800641
948.823974	24.641318
949.226732	24.477371
949.629453	24.318043
950.032138	24.186155
950.434785	24.061658
950.837396	23.931630
951.239969	23.795650
951.642506	23.669179
952.045006	23.525908
952.447469	23.377097
952.849895	23.215939
953.252283	23.098071
953.654635	22.935894
954.056950	22.806321
954.459227	22.687861
954.861468	22.578041
955.263671	22.410090
955.665838	22.272591
956.067967	22.127603
956.470059	22.010004
956.872114	21.892289
957.274131	21.755250
957.676112	21.592662
958.078055	21.487670
958.479961	21.324096
958.881829	21.208573
959.283661	21.087154
959.685455	20.933335
960.087211	20.839432
960.488931	20.729790
960.890613	20.629833
961.292257	20.513390
961.693864	20.424863
962.095434	20.357004
962.496966	20.245077
962.898461	20.127754
963.299918	20.058916
963.701338	19.991886
964.102720	19.892087
964.504065	19.836962
964.905372	19.775463
965.306641	19.711512
965.707873	19.645947
966.109068	19.599901
966.510224	19.557485
966.911343	19.512658
967.312425	19.455151
967.713468	19.424024
968.114474	19.361375
968.515442	19.301251
968.916373	19.281698
969.317265	19.237018
969.718120	19.173191
970.118937	19.156387
970.519716	19.122114
970.920458	19.132178
971.321161	19.115069
971.721827	19.067081
972.122454	19.036691
972.523044	19.009555
972.923596	19.013802
973.324110	19.019465
973.724585	19.035762
974.125023	19.005768
974.525423	18.986206
974.925785	19.025465
975.326108	19.046726
975.726394	19.019162
976.126642	18.979546
976.526851	19.013952
976.927022	19.036615
977.327155	19.056059
977.727250	19.096763
978.127307	19.106598
978.527325	19.148918
978.927306	19.171266
979.327248	19.224554
979.727151	19.234684
980.127017	19.304553
980.526844	19.379487
980.926633	19.393033
981.326383	19.412041
981.726095	19.491121
982.125769	19.581945
982.525404	19.630998
982.925001	19.671626
983.324560	19.720346
983.724079	19.739469
984.123561	19.845133
984.523004	19.970455
984.922408	20.084696
985.321774	20.172155
985.721102	20.134133
986.120390	20.201255
986.519641	20.282764
986.918852	20.348546
987.318025	20.451643
987.717159	20.485193
988.116255	20.620338
988.515312	20.772436
988.914330	20.799013
989.313310	20.850509
989.712250	20.967462
990.111152	21.076220
990.510015	21.237266
990.908840	21.329648
991.307625	21.452671
991.706372	21.514175
992.105080	21.664061
992.503749	21.730125
992.902379	21.809701
993.300970	22.025254
993.699522	22.151523
994.098035	22.262257
994.496510	22.408537
994.894945	22.536782
995.293341	22.698469
995.691698	22.846615
996.090016	23.091823
996.488296	23.243118
996.886535	23.468046
997.284736	23.558106
997.682898	23.678394
998.081021	23.993250
998.479104	24.147956
998.877148	24.459319
999.275153	24.628691
999.673119	24.654034
1000.071046	24.984483
1000.468933	25.088667
1000.866781	25.119422
1001.264590	25.477248
1001.662359	25.700974
1002.060089	25.941520
1002.457780	26.104632
1002.855431	26.294724
1003.253043	26.511715
1003.650615	26.765539
1004.048148	26.965742
1004.445642	27.029465
1004.843096	27.293539
1005.240511	27.581142
1005.637886	27.685076
1006.035221	28.141534
1006.432517	28.480941
1006.829774	28.764367
1007.226991	29.036365
1007.624168	29.297514
1008.021306	29.587733
1008.418404	29.858574
1008.815462	30.025120
1009.212481	30.148591
1009.609460	30.500512
1010.006399	30.900034
1010.403298	31.185072
1010.800158	31.878855
1011.196978	31.965803
1011.593758	32.530960
1011.990498	33.171646
1012.387199	33.584927
1012.783860	34.063303
1013.180480	34.725222
1013.577061	34.892932
1013.973602	35.347027
1014.370103	35.759806
1014.766564	36.192788
1015.162985	36.380256
1015.559366	36.642516
1015.955708	36.780861
1016.352009	37.044986
1016.748270	37.761221
1017.144491	38.140655
1017.540671	38.523668
1017.936812	39.115351
1018.332913	39.100186
1018.728973	39.290131
1019.124994	39.767932
1019.520974	40.391156
1019.916914	40.783656
1020.312814	41.137675
