Time1=100ms:Average1=5:Objective=10X:Aperture=1: (11/28/2018 10:55:20 AM)
11/28/2018 10:55:20 AM
Reflectance
10X
Ap#: 1
Avg1: 5.000000
Avg2: 0.000000
Int.Time1:100.000000

350.166136	56.552007
350.601937	56.865709
351.037728	57.232596
351.473509	56.894335
351.909281	57.006040
352.345042	57.232595
352.780794	57.302391
353.216536	57.166637
353.652267	56.894138
354.087989	57.016313
354.523701	57.304753
354.959403	57.334738
355.395095	57.296535
355.830777	57.404957
356.266449	57.820785
356.702110	58.239238
357.137762	58.559674
357.573404	58.385204
358.009035	58.049866
358.444656	58.475408
358.880268	58.435295
359.315869	58.876924
359.751459	58.676064
360.187040	58.755801
360.622610	58.858725
361.058170	59.106775
361.493720	59.289277
361.929260	59.096186
362.364789	59.648026
362.800308	59.430352
363.235816	59.444346
363.671314	59.754797
364.106802	59.468822
364.542279	59.536494
364.977746	59.884598
365.413203	59.753721
365.848649	60.201913
366.284084	60.302708
366.719509	60.417958
367.154924	60.541741
367.590328	60.369482
368.025721	60.359801
368.461104	60.771961
368.896477	60.545358
369.331838	60.505237
369.767189	60.573382
370.202530	60.422325
370.637859	60.560534
371.073178	60.625986
371.508486	60.572476
371.943784	60.250282
372.379071	60.321460
372.814347	60.363731
373.249612	60.564362
373.684866	60.533194
374.120110	60.050448
374.555343	59.615385
374.990565	59.622444
375.425776	59.771019
375.860976	59.562222
376.296165	59.616731
376.731343	59.462300
377.166511	59.240462
377.601667	59.344607
378.036812	58.966088
378.471946	58.694517
378.907070	58.941033
379.342182	58.557149
379.777283	58.678261
380.212373	58.815379
380.647452	58.720428
381.082520	59.204194
381.517576	58.916129
381.952622	58.438873
382.387656	58.758966
382.822679	58.607869
383.257691	58.394666
383.692692	58.428720
384.127681	58.129484
384.562659	58.387348
384.997626	58.536164
385.432581	58.626350
385.867525	58.705953
386.302458	58.571921
386.737379	58.616244
387.172289	58.574610
387.607188	58.961173
388.042075	59.259577
388.476951	59.465232
388.911815	59.195792
389.346668	59.242630
389.781509	59.501479
390.216338	59.491210
390.651157	59.024555
391.085963	59.160851
391.520758	59.588810
391.955541	59.466958
392.390313	59.031392
392.825073	59.131019
393.259821	59.046342
393.694558	58.447106
394.129283	58.212944
394.563996	57.615397
394.998698	57.986399
395.433388	58.302720
395.868066	58.176502
396.302732	58.545693
396.737386	58.384103
397.172029	57.897309
397.606659	57.847062
398.041278	57.591770
398.475885	57.385257
398.910480	56.986075
399.345063	56.394171
399.779634	55.765980
400.214194	54.893312
400.648741	53.861218
401.083276	52.705823
401.517799	51.405693
401.952310	49.770037
402.386809	48.217080
402.821296	46.487720
403.255771	44.711538
403.690234	42.866470
404.124684	41.173794
404.559123	39.268268
404.993549	37.280433
405.427963	35.494467
405.862365	33.933632
406.296754	32.422757
406.731131	30.795669
407.165496	29.489174
407.599849	28.215978
408.034190	26.999943
408.468518	25.773428
408.902833	24.628398
409.337137	23.568878
409.771428	22.535062
410.205706	21.734115
410.639973	21.004659
411.074226	20.298528
411.508467	19.646053
411.942696	19.120672
412.376912	18.701965
412.811116	18.305252
413.245307	18.017995
413.679486	17.791360
414.113652	17.556760
414.547805	17.350127
414.981946	17.222608
415.416074	17.097317
415.850190	16.994240
416.284293	16.880215
416.718383	16.813303
417.152460	16.807113
417.586525	16.824925
418.020577	16.813599
418.454616	16.852741
418.888643	16.892224
419.322656	16.890514
419.756657	16.877032
420.190645	16.885896
420.624620	16.914737
421.058582	16.945270
421.492531	16.963123
421.926468	17.001939
422.360391	17.076338
422.794301	17.193899
423.228199	17.335080
423.662083	17.502619
424.095955	17.703466
424.529813	17.894300
424.963658	18.112522
425.397491	18.274240
425.831310	18.448257
426.265116	18.618541
426.698909	18.772236
427.132689	18.947272
427.566455	19.141111
428.000209	19.343210
428.433949	19.545617
428.867676	19.780476
429.301389	20.026687
429.735090	20.281629
430.168777	20.470043
430.602451	20.639483
431.036111	20.753028
431.469759	20.892642
431.903392	20.997550
432.337013	21.091969
432.770620	21.222319
433.204213	21.378340
433.637794	21.538206
434.071360	21.713999
434.504914	21.928397
434.938453	22.164924
435.371979	22.403893
435.805492	22.664815
436.238991	22.918594
436.672477	23.155589
437.105949	23.369865
437.539407	23.556556
437.972852	23.715311
438.406283	23.858774
438.839700	24.031022
439.273104	24.207535
439.706494	24.431654
440.139871	24.654814
440.573233	24.876408
441.006582	25.104432
441.439917	25.310743
441.873238	25.472292
442.306546	25.599007
442.739839	25.700035
443.173119	25.779783
443.606385	25.863440
444.039636	25.941700
444.472874	26.025220
444.906099	26.137363
445.339309	26.285519
445.772505	26.470018
446.205687	26.659711
446.638855	26.860149
447.072009	27.102691
447.505149	27.338167
447.938275	27.582511
448.371387	27.824079
448.804485	28.027715
449.237569	28.214181
449.670638	28.368431
450.103694	28.500577
450.536735	28.602897
450.969762	28.687697
451.402774	28.825743
451.835773	28.985146
452.268757	29.135155
452.701727	29.297665
453.134683	29.449791
453.567624	29.615414
454.000551	29.756006
454.433464	29.884952
454.866362	29.995707
455.299246	30.093891
455.732116	30.162730
456.164971	30.224750
456.597811	30.275533
457.030638	30.358244
457.463449	30.418876
457.896246	30.505637
458.329029	30.575031
458.761797	30.644274
459.194551	30.702575
459.627290	30.771018
460.060014	30.845381
460.492724	30.917714
460.925419	30.987315
461.358099	31.039063
461.790765	31.082654
462.223416	31.142509
462.656052	31.168665
463.088674	31.181864
463.521281	31.182615
463.953873	31.194227
464.386450	31.229545
464.819012	31.233015
465.251560	31.239552
465.684093	31.288047
466.116611	31.344521
466.549114	31.397612
466.981602	31.436630
467.414075	31.500123
467.846533	31.545331
468.278977	31.569668
468.711405	31.589600
469.143818	31.605074
469.576216	31.601092
470.008600	31.582425
470.440968	31.526379
470.873321	31.481242
471.305659	31.403427
471.737982	31.327010
472.170289	31.222784
472.602582	31.114488
473.034859	30.999894
473.467122	30.880557
473.899369	30.756416
474.331600	30.639743
474.763817	30.533180
475.196018	30.436307
475.628204	30.348149
476.060375	30.283404
476.492530	30.234178
476.924670	30.199513
477.356795	30.124173
477.788904	30.028644
478.220998	29.930967
478.653076	29.817471
479.085139	29.676546
479.517186	29.511964
479.949219	29.361932
480.381235	29.240689
480.813236	29.125783
481.245221	29.035342
481.677191	28.996603
482.109146	28.955162
482.541084	28.945579
482.973008	28.940807
483.404915	28.929417
483.836807	28.910656
484.268683	28.897707
484.700544	28.887429
485.132388	28.858982
485.564217	28.829325
485.996031	28.810653
486.427828	28.795302
486.859610	28.786866
487.291376	28.790774
487.723126	28.820819
488.154860	28.858549
488.586579	28.948234
489.018281	29.068764
489.449968	29.218379
489.881639	29.435444
490.313293	29.689376
490.744932	30.022907
491.176555	30.382567
491.608162	30.756907
492.039753	31.130963
492.471328	31.496407
492.902886	31.858841
493.334429	32.183298
493.765956	32.476746
494.197466	32.766045
494.628960	33.059634
495.060439	33.345693
495.491901	33.685589
495.923347	34.053033
496.354776	34.448949
496.786190	34.903281
497.217587	35.400601
497.648968	35.918077
498.080332	36.454324
498.511681	36.981534
498.943013	37.513785
499.374328	38.002819
499.805628	38.470054
500.236911	38.891749
500.668177	39.278515
501.099427	39.628900
501.530661	39.965842
501.961878	40.235681
502.393079	40.480826
502.824264	40.706471
503.255431	40.892254
503.686583	41.076772
504.117717	41.245254
504.548835	41.432338
504.979937	41.649084
505.411022	41.902352
505.842090	42.208113
506.273142	42.544287
506.704177	42.925247
507.135195	43.330123
507.566197	43.730728
507.997182	44.108341
508.428150	44.459314
508.859102	44.757208
509.290036	44.986582
509.720954	45.173858
510.151855	45.322783
510.582739	45.426525
511.013607	45.525980
511.444457	45.615571
511.875291	45.757374
512.306107	45.936421
512.736907	46.178951
513.167690	46.464442
513.598456	46.804643
514.029205	47.176551
514.459936	47.554128
514.890651	47.925160
515.321349	48.285303
515.752030	48.632017
516.182693	48.931458
516.613340	49.180602
517.043969	49.376745
517.474582	49.515220
517.905177	49.597759
518.335755	49.625126
518.766315	49.622688
519.196859	49.561786
519.627385	49.463634
520.057894	49.344862
520.488386	49.214196
520.918860	49.086791
521.349318	48.980579
521.779757	48.892676
522.210180	48.841780
522.640585	48.845051
523.070973	48.899963
523.501343	48.981594
523.931696	49.105922
524.362031	49.226222
524.792349	49.356266
525.222650	49.439930
525.652933	49.476506
526.083198	49.461053
526.513446	49.382998
526.943677	49.253458
527.373890	49.058288
527.804085	48.835614
528.234262	48.599474
528.664422	48.368217
529.094565	48.158511
529.524689	47.991977
529.954796	47.877271
530.384885	47.807822
530.814957	47.811308
531.245011	47.873044
531.675047	47.981711
532.105065	48.113562
532.535065	48.293038
532.965048	48.495226
533.395013	48.683403
533.824959	48.854180
534.254888	49.011074
534.684799	49.132109
535.114693	49.236733
535.544568	49.311116
535.974425	49.343524
536.404264	49.338536
536.834086	49.302720
537.263889	49.234831
537.693674	49.142969
538.123441	49.034195
538.553190	48.926474
538.982921	48.825210
539.412634	48.737033
539.842329	48.686722
540.272006	48.653931
540.701664	48.669377
541.131304	48.724872
541.560926	48.801066
541.990530	48.907402
542.420116	49.015214
542.849683	49.122456
543.279232	49.213920
543.708763	49.288544
544.138275	49.325073
544.567769	49.324105
544.997245	49.284945
545.426702	49.199987
545.856141	49.076791
546.285562	48.925103
546.714964	48.751677
547.144347	48.580011
547.573713	48.409131
548.003059	48.259661
548.432387	48.136039
548.861697	48.037174
549.290988	47.987982
549.720260	47.977181
550.149514	48.020216
550.578750	48.109401
551.007966	48.255971
551.437164	48.439648
551.866344	48.664835
552.295504	48.895374
552.724646	49.135808
553.153769	49.357276
553.582874	49.573521
554.011960	49.754577
554.441027	49.892899
554.870075	49.987571
555.299104	50.027073
555.728115	50.013023
556.157106	49.962429
556.586079	49.870941
557.015033	49.744176
557.443968	49.602768
557.872884	49.440012
558.301781	49.275309
558.730659	49.105312
559.159518	48.932881
559.588358	48.771625
560.017180	48.625936
560.445982	48.499826
560.874765	48.382425
561.303528	48.277421
561.732273	48.155088
562.160999	48.035351
562.589705	47.894258
563.018393	47.751022
563.447061	47.583838
563.875710	47.396575
564.304340	47.185234
564.732950	46.946911
565.161542	46.675467
565.590114	46.398274
566.018666	46.095747
566.447200	45.788563
566.875714	45.475357
567.304208	45.163288
567.732684	44.850519
568.161140	44.550242
568.589576	44.278383
569.017993	44.040143
569.446391	43.814782
569.874769	43.639141
570.303128	43.501079
570.731467	43.405776
571.159787	43.342552
571.588087	43.335423
572.016368	43.383880
572.444629	43.470496
572.872870	43.581320
573.301092	43.733036
573.729294	43.888047
574.157476	44.053751
574.585639	44.204278
575.013782	44.357354
575.441906	44.494326
575.870009	44.607292
576.298093	44.685250
576.726157	44.743545
577.154202	44.771567
577.582226	44.780126
578.010231	44.784068
578.438216	44.782729
578.866181	44.776132
579.294126	44.783008
579.722051	44.791989
580.149957	44.810725
580.577842	44.843666
581.005707	44.884720
581.433553	44.939979
581.861378	44.986094
582.289184	45.026083
582.716969	45.071358
583.144734	45.100390
583.572479	45.108131
584.000205	45.083696
584.427910	45.058387
584.855594	44.988552
585.283259	44.889498
585.710904	44.767714
586.138528	44.621755
586.566132	44.444242
586.993716	44.245427
587.421280	44.018861
587.848823	43.779361
588.276346	43.515847
588.703849	43.216922
589.131332	42.903387
589.558794	42.576867
589.986236	42.227976
590.413657	41.864168
590.841058	41.485967
591.268438	41.096615
591.695799	40.705884
592.123138	40.322183
592.550458	39.946900
592.977756	39.584064
593.405034	39.242133
593.832292	38.928656
594.259529	38.647987
594.686746	38.391727
595.113942	38.175705
595.541117	37.997805
595.968272	37.845100
596.395406	37.709091
596.822519	37.608654
597.249612	37.519225
597.676684	37.434835
598.103735	37.355432
598.530766	37.285857
598.957775	37.208425
599.384764	37.134163
599.811733	37.063355
600.238680	37.005017
600.665606	36.955073
601.092512	36.908679
601.519397	36.877780
601.946261	36.880910
602.373104	36.910108
602.799926	36.959618
603.226727	37.027999
603.653507	37.127550
604.080266	37.249670
604.507004	37.387371
604.933721	37.537524
605.360417	37.696491
605.787092	37.844783
606.213746	38.000532
606.640379	38.136513
607.066991	38.258097
607.493581	38.367984
607.920150	38.449712
608.346699	38.509661
608.773226	38.547919
609.199731	38.569320
609.626216	38.588584
610.052679	38.584152
610.479121	38.591068
610.905542	38.582590
611.331941	38.574860
611.758319	38.561881
612.184676	38.553144
612.611011	38.540016
613.037325	38.520808
613.463617	38.496406
613.889888	38.461510
614.316138	38.427313
614.742366	38.387131
615.168573	38.337163
615.594758	38.280191
616.020921	38.225464
616.447063	38.180933
616.873184	38.148850
617.299283	38.121653
617.725360	38.117220
618.151416	38.134277
618.577450	38.170058
619.003462	38.244754
619.429453	38.338886
619.855422	38.476506
620.281369	38.638047
620.707295	38.819888
621.133199	39.044292
621.559081	39.283448
621.984941	39.533314
622.410779	39.789481
622.836596	40.040846
623.262391	40.288002
623.688163	40.514235
624.113914	40.740166
624.539644	40.960056
624.965351	41.160360
625.391036	41.343345
625.816699	41.508683
626.242340	41.669600
626.667960	41.808580
627.093557	41.948350
627.519132	42.082947
627.944685	42.213575
628.370216	42.339244
628.795725	42.455946
629.221212	42.559190
629.646677	42.648041
630.072119	42.706173
630.497540	42.747751
630.922938	42.760210
631.348314	42.736542
631.773668	42.681456
632.198999	42.585226
632.624308	42.471804
633.049595	42.325532
633.474860	42.157357
633.900102	41.977869
634.325322	41.780424
634.750520	41.585112
635.175695	41.407429
635.600848	41.245300
636.025978	41.109102
636.451086	41.010450
636.876171	40.939227
637.301234	40.910423
637.726275	40.917124
638.151293	40.966273
638.576288	41.051831
639.001261	41.181678
639.426211	41.337852
639.851139	41.529568
640.276044	41.750522
640.700927	41.990508
641.125787	42.237734
641.550624	42.495099
641.975438	42.770280
642.400230	43.041741
642.824999	43.316576
643.249745	43.594599
643.674469	43.882170
644.099169	44.177348
644.523847	44.495487
644.948502	44.827697
645.373135	45.191503
645.797744	45.555661
646.222330	45.933162
646.646894	46.319108
647.071435	46.723151
647.495953	47.127807
647.920447	47.537792
648.344919	47.928511
648.769368	48.315871
649.193794	48.674359
649.618197	49.006364
650.042576	49.311345
650.466933	49.579173
650.891267	49.799160
651.315577	49.974894
651.739864	50.111693
652.164129	50.198244
652.588370	50.241135
653.012587	50.238188
653.436782	50.181828
653.860953	50.093324
654.285102	49.979998
654.709226	49.827630
655.133328	49.637857
655.557406	49.433399
655.981461	49.206812
656.405493	48.966485
656.829501	48.694474
657.253486	48.396588
657.677448	48.069695
658.101386	47.730691
658.525301	47.357656
658.949192	46.962342
659.373060	46.557182
659.796904	46.132382
660.220725	45.682606
660.644522	45.227454
661.068296	44.751335
661.492046	44.271589
661.915772	43.793888
662.339475	43.325611
662.763154	42.874762
663.186810	42.455600
663.610442	42.057488
664.034050	41.701737
664.457635	41.394544
664.881196	41.137795
665.304733	40.930534
665.728247	40.776786
666.151736	40.687511
666.575202	40.656857
666.998644	40.671882
667.422062	40.743833
667.845457	40.869969
668.268827	41.048415
668.692174	41.263962
669.115496	41.513539
669.538795	41.785426
669.962070	42.089688
670.385321	42.407876
670.808547	42.733381
671.231750	43.044405
671.654929	43.351024
672.078084	43.660619
672.501214	43.946234
672.924321	44.219136
673.347404	44.481845
673.770462	44.717735
674.193496	44.948602
674.616506	45.163093
675.039492	45.355464
675.462454	45.540547
675.885391	45.701763
676.308305	45.851135
676.731194	45.998639
677.154058	46.132651
677.576899	46.262704
677.999715	46.374274
678.422507	46.484570
678.845274	46.586667
679.268017	46.677608
679.690736	46.752966
680.113430	46.819287
680.536100	46.864646
680.958746	46.898401
681.381367	46.905590
681.803963	46.908156
682.226535	46.900336
682.649083	46.893194
683.071605	46.868477
683.494104	46.842304
683.916578	46.817966
684.339027	46.800416
684.761451	46.794809
685.183851	46.787588
685.606227	46.785645
686.028577	46.792743
686.450903	46.792921
686.873204	46.797486
687.295481	46.798592
687.717733	46.800879
688.139959	46.796421
688.562162	46.777472
688.984339	46.757728
689.406492	46.713643
689.828619	46.651362
690.250722	46.569715
690.672800	46.457524
691.094853	46.332582
691.516881	46.193923
691.938884	46.035498
692.360863	45.852462
692.782816	45.673483
693.204744	45.481836
693.626647	45.299602
694.048526	45.122137
694.470379	44.966064
694.892207	44.824337
695.314010	44.708088
695.735788	44.617635
696.157540	44.566055
696.579268	44.547508
697.000970	44.572745
697.422648	44.629106
697.844300	44.714920
698.265926	44.838837
698.687528	44.998811
699.109104	45.191342
699.530655	45.413100
699.952181	45.667387
700.373681	45.940460
700.795156	46.225378
701.216606	46.521842
701.638030	46.828896
702.059429	47.127831
702.480803	47.423018
702.902151	47.707532
703.323473	47.976346
703.744770	48.221509
704.166042	48.445271
704.587288	48.630882
705.008509	48.793220
705.429704	48.931147
705.850873	49.027546
706.272017	49.103469
706.693135	49.139108
707.114228	49.145640
707.535295	49.118590
707.956336	49.063103
708.377352	48.980051
708.798342	48.861683
709.219306	48.725944
709.640245	48.574600
710.061157	48.393895
710.482044	48.217901
710.902905	48.041308
711.323741	47.854561
711.744550	47.667701
712.165334	47.474451
712.586092	47.291331
713.006823	47.102691
713.427529	46.925851
713.848209	46.755234
714.268863	46.599348
714.689492	46.453363
715.110094	46.324145
715.530670	46.216771
715.951220	46.124300
716.371744	46.052552
716.792242	46.009827
717.212714	45.974920
717.633159	45.960726
718.053579	45.964180
718.473973	45.977166
718.894340	46.007093
719.314681	46.045094
719.734996	46.089538
720.155285	46.143700
720.575547	46.200443
720.995784	46.251167
721.415994	46.290812
721.836177	46.338031
722.256335	46.351946
722.676466	46.350853
723.096570	46.325078
723.516649	46.266333
723.936701	46.170885
724.356726	46.042558
724.776725	45.877825
725.196698	45.684471
725.616644	45.456117
726.036564	45.201274
726.456457	44.917069
726.876324	44.629144
727.296164	44.316876
727.715977	43.989760
728.135764	43.664731
728.555525	43.332996
728.975258	43.005410
729.394966	42.689055
729.814646	42.387754
730.234300	42.113644
730.653927	41.862683
731.073527	41.633783
731.493101	41.447270
731.912648	41.287948
732.332168	41.170614
732.751661	41.098972
733.171128	41.059886
733.590568	41.064519
734.009980	41.114609
734.429366	41.204982
734.848726	41.329887
735.268058	41.503777
735.687363	41.709437
736.106641	41.956344
736.525893	42.235816
736.945117	42.540920
737.364314	42.873250
737.783485	43.228241
738.202628	43.602518
738.621744	43.995865
739.040834	44.405465
739.459896	44.819578
739.878931	45.232102
740.297939	45.641857
740.716919	46.049798
741.135873	46.452767
741.554799	46.841884
741.973698	47.216703
742.392570	47.574241
742.811415	47.905191
743.230232	48.212863
743.649022	48.505168
744.067785	48.775988
744.486521	49.012125
744.905229	49.231232
745.323909	49.425399
745.742563	49.596038
746.161189	49.752345
746.579787	49.892706
746.998358	50.012128
747.416902	50.105340
747.835418	50.187212
748.253907	50.256706
748.672368	50.312489
749.090802	50.363270
749.509208	50.401971
749.927586	50.447654
750.345937	50.494106
750.764261	50.536602
751.182556	50.588200
751.600824	50.636560
752.019065	50.681408
752.437277	50.737952
752.855462	50.802319
753.273620	50.873319
753.691749	50.949250
754.109851	51.025417
754.527925	51.103836
754.945971	51.190933
755.363989	51.273047
755.781980	51.350685
756.199943	51.431960
756.617877	51.495599
757.035784	51.537799
757.453663	51.570397
757.871514	51.589650
758.289337	51.580202
758.707132	51.543267
759.124899	51.468511
759.542639	51.357566
759.960350	51.212911
760.378033	51.053718
760.795688	50.840267
761.213314	50.598294
761.630913	50.331752
762.048484	50.031005
762.466026	49.704837
762.883541	49.347028
763.301027	48.970644
763.718485	48.590667
764.135914	48.195191
764.553316	47.794248
764.970689	47.402412
765.388034	46.994511
765.805351	46.591609
766.222639	46.206194
766.639899	45.831691
767.057131	45.479502
767.474334	45.161081
767.891509	44.856683
768.308655	44.587842
768.725773	44.360054
769.142863	44.164553
769.559924	43.997400
769.976957	43.875890
770.393961	43.795418
770.810936	43.751835
771.227883	43.751406
771.644802	43.787695
772.061692	43.875947
772.478553	43.997397
772.895386	44.157672
773.312190	44.356099
773.728965	44.599836
774.145712	44.884829
774.562430	45.193590
774.979119	45.537462
775.395780	45.916987
775.812411	46.325832
776.229014	46.750543
776.645589	47.185067
777.062134	47.634116
777.478651	48.089730
777.895138	48.552549
778.311597	49.030881
778.728027	49.503649
779.144428	49.969698
779.560800	50.428662
779.977143	50.869063
780.393458	51.290507
780.809743	51.702862
781.225999	52.071162
781.642226	52.414631
782.058425	52.707034
782.474594	52.973699
782.890734	53.202354
783.306845	53.383902
783.722926	53.518054
784.138979	53.596592
784.555003	53.617029
784.970997	53.572994
785.386962	53.497043
785.802898	53.364512
786.218805	53.177647
786.634682	52.951071
787.050531	52.675030
787.466349	52.376364
787.882139	52.035211
788.297899	51.671102
788.713630	51.285830
789.129332	50.889954
789.545004	50.490290
789.960647	50.075597
790.376260	49.684001
790.791844	49.294442
791.207399	48.920531
791.622924	48.548971
792.038419	48.189700
792.453885	47.866524
792.869321	47.559279
793.284728	47.276850
793.700106	47.004950
794.115453	46.776814
794.530771	46.550386
794.946060	46.363573
795.361319	46.187518
795.776548	46.025304
796.191747	45.873065
796.606917	45.727559
797.022057	45.590229
797.437167	45.465656
797.852248	45.350621
798.267298	45.212186
798.682319	45.085736
799.097310	44.953640
799.512271	44.799048
799.927203	44.638136
800.342104	44.471690
800.756976	44.290797
801.171818	44.084906
801.586629	43.857913
802.001411	43.616387
802.416163	43.351132
802.830885	43.092146
803.245577	42.807705
803.660238	42.515420
804.074870	42.209358
804.489472	41.905149
804.904043	41.592098
805.318585	41.267038
805.733096	40.952901
806.147577	40.626573
806.562028	40.311866
806.976449	39.997370
807.390840	39.690842
807.805200	39.391623
808.219530	39.109468
808.633830	38.840768
809.048100	38.598212
809.462339	38.369149
809.876548	38.161538
810.290727	37.978942
810.704875	37.807167
811.118993	37.668029
811.533080	37.550982
811.947137	37.460731
812.361164	37.406009
812.775160	37.367292
813.189126	37.352300
813.603061	37.366468
814.016966	37.409771
814.430840	37.488214
814.844684	37.583993
815.258497	37.720345
815.672280	37.876442
816.086032	38.054367
816.499753	38.257723
816.913444	38.491545
817.327104	38.750975
817.740733	39.044167
818.154331	39.355691
818.567899	39.681304
818.981436	40.040076
819.394943	40.414166
819.808418	40.815703
820.221863	41.235353
820.635277	41.660135
821.048660	42.107141
821.462013	42.575270
821.875334	43.042769
822.288625	43.530861
822.701884	44.018893
823.115113	44.516362
823.528311	45.023020
823.941478	45.523187
824.354614	46.014150
824.767718	46.490552
825.180792	46.950390
825.593835	47.398601
826.006847	47.803749
826.419827	48.187378
826.832777	48.523022
827.245695	48.810093
827.658582	49.077970
828.071438	49.287979
828.484263	49.449305
828.897057	49.559940
829.309819	49.636853
829.722551	49.646573
830.135251	49.597972
830.547919	49.489103
830.960557	49.354456
831.373163	49.173092
831.785738	48.938355
832.198281	48.687403
832.610793	48.382450
833.023274	48.064238
833.435723	47.720514
833.848141	47.366246
834.260528	46.983829
834.672883	46.604452
835.085206	46.208631
835.497498	45.822603
835.909758	45.431297
836.321987	45.040595
836.734185	44.671322
837.146350	44.324092
837.558485	43.997294
837.970587	43.693079
838.382658	43.390309
838.794697	43.125827
839.206705	42.880595
839.618681	42.671399
840.030625	42.487366
840.442538	42.320286
840.854418	42.192216
841.266267	42.085341
841.678084	42.012562
842.089870	41.943293
842.501623	41.903786
842.913345	41.879955
843.325035	41.895416
843.736693	41.917342
844.148319	41.947585
844.559913	42.002132
844.971475	42.056475
845.383005	42.136567
845.794504	42.212845
846.205970	42.316008
846.617404	42.402744
847.028806	42.500865
847.440176	42.593489
847.851514	42.687999
848.262820	42.785342
848.674094	42.871230
849.085336	42.956032
849.496546	43.037522
849.907723	43.095385
850.318868	43.153128
850.729981	43.171254
851.141062	43.211641
851.552110	43.227256
851.963127	43.219998
852.374111	43.225092
852.785062	43.197715
853.195982	43.158848
853.606869	43.102089
854.017723	43.047574
854.428546	42.967053
854.839336	42.884956
855.250093	42.797553
855.660818	42.704960
856.071511	42.590251
856.482171	42.468683
856.892799	42.341360
857.303394	42.196040
857.713956	42.031975
858.124486	41.873595
858.534984	41.697494
858.945449	41.501459
859.355881	41.296194
859.766280	41.080191
860.176647	40.864123
860.586982	40.649548
860.997283	40.406994
861.407552	40.163775
861.817789	39.939789
862.227992	39.679403
862.638163	39.436514
863.048301	39.180419
863.458406	38.960184
863.868478	38.738618
864.278518	38.532356
864.688524	38.336987
865.098498	38.136150
865.508439	37.963744
865.918347	37.817674
866.328222	37.686994
866.738064	37.577531
867.147873	37.504039
867.557649	37.454593
867.967392	37.430298
868.377102	37.433022
868.786779	37.480272
869.196423	37.563056
869.606034	37.679172
870.015612	37.835178
870.425156	38.028867
870.834668	38.242644
871.244146	38.511380
871.653591	38.813666
872.063003	39.147944
872.472382	39.521427
872.881728	39.907774
873.291040	40.302276
873.700319	40.710482
874.109564	41.153193
874.518777	41.592233
874.927956	42.060216
875.337102	42.512352
875.746214	42.971579
876.155293	43.396821
876.564338	43.813971
876.973350	44.192282
877.382329	44.560283
877.791274	44.907165
878.200186	45.221349
878.609064	45.470198
879.017909	45.681733
879.426720	45.840988
879.835497	45.959470
880.244241	46.008481
880.652952	46.047096
881.061629	46.028853
881.470272	45.939728
881.878881	45.800761
882.287457	45.624097
882.695999	45.393821
883.104507	45.121520
883.512982	44.822224
883.921423	44.480497
884.329830	44.108170
884.738203	43.720888
885.146543	43.298612
885.554849	42.884146
885.963120	42.447924
886.371358	42.053900
886.779563	41.635240
887.187733	41.214174
887.595869	40.797621
888.003971	40.397887
888.412040	40.025945
888.820074	39.678070
889.228074	39.349804
889.636041	39.061852
890.043973	38.814166
890.451871	38.581182
890.859736	38.391937
891.267566	38.253872
891.675362	38.147302
892.083124	38.066940
892.490851	38.019694
892.898545	38.011611
893.306204	38.011052
893.713829	38.065894
894.121420	38.147941
894.528977	38.231804
894.936499	38.354177
895.343987	38.508465
895.751441	38.662493
896.158860	38.839688
896.566246	39.017073
896.973596	39.167546
897.380913	39.343378
897.788195	39.496503
898.195442	39.638571
898.602655	39.787314
899.009834	39.892265
899.416978	39.997078
899.824088	40.082358
900.231163	40.165273
900.638204	40.217906
901.045210	40.218888
901.452181	40.207595
901.859118	40.169818
902.266021	40.117315
902.672888	40.025389
903.079721	39.899456
903.486520	39.740722
903.893283	39.577371
904.300012	39.390713
904.706707	39.184242
905.113366	38.938645
905.519991	38.712788
905.926581	38.450564
906.333136	38.148454
906.739656	37.863759
907.146142	37.583376
907.552592	37.286719
907.959008	36.969872
908.365389	36.687016
908.771735	36.365246
909.178046	36.082737
909.584322	35.826946
909.990563	35.540798
910.396769	35.296125
910.802940	35.033733
911.209076	34.787284
911.615177	34.556368
912.021243	34.319088
912.427274	34.115630
912.833270	33.917457
913.239231	33.748578
913.645156	33.591589
914.051046	33.464368
914.456902	33.344970
914.862721	33.218754
915.268506	33.134814
915.674256	33.077586
916.079970	33.033228
916.485649	32.992601
916.891292	32.963033
917.296901	32.954717
917.702474	32.949138
918.108011	32.948606
918.513514	32.973509
918.918980	33.005942
919.324412	33.049291
919.729808	33.108866
920.135169	33.164708
920.540494	33.247537
920.945783	33.304033
921.351037	33.406440
921.756256	33.477089
922.161439	33.572569
922.566586	33.692577
922.971698	33.804960
923.376775	33.930482
923.781815	34.061105
924.186820	34.188946
924.591790	34.340027
924.996723	34.464275
925.401621	34.610185
925.806484	34.736700
926.211310	34.863691
926.616101	34.990865
927.020856	35.113035
927.425575	35.232654
927.830259	35.335555
928.234906	35.425052
928.639518	35.517949
929.044094	35.599773
929.448634	35.678172
929.853138	35.738429
930.257606	35.816892
930.662038	35.884736
931.066434	35.933755
931.470795	35.984538
931.875119	36.022127
932.279407	36.050631
932.683659	36.087990
933.087875	36.097864
933.492055	36.136900
933.896199	36.114561
934.300307	36.139997
934.704379	36.145146
935.108414	36.115843
935.512414	36.119165
935.916377	36.107525
936.320304	36.087344
936.724195	36.055822
937.128049	36.007266
937.531867	35.977886
937.935649	35.885250
938.339395	35.826808
938.743104	35.772491
939.146777	35.705479
939.550414	35.633210
939.954014	35.565912
940.357578	35.458802
940.761105	35.347574
941.164596	35.238975
941.568050	35.139897
941.971468	35.005551
942.374850	34.882336
942.778195	34.756153
943.181503	34.599062
943.584775	34.465283
943.988010	34.290311
944.391209	34.138366
944.794371	33.963019
945.197496	33.763192
945.600585	33.576196
946.003637	33.373712
946.406653	33.181870
946.809632	32.933854
947.212574	32.724002
947.615479	32.498455
948.018347	32.229611
948.421179	31.975104
948.823974	31.713154
949.226732	31.496733
949.629453	31.230175
950.032138	30.977343
950.434785	30.753438
950.837396	30.519476
951.239969	30.254233
951.642506	29.999848
952.045006	29.760418
952.447469	29.543390
952.849895	29.316352
953.252283	29.127277
953.654635	28.934370
954.056950	28.753894
954.459227	28.579562
954.861468	28.405153
955.263671	28.226843
955.665838	28.097977
956.067967	27.959008
956.470059	27.827230
956.872114	27.680764
957.274131	27.576071
957.676112	27.478084
958.078055	27.407872
958.479961	27.327423
958.881829	27.250519
959.283661	27.211021
959.685455	27.142682
960.087211	27.099890
960.488931	27.073606
960.890613	27.055495
961.292257	27.036319
961.693864	27.030194
962.095434	27.029017
962.496966	27.007884
962.898461	27.010404
963.299918	27.016684
963.701338	27.048373
964.102720	27.038025
964.504065	27.056277
964.905372	27.019552
965.306641	27.057444
965.707873	27.083623
966.109068	27.058440
966.510224	27.028334
966.911343	27.014428
967.312425	27.033432
967.713468	27.032233
968.114474	26.980059
968.515442	26.920896
968.916373	26.912206
969.317265	26.904522
969.718120	26.877236
970.118937	26.864282
970.519716	26.838381
970.920458	26.822290
971.321161	26.850010
971.721827	26.819916
972.122454	26.780715
972.523044	26.772427
972.923596	26.806118
973.324110	26.783140
973.724585	26.789679
974.125023	26.760259
974.525423	26.766553
974.925785	26.776773
975.326108	26.781292
975.726394	26.731731
976.126642	26.700563
976.526851	26.704751
976.927022	26.658433
977.327155	26.719917
977.727250	26.704055
978.127307	26.695917
978.527325	26.762609
978.927306	26.791745
979.327248	26.833231
979.727151	26.811064
980.127017	26.868219
980.526844	26.906766
980.926633	26.976827
981.326383	27.052451
981.726095	27.094110
982.125769	27.160677
982.525404	27.197763
982.925001	27.205943
983.324560	27.285677
983.724079	27.252149
984.123561	27.329260
984.523004	27.415503
984.922408	27.467277
985.321774	27.426921
985.721102	27.453708
986.120390	27.444757
986.519641	27.438935
986.918852	27.437072
987.318025	27.461299
987.717159	27.449090
988.116255	27.509738
988.515312	27.564494
988.914330	27.638184
989.313310	27.664216
989.712250	27.638664
990.111152	27.668733
990.510015	27.635198
990.908840	27.630502
991.307625	27.645519
991.706372	27.654639
992.105080	27.661921
992.503749	27.654379
992.902379	27.703191
993.300970	27.695122
993.699522	27.646266
994.098035	27.685350
994.496510	27.683680
994.894945	27.685354
995.293341	27.771874
995.691698	27.757420
996.090016	27.880811
996.488296	27.893006
996.886535	27.934045
997.284736	28.025604
997.682898	28.004060
998.081021	28.124278
998.479104	28.213188
998.877148	28.340140
999.275153	28.451748
999.673119	28.443849
1000.071046	28.511948
1000.468933	28.616802
1000.866781	28.805233
1001.264590	28.917869
1001.662359	29.004858
1002.060089	29.222684
1002.457780	29.238256
1002.855431	29.484536
1003.253043	29.625256
1003.650615	29.760351
1004.048148	29.833605
1004.445642	30.029398
1004.843096	30.235419
1005.240511	30.410604
1005.637886	30.548678
1006.035221	30.853175
1006.432517	31.139011
1006.829774	31.419063
1007.226991	31.897032
1007.624168	32.102552
1008.021306	32.403218
1008.418404	32.665606
1008.815462	32.792737
1009.212481	33.075111
1009.609460	33.230998
1010.006399	33.783590
1010.403298	34.011127
1010.800158	34.578825
1011.196978	34.775583
1011.593758	35.227577
1011.990498	35.949730
1012.387199	36.484876
1012.783860	36.755431
1013.180480	36.957043
1013.577061	37.114742
1013.973602	37.898699
1014.370103	38.295776
1014.766564	38.869626
1015.162985	39.151737
1015.559366	39.401881
1015.955708	39.702173
1016.352009	40.212912
1016.748270	40.723242
1017.144491	40.924855
1017.540671	41.120540
1017.936812	41.673894
1018.332913	42.080241
1018.728973	42.320059
1019.124994	42.589662
1019.520974	42.403628
1019.916914	42.902882
1020.312814	43.033800
