Time1=100ms:Average1=5:Objective=10X:Aperture=1: (11/28/2018 10:54:12 AM)
11/28/2018 10:54:12 AM
Reflectance
10X
Ap#: 1
Avg1: 5.000000
Avg2: 0.000000
Int.Time1:100.000000

350.166136	59.205569
350.601937	59.376837
351.037728	59.839945
351.473509	59.636644
351.909281	60.207075
352.345042	60.277438
352.780794	60.495551
353.216536	60.627300
353.652267	60.857393
354.087989	61.077004
354.523701	61.477642
354.959403	61.416908
355.395095	61.431972
355.830777	61.356620
356.266449	61.443973
356.702110	61.856034
357.137762	61.974697
357.573404	61.870887
358.009035	61.852182
358.444656	61.751317
358.880268	61.837992
359.315869	62.187417
359.751459	62.378446
360.187040	62.334880
360.622610	62.305769
361.058170	62.543632
361.493720	62.183826
361.929260	61.971957
362.364789	62.524567
362.800308	62.554517
363.235816	62.533286
363.671314	62.633262
364.106802	62.782022
364.542279	62.786361
364.977746	63.080337
365.413203	62.863218
365.848649	63.195182
366.284084	62.745619
366.719509	62.844240
367.154924	62.690941
367.590328	62.376765
368.025721	62.309465
368.461104	62.697427
368.896477	62.610307
369.331838	62.432884
369.767189	62.651236
370.202530	62.691667
370.637859	62.862414
371.073178	63.010696
371.508486	62.789074
371.943784	63.057269
372.379071	62.875760
372.814347	62.243300
373.249612	62.236544
373.684866	62.205959
374.120110	62.224928
374.555343	62.339018
374.990565	62.847404
375.425776	62.891103
375.860976	62.710386
376.296165	62.688134
376.731343	62.746300
377.166511	62.285614
377.601667	62.069570
378.036812	61.964955
378.471946	61.758050
378.907070	62.037683
379.342182	61.712299
379.777283	61.800000
380.212373	61.776931
380.647452	61.681920
381.082520	61.902716
381.517576	61.617204
381.952622	61.488757
382.387656	61.515859
382.822679	61.651535
383.257691	61.684994
383.692692	61.463753
384.127681	61.146166
384.562659	61.533143
384.997626	61.393061
385.432581	61.261339
385.867525	61.144137
386.302458	61.823042
386.737379	61.908036
387.172289	61.983896
387.607188	61.781092
388.042075	61.899049
388.476951	61.814454
388.911815	61.918901
389.346668	61.682481
389.781509	62.027883
390.216338	61.705544
390.651157	61.809130
391.085963	61.809468
391.520758	61.796427
391.955541	61.795863
392.390313	61.440322
392.825073	61.232036
393.259821	61.233554
393.694558	60.909624
394.129283	60.951983
394.563996	60.839860
394.998698	61.212473
395.433388	61.204441
395.868066	61.088004
396.302732	61.085806
396.737386	60.857832
397.172029	60.792378
397.606659	60.811193
398.041278	60.013610
398.475885	60.139082
398.910480	59.849736
399.345063	59.597101
399.779634	58.931315
400.214194	57.848903
400.648741	56.913243
401.083276	55.815715
401.517799	54.210085
401.952310	52.576936
402.386809	50.870274
402.821296	49.237548
403.255771	47.470736
403.690234	45.773249
404.124684	44.058770
404.559123	42.315053
404.993549	40.449729
405.427963	38.708611
405.862365	37.194546
406.296754	35.818753
406.731131	34.321687
407.165496	32.942131
407.599849	31.625839
408.034190	30.376544
408.468518	29.092282
408.902833	28.072095
409.337137	27.132278
409.771428	26.237902
410.205706	25.420220
410.639973	24.636829
411.074226	24.035700
411.508467	23.520205
411.942696	23.122481
412.376912	22.785797
412.811116	22.480041
413.245307	22.257227
413.679486	22.131764
414.113652	21.994593
414.547805	21.890066
414.981946	21.819593
415.416074	21.800270
415.850190	21.755261
416.284293	21.742909
416.718383	21.721461
417.152460	21.817575
417.586525	21.868566
418.020577	21.929864
418.454616	22.034735
418.888643	22.130285
419.322656	22.191066
419.756657	22.252321
420.190645	22.279052
420.624620	22.319000
421.058582	22.366617
421.492531	22.444501
421.926468	22.566709
422.360391	22.691336
422.794301	22.862264
423.228199	23.073245
423.662083	23.332587
424.095955	23.602463
424.529813	23.851414
424.963658	24.130067
425.397491	24.345922
425.831310	24.578942
426.265116	24.801060
426.698909	25.019876
427.132689	25.247762
427.566455	25.479471
428.000209	25.726019
428.433949	25.991914
428.867676	26.293784
429.301389	26.585075
429.735090	26.862363
430.168777	27.136684
430.602451	27.306741
431.036111	27.462836
431.469759	27.652784
431.903392	27.783063
432.337013	27.888058
432.770620	28.057132
433.204213	28.220939
433.637794	28.442595
434.071360	28.679724
434.504914	28.948239
434.938453	29.261882
435.371979	29.568461
435.805492	29.879719
436.238991	30.183375
436.672477	30.481682
437.105949	30.743267
437.539407	30.962651
437.972852	31.148598
438.406283	31.324110
438.839700	31.531286
439.273104	31.717127
439.706494	31.963314
440.139871	32.203934
440.573233	32.432862
441.006582	32.661773
441.439917	32.879214
441.873238	33.060744
442.306546	33.181576
442.739839	33.266088
443.173119	33.335119
443.606385	33.370050
444.039636	33.432551
444.472874	33.511994
444.906099	33.600425
445.339309	33.750261
445.772505	33.930889
446.205687	34.120198
446.638855	34.348975
447.072009	34.589352
447.505149	34.870809
447.938275	35.129016
448.371387	35.356752
448.804485	35.570412
449.237569	35.773467
449.670638	35.915956
450.103694	36.032381
450.536735	36.136686
450.969762	36.260231
451.402774	36.385191
451.835773	36.510453
452.268757	36.670581
452.701727	36.840524
453.134683	37.004968
453.567624	37.168839
454.000551	37.319541
454.433464	37.461179
454.866362	37.553731
455.299246	37.630569
455.732116	37.695236
456.164971	37.772133
456.597811	37.807736
457.030638	37.877405
457.463449	37.949935
457.896246	38.017951
458.329029	38.071616
458.761797	38.123297
459.194551	38.164967
459.627290	38.207471
460.060014	38.253660
460.492724	38.305652
460.925419	38.326398
461.358099	38.365168
461.790765	38.391743
462.223416	38.398421
462.656052	38.376327
463.088674	38.369975
463.521281	38.312392
463.953873	38.255167
464.386450	38.178844
464.819012	38.114173
465.251560	38.060540
465.684093	37.998544
466.116611	37.940384
466.549114	37.884738
466.981602	37.814140
467.414075	37.757969
467.846533	37.665909
468.278977	37.591251
468.711405	37.483086
469.143818	37.364052
469.576216	37.207911
470.008600	37.049207
470.440968	36.854743
470.873321	36.637548
471.305659	36.409139
471.737982	36.174791
472.170289	35.899593
472.602582	35.631455
473.034859	35.339915
473.467122	35.038210
473.899369	34.728460
474.331600	34.429646
474.763817	34.145369
475.196018	33.878522
475.628204	33.635951
476.060375	33.405257
476.492530	33.185992
476.924670	32.994449
477.356795	32.784586
477.788904	32.580088
478.220998	32.366662
478.653076	32.138241
479.085139	31.898976
479.517186	31.678868
479.949219	31.461837
480.381235	31.281182
480.813236	31.132703
481.245221	31.043958
481.677191	30.974097
482.109146	30.955418
482.541084	30.964357
482.973008	30.997844
483.404915	31.056978
483.836807	31.113670
484.268683	31.192743
484.700544	31.275290
485.132388	31.361651
485.564217	31.476101
485.996031	31.609976
486.427828	31.771970
486.859610	31.941063
487.291376	32.139379
487.723126	32.370233
488.154860	32.628138
488.586579	32.923536
489.018281	33.263700
489.449968	33.658939
489.881639	34.130962
490.313293	34.667593
490.744932	35.262301
491.176555	35.904479
491.608162	36.572794
492.039753	37.247242
492.471328	37.919244
492.902886	38.557824
493.334429	39.163499
493.765956	39.736043
494.197466	40.282672
494.628960	40.822134
495.060439	41.364130
495.491901	41.933595
495.923347	42.543703
496.354776	43.180928
496.786190	43.872196
497.217587	44.610620
497.648968	45.352102
498.080332	46.107459
498.511681	46.839618
498.943013	47.558569
499.374328	48.220914
499.805628	48.824994
500.236911	49.396800
500.668177	49.904306
501.099427	50.358605
501.530661	50.758557
501.961878	51.110442
502.393079	51.412365
502.824264	51.696128
503.255431	51.919524
503.686583	52.118334
504.117717	52.300851
504.548835	52.490033
504.979937	52.718130
505.411022	52.968335
505.842090	53.273418
506.273142	53.631672
506.704177	54.029046
507.135195	54.439797
507.566197	54.860812
507.997182	55.252655
508.428150	55.618081
508.859102	55.912078
509.290036	56.121407
509.720954	56.272822
510.151855	56.356381
510.582739	56.394207
511.013607	56.424427
511.444457	56.460106
511.875291	56.544196
512.306107	56.663898
512.736907	56.836086
513.167690	57.081012
513.598456	57.358008
514.029205	57.672143
514.459936	57.992159
514.890651	58.301722
515.321349	58.575465
515.752030	58.829037
516.182693	59.011289
516.613340	59.138036
517.043969	59.198160
517.474582	59.206424
517.905177	59.150760
518.335755	59.015250
518.766315	58.867207
519.196859	58.645314
519.627385	58.395609
520.057894	58.115872
520.488386	57.839930
520.918860	57.569817
521.349318	57.316262
521.779757	57.090946
522.210180	56.930170
522.640585	56.853615
523.070973	56.836700
523.501343	56.873376
523.931696	56.961877
524.362031	57.077085
524.792349	57.200326
525.222650	57.284778
525.652933	57.321505
526.083198	57.325069
526.513446	57.255136
526.943677	57.142526
527.373890	56.981386
527.804085	56.783118
528.234262	56.591115
528.664422	56.424324
529.094565	56.266677
529.524689	56.167373
529.954796	56.132753
530.384885	56.170931
530.814957	56.284652
531.245011	56.451292
531.675047	56.685527
532.105065	56.947529
532.535065	57.257612
532.965048	57.569650
533.395013	57.887640
533.824959	58.177240
534.254888	58.447274
534.684799	58.673518
535.114693	58.868872
535.544568	59.015493
535.974425	59.104103
536.404264	59.152664
536.834086	59.149662
537.263889	59.102088
537.693674	59.018740
538.123441	58.919199
538.553190	58.835794
538.982921	58.762226
539.412634	58.711098
539.842329	58.694693
540.272006	58.719869
540.701664	58.781772
541.131304	58.914146
541.560926	59.055725
541.990530	59.222709
542.420116	59.415961
542.849683	59.601726
543.279232	59.770630
543.708763	59.896989
544.138275	59.991098
544.567769	60.024118
544.997245	59.981880
545.426702	59.881152
545.856141	59.710892
546.285562	59.496387
546.714964	59.225457
547.144347	58.951912
547.573713	58.652337
548.003059	58.378735
548.432387	58.128844
548.861697	57.889654
549.290988	57.683048
549.720260	57.529447
550.149514	57.432305
550.578750	57.380457
551.007966	57.377490
551.437164	57.403978
551.866344	57.455128
552.295504	57.518965
552.724646	57.583103
553.153769	57.648101
553.582874	57.680282
554.011960	57.681776
554.441027	57.601681
554.870075	57.498361
555.299104	57.350741
555.728115	57.154212
556.157106	56.914860
556.586079	56.635825
557.015033	56.336423
557.443968	56.011238
557.872884	55.709123
558.301781	55.434812
558.730659	55.167332
559.159518	54.939742
559.588358	54.744929
560.017180	54.600536
560.445982	54.487753
560.874765	54.416494
561.303528	54.366034
561.732273	54.325526
562.160999	54.311649
562.589705	54.302947
563.018393	54.279319
563.447061	54.241989
563.875710	54.185706
564.304340	54.112800
564.732950	54.019441
565.161542	53.897434
565.590114	53.750164
566.018666	53.577251
566.447200	53.370506
566.875714	53.153829
567.304208	52.918847
567.732684	52.694847
568.161140	52.463045
568.589576	52.245610
569.017993	52.034053
569.446391	51.842476
569.874769	51.686955
570.303128	51.562422
570.731467	51.476354
571.159787	51.422937
571.588087	51.407241
572.016368	51.443038
572.444629	51.512394
572.872870	51.619955
573.301092	51.734801
573.729294	51.854226
574.157476	51.980399
574.585639	52.088377
575.013782	52.173810
575.441906	52.228353
575.870009	52.228497
576.298093	52.203232
576.726157	52.140060
577.154202	52.052334
577.582226	51.937155
578.010231	51.803535
578.438216	51.662111
578.866181	51.524592
579.294126	51.402429
579.722051	51.300794
580.149957	51.202392
580.577842	51.133804
581.005707	51.087910
581.433553	51.062370
581.861378	51.037754
582.289184	51.025679
582.716969	51.019897
583.144734	51.009144
583.572479	50.999844
584.000205	50.973208
584.427910	50.930726
584.855594	50.862460
585.283259	50.773718
585.710904	50.658959
586.138528	50.520483
586.566132	50.374586
586.993716	50.213541
587.421280	50.017810
587.848823	49.805585
588.276346	49.570298
588.703849	49.304352
589.131332	49.039782
589.558794	48.749894
589.986236	48.447690
590.413657	48.116412
590.841058	47.772134
591.268438	47.417764
591.695799	47.056016
592.123138	46.709862
592.550458	46.351530
592.977756	46.010160
593.405034	45.693428
593.832292	45.397133
594.259529	45.122075
594.686746	44.872712
595.113942	44.652518
595.541117	44.466654
595.968272	44.290644
596.395406	44.127875
596.822519	43.969490
597.249612	43.819353
597.676684	43.673156
598.103735	43.523882
598.530766	43.358410
598.957775	43.186594
599.384764	43.001809
599.811733	42.812704
600.238680	42.618387
600.665606	42.430985
601.092512	42.260064
601.519397	42.100527
601.946261	41.968351
602.373104	41.865292
602.799926	41.789903
603.226727	41.738538
603.653507	41.722208
604.080266	41.727777
604.507004	41.763151
604.933721	41.802494
605.360417	41.845897
605.787092	41.904929
606.213746	41.953523
606.640379	41.993272
607.066991	42.019856
607.493581	42.038417
607.920150	42.037221
608.346699	42.022549
608.773226	41.984145
609.199731	41.947714
609.626216	41.907308
610.052679	41.864671
610.479121	41.815853
610.905542	41.761509
611.331941	41.709843
611.758319	41.660106
612.184676	41.614518
612.611011	41.572116
613.037325	41.528822
613.463617	41.488914
613.889888	41.444971
614.316138	41.394033
614.742366	41.345823
615.168573	41.300923
615.594758	41.245801
616.020921	41.193608
616.447063	41.152002
616.873184	41.124437
617.299283	41.108364
617.725360	41.105748
618.151416	41.142982
618.577450	41.204285
619.003462	41.286610
619.429453	41.395770
619.855422	41.553647
620.281369	41.743577
620.707295	41.961021
621.133199	42.207753
621.559081	42.467407
621.984941	42.736388
622.410779	43.014781
622.836596	43.283365
623.262391	43.556744
623.688163	43.821408
624.113914	44.081931
624.539644	44.335547
624.965351	44.575388
625.391036	44.796322
625.816699	44.999371
626.242340	45.189827
626.667960	45.368538
627.093557	45.532772
627.519132	45.688757
627.944685	45.841953
628.370216	45.977066
628.795725	46.101131
629.221212	46.199546
629.646677	46.267696
630.072119	46.303643
630.497540	46.312040
630.922938	46.285546
631.348314	46.207636
631.773668	46.084360
632.198999	45.921351
632.624308	45.723679
633.049595	45.474729
633.474860	45.191384
633.900102	44.876656
634.325322	44.530318
634.750520	44.177973
635.175695	43.823358
635.600848	43.458469
636.025978	43.110558
636.451086	42.772254
636.876171	42.455680
637.301234	42.165985
637.726275	41.894347
638.151293	41.669312
638.576288	41.475347
639.001261	41.321162
639.426211	41.211968
639.851139	41.138390
640.276044	41.108272
640.700927	41.115217
641.125787	41.153602
641.550624	41.217740
641.975438	41.317456
642.400230	41.442439
642.824999	41.595825
643.249745	41.789958
643.674469	42.006106
644.099169	42.245853
644.523847	42.526818
644.948502	42.847342
645.373135	43.210239
645.797744	43.608261
646.222330	44.042043
646.646894	44.511276
647.071435	45.020219
647.495953	45.568652
647.920447	46.128328
648.344919	46.710231
648.769368	47.311928
649.193794	47.909540
649.618197	48.509008
650.042576	49.097578
650.466933	49.669096
650.891267	50.218381
651.315577	50.719612
651.739864	51.200967
652.164129	51.629569
652.588370	52.001719
653.012587	52.323275
653.436782	52.592622
653.860953	52.807905
654.285102	52.964732
654.709226	53.074980
655.133328	53.130036
655.557406	53.146840
655.981461	53.114997
656.405493	53.034212
656.829501	52.909310
657.253486	52.735948
657.677448	52.518218
658.101386	52.262272
658.525301	51.950639
658.949192	51.590454
659.373060	51.201105
659.796904	50.763659
660.220725	50.283901
660.644522	49.759905
661.068296	49.213146
661.492046	48.640725
661.915772	48.047886
662.339475	47.454087
662.763154	46.859872
663.186810	46.277445
663.610442	45.711575
664.034050	45.181574
664.457635	44.700185
664.881196	44.255354
665.304733	43.865213
665.728247	43.539351
666.151736	43.262923
666.575202	43.051867
666.998644	42.898021
667.422062	42.814362
667.845457	42.780139
668.268827	42.796632
668.692174	42.856255
669.115496	42.967670
669.538795	43.098214
669.962070	43.261979
670.385321	43.457247
670.808547	43.664655
671.231750	43.870320
671.654929	44.092793
672.078084	44.323298
672.501214	44.537314
672.924321	44.760585
673.347404	44.984269
673.770462	45.211945
674.193496	45.439562
674.616506	45.670983
675.039492	45.900912
675.462454	46.123520
675.885391	46.343470
676.308305	46.570413
676.731194	46.797386
677.154058	47.018967
677.576899	47.233131
677.999715	47.438191
678.422507	47.636321
678.845274	47.826117
679.268017	48.012299
679.690736	48.168019
680.113430	48.304888
680.536100	48.416561
680.958746	48.510682
681.381367	48.579259
681.803963	48.636054
682.226535	48.673964
682.649083	48.712670
683.071605	48.729956
683.494104	48.732915
683.916578	48.730052
684.339027	48.728198
684.761451	48.719374
685.183851	48.711554
685.606227	48.703247
686.028577	48.680214
686.450903	48.659039
686.873204	48.623828
687.295481	48.574622
687.717733	48.513673
688.139959	48.449567
688.562162	48.375885
688.984339	48.282512
689.406492	48.176485
689.828619	48.049496
690.250722	47.899716
690.672800	47.733623
691.094853	47.553221
691.516881	47.367537
691.938884	47.152873
692.360863	46.926842
692.782816	46.705340
693.204744	46.485769
693.626647	46.267661
694.048526	46.072511
694.470379	45.893583
694.892207	45.739876
695.314010	45.608800
695.735788	45.512861
696.157540	45.458213
696.579268	45.442778
697.000970	45.469934
697.422648	45.542322
697.844300	45.660268
698.265926	45.824778
698.687528	46.035500
699.109104	46.300879
699.530655	46.584200
699.952181	46.924344
700.373681	47.288615
700.795156	47.676952
701.216606	48.077308
701.638030	48.486484
702.059429	48.898063
702.480803	49.299104
702.902151	49.679713
703.323473	50.050966
703.744770	50.390841
704.166042	50.705699
704.587288	50.970329
705.008509	51.213424
705.429704	51.417574
705.850873	51.579049
706.272017	51.705190
706.693135	51.803570
707.114228	51.857747
707.535295	51.887031
707.956336	51.881765
708.377352	51.848883
708.798342	51.765937
709.219306	51.669049
709.640245	51.558540
710.061157	51.432431
710.482044	51.285042
710.902905	51.126699
711.323741	50.954055
711.744550	50.767578
712.165334	50.571412
712.586092	50.381986
713.006823	50.171786
713.427529	49.971027
713.848209	49.774203
714.268863	49.581949
714.689492	49.407248
715.110094	49.244902
715.530670	49.090215
715.951220	48.966078
716.371744	48.850856
716.792242	48.769570
717.212714	48.702053
717.633159	48.656916
718.053579	48.625142
718.473973	48.609352
718.894340	48.612585
719.314681	48.618593
719.734996	48.621654
720.155285	48.638048
720.575547	48.640988
720.995784	48.630720
721.415994	48.610124
721.836177	48.586986
722.256335	48.533231
722.676466	48.450142
723.096570	48.336530
723.516649	48.197154
723.936701	48.022280
724.356726	47.808191
724.776725	47.564566
725.196698	47.282873
725.616644	46.971703
726.036564	46.629901
726.456457	46.262515
726.876324	45.880965
727.296164	45.479585
727.715977	45.059804
728.135764	44.640737
728.555525	44.218513
728.975258	43.792431
729.394966	43.382653
729.814646	42.977372
730.234300	42.591788
730.653927	42.238122
731.073527	41.902681
731.493101	41.607017
731.912648	41.332782
732.332168	41.104413
732.751661	40.914409
733.171128	40.753211
733.590568	40.641721
734.009980	40.578985
734.429366	40.546927
734.848726	40.562059
735.268058	40.606714
735.687363	40.688473
736.106641	40.798586
736.525893	40.940050
736.945117	41.103084
737.364314	41.286715
737.783485	41.500202
738.202628	41.730362
738.621744	41.968882
739.040834	42.220918
739.459896	42.479646
739.878931	42.737597
740.297939	42.996728
740.716919	43.253136
741.135873	43.493264
741.554799	43.742313
741.973698	43.976711
742.392570	44.202323
742.811415	44.412307
743.230232	44.606636
743.649022	44.790588
744.067785	44.965720
744.486521	45.119048
744.905229	45.260766
745.323909	45.389197
745.742563	45.505595
746.161189	45.619358
746.579787	45.722563
746.998358	45.817866
747.416902	45.907562
747.835418	45.986274
748.253907	46.075198
748.672368	46.166721
749.090802	46.267617
749.509208	46.369844
749.927586	46.480260
750.345937	46.615932
750.764261	46.748915
751.182556	46.906270
751.600824	47.073512
752.019065	47.252577
752.437277	47.439959
752.855462	47.639284
753.273620	47.846260
753.691749	48.067497
754.109851	48.305182
754.527925	48.522958
754.945971	48.750798
755.363989	48.971210
755.781980	49.177940
756.199943	49.379863
756.617877	49.547643
757.035784	49.690046
757.453663	49.806939
757.871514	49.908120
758.289337	49.967526
758.707132	49.991567
759.124899	49.967466
759.542639	49.895181
759.960350	49.776318
760.378033	49.629251
760.795688	49.427019
761.213314	49.189790
761.630913	48.901031
762.048484	48.580727
762.466026	48.225871
762.883541	47.838253
763.301027	47.416797
763.718485	46.984553
764.135914	46.523559
764.553316	46.052604
764.970689	45.584317
765.388034	45.122768
765.805351	44.657368
766.222639	44.206822
766.639899	43.765121
767.057131	43.338052
767.474334	42.943086
767.891509	42.575003
768.308655	42.237953
768.725773	41.945934
769.142863	41.687247
769.559924	41.479368
769.976957	41.319571
770.393961	41.197789
770.810936	41.117479
771.227883	41.087206
771.644802	41.109544
772.061692	41.173991
772.478553	41.289595
772.895386	41.445240
773.312190	41.635546
773.728965	41.890179
774.145712	42.187867
774.562430	42.524579
774.979119	42.894151
775.395780	43.284820
775.812411	43.709378
776.229014	44.150018
776.645589	44.595316
777.062134	45.053329
777.478651	45.515822
777.895138	45.977514
778.311597	46.426927
778.728027	46.863633
779.144428	47.290325
779.560800	47.688928
779.977143	48.066616
780.393458	48.412276
780.809743	48.732102
781.225999	49.001637
781.642226	49.235485
782.058425	49.416885
782.474594	49.554029
782.890734	49.634612
783.306845	49.675335
783.722926	49.658301
784.138979	49.589770
784.555003	49.455488
784.970997	49.275887
785.386962	49.045402
785.802898	48.767046
786.218805	48.464452
786.634682	48.101274
787.050531	47.703127
787.466349	47.274679
787.882139	46.818185
788.297899	46.366022
788.713630	45.899561
789.129332	45.440629
789.545004	44.997816
789.960647	44.560829
790.376260	44.156417
790.791844	43.775693
791.207399	43.427399
791.622924	43.108740
792.038419	42.815905
792.453885	42.575710
792.869321	42.370358
793.284728	42.210962
793.700106	42.079069
794.115453	41.997176
794.530771	41.943513
794.946060	41.928791
795.361319	41.928878
795.776548	41.960118
796.191747	42.006134
796.606917	42.071162
797.022057	42.143838
797.437167	42.220170
797.852248	42.300601
798.267298	42.378928
798.682319	42.454926
799.097310	42.505263
799.512271	42.536349
799.927203	42.536363
800.342104	42.524374
800.756976	42.477648
801.171818	42.389733
801.586629	42.266832
802.001411	42.112052
802.416163	41.907649
802.830885	41.687691
803.245577	41.439587
803.660238	41.160042
804.074870	40.849489
804.489472	40.524131
804.904043	40.183292
805.318585	39.824706
805.733096	39.455212
806.147577	39.065449
806.562028	38.674723
806.976449	38.273416
807.390840	37.871546
807.805200	37.479090
808.219530	37.106673
808.633830	36.736111
809.048100	36.388123
809.462339	36.052845
809.876548	35.738839
810.290727	35.459751
810.704875	35.194690
811.118993	34.958390
811.533080	34.744114
811.947137	34.561209
812.361164	34.416937
812.775160	34.301570
813.189126	34.210262
813.603061	34.160758
814.016966	34.143291
814.430840	34.175109
814.844684	34.224780
815.258497	34.332512
815.672280	34.462310
816.086032	34.626893
816.499753	34.809111
816.913444	35.042627
817.327104	35.299461
817.740733	35.573496
818.154331	35.876077
818.567899	36.205928
818.981436	36.561836
819.394943	36.935208
819.808418	37.331607
820.221863	37.742278
820.635277	38.158030
821.048660	38.563804
821.462013	38.985557
821.875334	39.403025
822.288625	39.839447
822.701884	40.268185
823.115113	40.670055
823.528311	41.078112
823.941478	41.456736
824.354614	41.825972
824.767718	42.174880
825.180792	42.497521
825.593835	42.796328
826.006847	43.054745
826.419827	43.271812
826.832777	43.467116
827.245695	43.604848
827.658582	43.713759
828.071438	43.763258
828.484263	43.778491
828.897057	43.723894
829.309819	43.660713
829.722551	43.528212
830.135251	43.363421
830.547919	43.170790
830.960557	42.932969
831.373163	42.657749
831.785738	42.368768
832.198281	42.078847
832.610793	41.764151
833.023274	41.447681
833.435723	41.127327
833.848141	40.814421
834.260528	40.521813
834.672883	40.231137
835.085206	39.949138
835.497498	39.676245
835.909758	39.442763
836.321987	39.211700
836.734185	39.033665
837.146350	38.874222
837.558485	38.746327
837.970587	38.629653
838.382658	38.552940
838.794697	38.514623
839.206705	38.507184
839.618681	38.504091
840.030625	38.536774
840.442538	38.594918
840.854418	38.676435
841.266267	38.782159
841.678084	38.922705
842.089870	39.053763
842.501623	39.199085
842.913345	39.367967
843.325035	39.533352
843.736693	39.716754
844.148319	39.900645
844.559913	40.081789
844.971475	40.240178
845.383005	40.402331
845.794504	40.562906
846.205970	40.718890
846.617404	40.880764
847.028806	41.013362
847.440176	41.140247
847.851514	41.242769
848.262820	41.348096
848.674094	41.437917
849.085336	41.528337
849.496546	41.590050
849.907723	41.631728
850.318868	41.663818
850.729981	41.682455
851.141062	41.694785
851.552110	41.704817
851.963127	41.686753
852.374111	41.689286
852.785062	41.667096
853.195982	41.641853
853.606869	41.618324
854.017723	41.582616
854.428546	41.548742
854.839336	41.519300
855.250093	41.499592
855.660818	41.473922
856.071511	41.450967
856.482171	41.424681
856.892799	41.405097
857.303394	41.375756
857.713956	41.351244
858.124486	41.343225
858.534984	41.308536
858.945449	41.260603
859.355881	41.202283
859.766280	41.145359
860.176647	41.071310
860.586982	41.012660
860.997283	40.912896
861.407552	40.791102
861.817789	40.675810
862.227992	40.538470
862.638163	40.407491
863.048301	40.242123
863.458406	40.089854
863.868478	39.913887
864.278518	39.730935
864.688524	39.559843
865.098498	39.366053
865.508439	39.183089
865.918347	38.989384
866.328222	38.794453
866.738064	38.607885
867.147873	38.429303
867.557649	38.252367
867.967392	38.102120
868.377102	37.953285
868.786779	37.829170
869.196423	37.728933
869.606034	37.642644
870.015612	37.596533
870.425156	37.571977
870.834668	37.553846
871.244146	37.584965
871.653591	37.640779
872.063003	37.708063
872.472382	37.818671
872.881728	37.976054
873.291040	38.129116
873.700319	38.332272
874.109564	38.563246
874.518777	38.802865
874.927956	39.066947
875.337102	39.347094
875.746214	39.660915
876.155293	39.977895
876.564338	40.297583
876.973350	40.614395
877.382329	40.931782
877.791274	41.249057
878.200186	41.562015
878.609064	41.847227
879.017909	42.104054
879.426720	42.340490
879.835497	42.551593
880.244241	42.733595
880.652952	42.887038
881.061629	42.988869
881.470272	43.051450
881.878881	43.063128
882.287457	43.042040
882.695999	42.975537
883.104507	42.869747
883.512982	42.734244
883.921423	42.548548
884.329830	42.362133
884.738203	42.150103
885.146543	41.897217
885.554849	41.615795
885.963120	41.304840
886.371358	41.008515
886.779563	40.677988
887.187733	40.335034
887.595869	39.998975
888.003971	39.645731
888.412040	39.304778
888.820074	38.958371
889.228074	38.626760
889.636041	38.323641
890.043973	38.042676
890.451871	37.780149
890.859736	37.529506
891.267566	37.322441
891.675362	37.161529
892.083124	37.008754
892.490851	36.909858
892.898545	36.851428
893.306204	36.802645
893.713829	36.807817
894.121420	36.871409
894.528977	36.973750
894.936499	37.125865
895.343987	37.319329
895.751441	37.535421
896.158860	37.804752
896.566246	38.094501
896.973596	38.383819
897.380913	38.723523
897.788195	39.078487
898.195442	39.451430
898.602655	39.870591
899.009834	40.266417
899.416978	40.668911
899.824088	41.098402
900.231163	41.527286
900.638204	41.964224
901.045210	42.353455
901.452181	42.759758
901.859118	43.147915
902.266021	43.509462
902.672888	43.849023
903.079721	44.161303
903.486520	44.441596
903.893283	44.689695
904.300012	44.903589
904.706707	45.100722
905.113366	45.222205
905.519991	45.318821
905.926581	45.387392
906.333136	45.402386
906.739656	45.381610
907.146142	45.306328
907.552592	45.202495
907.959008	45.049747
908.365389	44.881005
908.771735	44.669258
909.178046	44.458416
909.584322	44.222767
909.990563	43.932785
910.396769	43.647039
910.802940	43.348762
911.209076	43.001276
911.615177	42.646198
912.021243	42.328596
912.427274	41.990767
912.833270	41.634936
913.239231	41.286658
913.645156	40.951165
914.051046	40.625359
914.456902	40.312994
914.862721	39.983851
915.268506	39.669430
915.674256	39.391189
916.079970	39.124390
916.485649	38.891170
916.891292	38.656899
917.296901	38.465993
917.702474	38.279132
918.108011	38.120005
918.513514	37.979958
918.918980	37.870169
919.324412	37.777870
919.729808	37.713052
920.135169	37.672173
920.540494	37.672554
920.945783	37.693077
921.351037	37.728389
921.756256	37.781442
922.161439	37.858389
922.566586	37.985786
922.971698	38.096827
923.376775	38.204220
923.781815	38.373558
924.186820	38.525235
924.591790	38.670720
924.996723	38.819011
925.401621	38.989849
925.806484	39.150821
926.211310	39.315054
926.616101	39.457683
927.020856	39.605427
927.425575	39.735419
927.830259	39.866600
928.234906	39.944543
928.639518	40.043913
929.044094	40.101150
929.448634	40.173356
929.853138	40.194064
930.257606	40.231414
930.662038	40.222040
931.066434	40.189490
931.470795	40.143073
931.875119	40.074055
932.279407	40.006854
932.683659	39.918966
933.087875	39.798525
933.492055	39.650708
933.896199	39.476777
934.300307	39.280318
934.704379	39.081812
935.108414	38.817476
935.512414	38.576828
935.916377	38.349477
936.320304	38.078686
936.724195	37.808956
937.128049	37.544336
937.531867	37.291858
937.935649	36.984717
938.339395	36.731221
938.743104	36.453186
939.146777	36.222110
939.550414	35.983490
939.954014	35.801480
940.357578	35.564605
940.761105	35.385343
941.164596	35.210127
941.568050	35.073020
941.971468	34.941265
942.374850	34.848644
942.778195	34.753114
943.181503	34.696717
943.584775	34.675700
943.988010	34.652823
944.391209	34.650410
944.794371	34.677019
945.197496	34.669389
945.600585	34.645229
946.003637	34.671561
946.406653	34.734400
946.809632	34.787395
947.212574	34.848840
947.615479	34.933050
948.018347	35.004750
948.421179	35.052124
948.823974	35.085946
949.226732	35.177914
949.629453	35.218165
950.032138	35.246496
950.434785	35.315865
950.837396	35.347062
951.239969	35.382177
951.642506	35.353174
952.045006	35.337855
952.447469	35.282266
952.849895	35.259428
953.252283	35.240585
953.654635	35.160566
954.056950	35.080634
954.459227	34.976265
954.861468	34.847149
955.263671	34.684087
955.665838	34.542176
956.067967	34.370389
956.470059	34.205600
956.872114	34.029908
957.274131	33.817078
957.676112	33.619452
958.078055	33.493550
958.479961	33.297933
958.881829	33.066144
959.283661	32.861705
959.685455	32.673309
960.087211	32.491741
960.488931	32.308026
960.890613	32.146847
961.292257	31.970937
961.693864	31.791957
962.095434	31.638093
962.496966	31.465768
962.898461	31.336935
963.299918	31.212722
963.701338	31.118511
964.102720	31.053621
964.504065	30.934613
964.905372	30.844409
965.306641	30.751874
965.707873	30.658648
966.109068	30.607687
966.510224	30.569134
966.911343	30.499715
967.312425	30.480804
967.713468	30.509413
968.114474	30.490828
968.515442	30.477374
968.916373	30.473190
969.317265	30.482238
969.718120	30.476000
970.118937	30.508625
970.519716	30.477332
970.920458	30.504824
971.321161	30.542477
971.721827	30.510919
972.122454	30.481453
972.523044	30.500406
972.923596	30.481217
973.324110	30.479562
973.724585	30.502763
974.125023	30.483595
974.525423	30.479470
974.925785	30.493406
975.326108	30.475211
975.726394	30.391224
976.126642	30.313802
976.526851	30.277468
976.927022	30.238655
977.327155	30.239465
977.727250	30.222767
978.127307	30.173415
978.527325	30.192254
978.927306	30.126029
979.327248	30.136998
979.727151	30.049283
980.127017	29.965046
980.526844	29.904927
980.926633	29.866832
981.326383	29.825737
981.726095	29.784623
982.125769	29.761621
982.525404	29.720019
982.925001	29.627651
983.324560	29.582613
983.724079	29.533928
984.123561	29.599983
984.523004	29.603590
984.922408	29.515603
985.321774	29.518198
985.721102	29.448026
986.120390	29.416432
986.519641	29.372670
986.918852	29.368713
987.318025	29.396362
987.717159	29.343478
988.116255	29.410904
988.515312	29.465728
988.914330	29.504673
989.313310	29.548255
989.712250	29.511637
990.111152	29.599006
990.510015	29.643904
990.908840	29.571245
991.307625	29.573690
991.706372	29.494201
992.105080	29.551477
992.503749	29.636428
992.902379	29.684326
993.300970	29.724596
993.699522	29.779815
994.098035	29.790246
994.496510	29.785833
994.894945	29.768247
995.293341	29.909080
995.691698	29.927919
996.090016	29.976508
996.488296	29.962902
996.886535	29.979524
997.284736	30.115881
997.682898	30.083446
998.081021	30.190947
998.479104	30.300165
998.877148	30.386874
999.275153	30.423823
999.673119	30.371645
1000.071046	30.454122
1000.468933	30.437775
1000.866781	30.352296
1001.264590	30.357936
1001.662359	30.359933
1002.060089	30.468364
1002.457780	30.383691
1002.855431	30.476046
1003.253043	30.485986
1003.650615	30.686484
1004.048148	30.916803
1004.445642	30.964789
1004.843096	31.041788
1005.240511	31.131086
1005.637886	31.112068
1006.035221	31.290417
1006.432517	31.538665
1006.829774	31.837003
1007.226991	32.103923
1007.624168	32.331534
1008.021306	32.587565
1008.418404	32.747281
1008.815462	32.991054
1009.212481	33.134004
1009.609460	33.282166
1010.006399	33.716530
1010.403298	34.040668
1010.800158	34.320963
1011.196978	34.504509
1011.593758	34.734359
1011.990498	35.282769
1012.387199	35.786845
1012.783860	36.212334
1013.180480	36.963043
1013.577061	37.127120
1013.973602	37.751978
1014.370103	38.052690
1014.766564	38.578363
1015.162985	38.925046
1015.559366	39.525204
1015.955708	39.677761
1016.352009	39.843750
1016.748270	40.405234
1017.144491	40.606936
1017.540671	40.895614
1017.936812	41.467910
1018.332913	41.709184
1018.728973	41.862478
1019.124994	42.154536
1019.520974	42.502834
1019.916914	42.719927
1020.312814	43.066777
