Time1=100ms:Average1=5:Objective=10X:Aperture=1: (11/28/2018 10:53:32 AM)
11/28/2018 10:53:32 AM
Reflectance
10X
Ap#: 1
Avg1: 5.000000
Avg2: 0.000000
Int.Time1:100.000000

350.166136	55.192465
350.601937	55.597548
351.037728	55.881594
351.473509	55.643157
351.909281	55.772217
352.345042	55.958820
352.780794	55.923923
353.216536	55.677238
353.652267	55.643045
354.087989	55.928784
354.523701	55.653167
354.959403	55.543850
355.395095	55.594745
355.830777	55.852518
356.266449	55.876635
356.702110	56.192661
357.137762	56.392108
357.573404	56.117731
358.009035	55.992876
358.444656	55.538695
358.880268	55.255872
359.315869	55.397348
359.751459	55.633866
360.187040	55.203499
360.622610	55.197357
361.058170	55.643068
361.493720	55.851443
361.929260	55.756006
362.364789	56.271217
362.800308	56.021362
363.235816	56.302148
363.671314	56.112296
364.106802	55.782555
364.542279	55.780501
364.977746	55.898802
365.413203	55.811481
365.848649	56.039674
366.284084	56.257745
366.719509	56.450899
367.154924	56.358792
367.590328	56.523670
368.025721	57.009926
368.461104	57.364685
368.896477	56.944935
369.331838	56.614735
369.767189	56.759600
370.202530	56.514501
370.637859	56.536637
371.073178	56.426442
371.508486	56.357448
371.943784	56.261406
372.379071	56.099044
372.814347	56.012879
373.249612	56.018115
373.684866	56.246733
374.120110	56.440811
374.555343	56.230421
374.990565	55.977976
375.425776	55.951757
375.860976	55.995465
376.296165	56.072804
376.731343	55.941851
377.166511	55.749037
377.601667	55.866118
378.036812	56.036963
378.471946	55.848564
378.907070	55.722261
379.342182	55.419383
379.777283	55.617391
380.212373	55.758573
380.647452	55.750302
381.082520	55.431420
381.517576	54.967742
381.952622	54.699750
382.387656	54.913145
382.822679	55.088629
383.257691	54.905187
383.692692	55.090184
384.127681	54.810269
384.562659	55.155129
384.997626	55.126877
385.432581	55.412527
385.867525	55.388989
386.302458	55.407037
386.737379	55.556511
387.172289	55.636457
387.607188	55.215565
388.042075	55.188962
388.476951	55.484367
388.911815	55.217170
389.346668	55.193155
389.781509	55.310520
390.216338	55.375254
390.651157	55.446798
391.085963	55.503237
391.520758	55.367374
391.955541	55.246343
392.390313	55.497734
392.825073	55.458442
393.259821	55.099304
393.694558	55.079990
394.129283	54.805846
394.563996	54.599233
394.998698	55.000829
395.433388	55.029513
395.868066	54.910843
396.302732	54.881202
396.737386	54.667375
397.172029	54.399609
397.606659	54.276356
398.041278	53.832913
398.475885	53.765150
398.910480	53.398631
399.345063	53.261378
399.779634	52.984788
400.214194	52.073437
400.648741	51.193467
401.083276	50.512302
401.517799	49.524442
401.952310	48.126480
402.386809	46.828553
402.821296	45.037810
403.255771	43.457358
403.690234	42.037584
404.124684	40.424450
404.559123	38.825099
404.993549	37.167412
405.427963	35.692871
405.862365	34.065054
406.296754	32.663961
406.731131	31.337037
407.165496	30.141363
407.599849	29.071521
408.034190	28.123570
408.468518	27.005086
408.902833	26.013991
409.337137	25.146906
409.771428	24.361570
410.205706	23.625967
410.639973	22.949841
411.074226	22.435892
411.508467	21.947109
411.942696	21.601929
412.376912	21.303990
412.811116	21.100905
413.245307	20.916400
413.679486	20.795980
414.113652	20.701592
414.547805	20.615490
414.981946	20.597067
415.416074	20.586605
415.850190	20.555035
416.284293	20.593738
416.718383	20.579477
417.152460	20.671210
417.586525	20.752280
418.020577	20.847838
418.454616	20.940807
418.888643	21.033588
419.322656	21.168343
419.756657	21.245968
420.190645	21.292838
420.624620	21.329781
421.058582	21.414203
421.492531	21.471608
421.926468	21.572099
422.360391	21.713581
422.794301	21.907609
423.228199	22.116884
423.662083	22.385084
424.095955	22.671934
424.529813	22.970253
424.963658	23.258577
425.397491	23.495586
425.831310	23.719780
426.265116	23.955112
426.698909	24.183067
427.132689	24.416799
427.566455	24.659848
428.000209	24.910618
428.433949	25.170404
428.867676	25.500127
429.301389	25.790925
429.735090	26.073486
430.168777	26.365935
430.602451	26.568075
431.036111	26.748954
431.469759	26.906178
431.903392	27.061239
432.337013	27.214337
432.770620	27.347788
433.204213	27.548920
433.637794	27.771839
434.071360	28.039861
434.504914	28.341078
434.938453	28.686751
435.371979	29.031928
435.805492	29.368524
436.238991	29.689350
436.672477	30.001089
437.105949	30.267553
437.539407	30.505589
437.972852	30.687832
438.406283	30.850295
438.839700	31.035119
439.273104	31.259936
439.706494	31.480508
440.139871	31.740474
440.573233	31.990759
441.006582	32.247758
441.439917	32.507225
441.873238	32.716246
442.306546	32.841840
442.739839	32.984526
443.173119	33.064367
443.606385	33.134693
444.039636	33.198755
444.472874	33.290554
444.906099	33.403728
445.339309	33.545231
445.772505	33.724990
446.205687	33.940071
446.638855	34.153138
447.072009	34.415193
447.505149	34.662478
447.938275	34.925089
448.371387	35.142015
448.804485	35.352814
449.237569	35.554526
449.670638	35.728078
450.103694	35.837668
450.536735	35.957057
450.969762	36.066472
451.402774	36.223315
451.835773	36.394306
452.268757	36.582028
452.701727	36.780228
453.134683	36.981645
453.567624	37.182116
454.000551	37.380974
454.433464	37.539971
454.866362	37.664110
455.299246	37.756565
455.732116	37.824893
456.164971	37.891572
456.597811	37.935147
457.030638	37.991505
457.463449	38.044317
457.896246	38.104050
458.329029	38.150084
458.761797	38.216589
459.194551	38.245715
459.627290	38.302000
460.060014	38.373179
460.492724	38.429313
460.925419	38.509611
461.358099	38.528256
461.790765	38.558357
462.223416	38.566632
462.656052	38.538157
463.088674	38.485994
463.521281	38.436019
463.953873	38.360506
464.386450	38.280405
464.819012	38.199478
465.251560	38.113444
465.684093	38.041178
466.116611	37.956821
466.549114	37.874879
466.981602	37.777587
467.414075	37.665282
467.846533	37.563163
468.278977	37.442743
468.711405	37.298959
469.143818	37.167183
469.576216	36.993407
470.008600	36.821684
470.440968	36.623152
470.873321	36.425248
471.305659	36.201786
471.737982	35.995091
472.170289	35.754350
472.602582	35.528874
473.034859	35.278225
473.467122	35.036418
473.899369	34.795222
474.331600	34.547144
474.763817	34.359327
475.196018	34.192770
475.628204	34.047826
476.060375	33.938460
476.492530	33.846388
476.924670	33.755839
477.356795	33.659554
477.788904	33.559892
478.220998	33.443499
478.653076	33.329960
479.085139	33.204350
479.517186	33.078583
479.949219	32.967336
480.381235	32.886504
480.813236	32.849444
481.245221	32.857110
481.677191	32.919928
482.109146	33.015747
482.541084	33.137267
482.973008	33.291175
483.404915	33.444218
483.836807	33.611353
484.268683	33.781332
484.700544	33.947437
485.132388	34.088131
485.564217	34.241707
485.996031	34.393892
486.427828	34.541440
486.859610	34.682721
487.291376	34.836516
487.723126	35.010296
488.154860	35.193862
488.586579	35.425024
489.018281	35.689780
489.449968	36.012101
489.881639	36.384785
490.313293	36.836981
490.744932	37.349430
491.176555	37.897332
491.608162	38.455597
492.039753	39.033649
492.471328	39.592327
492.902886	40.127008
493.334429	40.625243
493.765956	41.085413
494.197466	41.520992
494.628960	41.945637
495.060439	42.380403
495.491901	42.838463
495.923347	43.351904
496.354776	43.906865
496.786190	44.530907
497.217587	45.189774
497.648968	45.878142
498.080332	46.590236
498.511681	47.295391
498.943013	47.976131
499.374328	48.618639
499.805628	49.226854
500.236911	49.790793
500.668177	50.309250
501.099427	50.780529
501.530661	51.193181
501.961878	51.540249
502.393079	51.841572
502.824264	52.106100
503.255431	52.327102
503.686583	52.532708
504.117717	52.723084
504.548835	52.916779
504.979937	53.158141
505.411022	53.432784
505.842090	53.775150
506.273142	54.168041
506.704177	54.600007
507.135195	55.055519
507.566197	55.537660
507.997182	55.981186
508.428150	56.370244
508.859102	56.723358
509.290036	56.975899
509.720954	57.143916
510.151855	57.256855
510.582739	57.315330
511.013607	57.353009
511.444457	57.377243
511.875291	57.456291
512.306107	57.600169
512.736907	57.797173
513.167690	58.052887
513.598456	58.346482
514.029205	58.672201
514.459936	59.013512
514.890651	59.356175
515.321349	59.660843
515.752030	59.947856
516.182693	60.163650
516.613340	60.331469
517.043969	60.416526
517.474582	60.445381
517.905177	60.411499
518.335755	60.310614
518.766315	60.155553
519.196859	59.941036
519.627385	59.685038
520.057894	59.406891
520.488386	59.135269
520.918860	58.855671
521.349318	58.614388
521.779757	58.426809
522.210180	58.299509
522.640585	58.255587
523.070973	58.312390
523.501343	58.427471
523.931696	58.608865
524.362031	58.822305
524.792349	59.084230
525.222650	59.310357
525.652933	59.473934
526.083198	59.601283
526.513446	59.659312
526.943677	59.662208
527.373890	59.605908
527.804085	59.499266
528.234262	59.366960
528.664422	59.234194
529.094565	59.096844
529.524689	59.016012
529.954796	58.966915
530.384885	58.963464
530.814957	59.010128
531.245011	59.113010
531.675047	59.235938
532.105065	59.385984
532.535065	59.538244
532.965048	59.690370
533.395013	59.834464
533.824959	59.921720
534.254888	59.982981
534.684799	60.000823
535.114693	59.978977
535.544568	59.907044
535.974425	59.780269
536.404264	59.605951
536.834086	59.406186
537.263889	59.166651
537.693674	58.921869
538.123441	58.658050
538.553190	58.423722
538.982921	58.223964
539.412634	58.071123
539.842329	57.985824
540.272006	57.982254
540.701664	58.059400
541.131304	58.209625
541.560926	58.438923
541.990530	58.727135
542.420116	59.067870
542.849683	59.415740
543.279232	59.773143
543.708763	60.115816
544.138275	60.433534
544.567769	60.696313
544.997245	60.901501
545.426702	61.026147
545.856141	61.097807
546.285562	61.091447
546.714964	61.018980
547.144347	60.922194
547.573713	60.791194
548.003059	60.638685
548.432387	60.466334
548.861697	60.279274
549.290988	60.098372
549.720260	59.927485
550.149514	59.754634
550.578750	59.606258
551.007966	59.445404
551.437164	59.293592
551.866344	59.124907
552.295504	58.953813
552.724646	58.739922
553.153769	58.490704
553.582874	58.190242
554.011960	57.835943
554.441027	57.428831
554.870075	56.969326
555.299104	56.472872
555.728115	55.942243
556.157106	55.382861
556.586079	54.825259
557.015033	54.286461
557.443968	53.765644
557.872884	53.301107
558.301781	52.907611
558.730659	52.589146
559.159518	52.342808
559.588358	52.200824
560.017180	52.141429
560.445982	52.173911
560.874765	52.278520
561.303528	52.439143
561.732273	52.656506
562.160999	52.928771
562.589705	53.241143
563.018393	53.569130
563.447061	53.915823
563.875710	54.240741
564.304340	54.576379
564.732950	54.866727
565.161542	55.135439
565.590114	55.362458
566.018666	55.551412
566.447200	55.695185
566.875714	55.795655
567.304208	55.847436
567.732684	55.851259
568.161140	55.816376
568.589576	55.751130
569.017993	55.651528
569.446391	55.524808
569.874769	55.384541
570.303128	55.225681
570.731467	55.056704
571.159787	54.866267
571.588087	54.659767
572.016368	54.463778
572.444629	54.253823
572.872870	54.033111
573.301092	53.791461
573.729294	53.520426
574.157476	53.226912
574.585639	52.899337
575.013782	52.538045
575.441906	52.146772
575.870009	51.695879
576.298093	51.212091
576.726157	50.697527
577.154202	50.186242
577.582226	49.665353
578.010231	49.160089
578.438216	48.675864
578.866181	48.231751
579.294126	47.845166
579.722051	47.521087
580.149957	47.251504
580.577842	47.053851
581.005707	46.931440
581.433553	46.871225
581.861378	46.866707
582.289184	46.925394
582.716969	47.038163
583.144734	47.186021
583.572479	47.386752
584.000205	47.612710
584.427910	47.876029
584.855594	48.165258
585.283259	48.484857
585.710904	48.828879
586.138528	49.176339
586.566132	49.539519
586.993716	49.913736
587.421280	50.277521
587.848823	50.644606
588.276346	50.984847
588.703849	51.279687
589.131332	51.571235
589.558794	51.820227
589.986236	52.032552
590.413657	52.202663
590.841058	52.314731
591.268438	52.401079
591.695799	52.443285
592.123138	52.449340
592.550458	52.411748
592.977756	52.342211
593.405034	52.248570
593.832292	52.137091
594.259529	52.009091
594.686746	51.853900
595.113942	51.680028
595.541117	51.479070
595.968272	51.249044
596.395406	50.988885
596.822519	50.670606
597.249612	50.305106
597.676684	49.894318
598.103735	49.425217
598.530766	48.876779
598.957775	48.282545
599.384764	47.645905
599.811733	46.972559
600.238680	46.263924
600.665606	45.539636
601.092512	44.804356
601.519397	44.088781
601.946261	43.404776
602.373104	42.747502
602.799926	42.130753
603.226727	41.554758
603.653507	41.018009
604.080266	40.535944
604.507004	40.087378
604.933721	39.680876
605.360417	39.315191
605.787092	38.979438
606.213746	38.682502
606.640379	38.407835
607.066991	38.161432
607.493581	37.942765
607.920150	37.754629
608.346699	37.589367
608.773226	37.458999
609.199731	37.374738
609.626216	37.329896
610.052679	37.328164
610.479121	37.386443
610.905542	37.479137
611.331941	37.629274
611.758319	37.822790
612.184676	38.055804
612.611011	38.322500
613.037325	38.616585
613.463617	38.941119
613.889888	39.272637
614.316138	39.615497
614.742366	39.944272
615.168573	40.284029
615.594758	40.601170
616.020921	40.912682
616.447063	41.222502
616.873184	41.532393
617.299283	41.828396
617.725360	42.133269
618.151416	42.433308
618.577450	42.732971
619.003462	43.040887
619.429453	43.345669
619.855422	43.662800
620.281369	43.972378
620.707295	44.271584
621.133199	44.569410
621.559081	44.858636
621.984941	45.109662
622.410779	45.324453
622.836596	45.493353
623.262391	45.622241
623.688163	45.691385
624.113914	45.719316
624.539644	45.694705
624.965351	45.627383
625.391036	45.506064
625.816699	45.343906
626.242340	45.151919
626.667960	44.919950
627.093557	44.674678
627.519132	44.416413
627.944685	44.164918
628.370216	43.893935
628.795725	43.630499
629.221212	43.360532
629.646677	43.088730
630.072119	42.799179
630.497540	42.512771
630.922938	42.213012
631.348314	41.910266
631.773668	41.588092
632.198999	41.257465
632.624308	40.918757
633.049595	40.568586
633.474860	40.218929
633.900102	39.864928
634.325322	39.511428
634.750520	39.160134
635.175695	38.835142
635.600848	38.529278
636.025978	38.252911
636.451086	38.010798
636.876171	37.802127
637.301234	37.616988
637.726275	37.468389
638.151293	37.354958
638.576288	37.276345
639.001261	37.231166
639.426211	37.213863
639.851139	37.213100
640.276044	37.235433
640.700927	37.276906
641.125787	37.323086
641.550624	37.380672
641.975438	37.447186
642.400230	37.523902
642.824999	37.595624
643.249745	37.685405
643.674469	37.779293
644.099169	37.886959
644.523847	38.012317
644.948502	38.160983
645.373135	38.332627
645.797744	38.529040
646.222330	38.745488
646.646894	38.982403
647.071435	39.244790
647.495953	39.533752
647.920447	39.845488
648.344919	40.171228
648.769368	40.510464
649.193794	40.851213
649.618197	41.188478
650.042576	41.527811
650.466933	41.871879
650.891267	42.192749
651.315577	42.493401
651.739864	42.790065
652.164129	43.063900
652.588370	43.316713
653.012587	43.553316
653.436782	43.765794
653.860953	43.964591
654.285102	44.143018
654.709226	44.304912
655.133328	44.460747
655.557406	44.602552
655.981461	44.742485
656.405493	44.872468
656.829501	44.992671
657.253486	45.086394
657.677448	45.161190
658.101386	45.220835
658.525301	45.240525
658.949192	45.230234
659.373060	45.199723
659.796904	45.136308
660.220725	45.047911
660.644522	44.923088
661.068296	44.763739
661.492046	44.584141
661.915772	44.384626
662.339475	44.171399
662.763154	43.955860
663.186810	43.742116
663.610442	43.523912
664.034050	43.326817
664.457635	43.159455
664.881196	43.002805
665.304733	42.870183
665.728247	42.775118
666.151736	42.708352
666.575202	42.675901
666.998644	42.663551
667.422062	42.692916
667.845457	42.740873
668.268827	42.800183
668.692174	42.873746
669.115496	42.948910
669.538795	43.013316
669.962070	43.073202
670.385321	43.131835
670.808547	43.167561
671.231750	43.171668
671.654929	43.164341
672.078084	43.128250
672.501214	43.063133
672.924321	42.973224
673.347404	42.858683
673.770462	42.721749
674.193496	42.578571
674.616506	42.423102
675.039492	42.248650
675.462454	42.071600
675.885391	41.872735
676.308305	41.676829
676.731194	41.492515
677.154058	41.303989
677.576899	41.111185
677.999715	40.925487
678.422507	40.752072
678.845274	40.588093
679.268017	40.440248
679.690736	40.288951
680.113430	40.150807
680.536100	40.015705
680.958746	39.899153
681.381367	39.784973
681.803963	39.687223
682.226535	39.602347
682.649083	39.529007
683.071605	39.472012
683.494104	39.431024
683.916578	39.418811
684.339027	39.427751
684.761451	39.457863
685.183851	39.511692
685.606227	39.574417
686.028577	39.654257
686.450903	39.748992
686.873204	39.846168
687.295481	39.947045
687.717733	40.050215
688.139959	40.158948
688.562162	40.260586
688.984339	40.363199
689.406492	40.446422
689.828619	40.513478
690.250722	40.561710
690.672800	40.589601
691.094853	40.590800
691.516881	40.575342
691.938884	40.523276
692.360863	40.446127
692.782816	40.363218
693.204744	40.260296
693.626647	40.147237
694.048526	40.026244
694.470379	39.911578
694.892207	39.792488
695.314010	39.689707
695.735788	39.598403
696.157540	39.525936
696.579268	39.464172
697.000970	39.413724
697.422648	39.390305
697.844300	39.391685
698.265926	39.414010
698.687528	39.465586
699.109104	39.532062
699.530655	39.615345
699.952181	39.727315
700.373681	39.854171
700.795156	39.981267
701.216606	40.113541
701.638030	40.252408
702.059429	40.391175
702.480803	40.526680
702.902151	40.650067
703.323473	40.759773
703.744770	40.861420
704.166042	40.954435
704.587288	41.019940
705.008509	41.080401
705.429704	41.128186
705.850873	41.160981
706.272017	41.182274
706.693135	41.190068
707.114228	41.183314
707.535295	41.165893
707.956336	41.148032
708.377352	41.110715
708.798342	41.072379
709.219306	41.031146
709.640245	40.995695
710.061157	40.972807
710.482044	40.949374
710.902905	40.929854
711.323741	40.929307
711.744550	40.934856
712.165334	40.958496
712.586092	40.993475
713.006823	41.041774
713.427529	41.107803
713.848209	41.198910
714.268863	41.303609
714.689492	41.426624
715.110094	41.563579
715.530670	41.712312
715.951220	41.885561
716.371744	42.085053
716.792242	42.293840
717.212714	42.506885
717.633159	42.737610
718.053579	42.973936
718.473973	43.203186
718.894340	43.426263
719.314681	43.644656
719.734996	43.847940
720.155285	44.048043
720.575547	44.222979
720.995784	44.367131
721.415994	44.483839
721.836177	44.572769
722.256335	44.606321
722.676466	44.596491
723.096570	44.531622
723.516649	44.421187
723.936701	44.259617
724.356726	44.028366
724.776725	43.743804
725.196698	43.400501
725.616644	43.008214
726.036564	42.566985
726.456457	42.079189
726.876324	41.552469
727.296164	41.002133
727.715977	40.421192
728.135764	39.829670
728.555525	39.230337
728.975258	38.626069
729.394966	38.020683
729.814646	37.427417
730.234300	36.854089
730.653927	36.295267
731.073527	35.757954
731.493101	35.265689
731.912648	34.806768
732.332168	34.388719
732.751661	34.010421
733.171128	33.660100
733.590568	33.351881
734.009980	33.090945
734.429366	32.873243
734.848726	32.691841
735.268058	32.559314
735.687363	32.465643
736.106641	32.410168
736.525893	32.388898
736.945117	32.397979
737.364314	32.441740
737.783485	32.521757
738.202628	32.625617
738.621744	32.760970
739.040834	32.915671
739.459896	33.089851
739.878931	33.282917
740.297939	33.483517
740.716919	33.695195
741.135873	33.910089
741.554799	34.133678
741.973698	34.349115
742.392570	34.565447
742.811415	34.768464
743.230232	34.969102
743.649022	35.169800
744.067785	35.361824
744.486521	35.530854
744.905229	35.688377
745.323909	35.834260
745.742563	35.970943
746.161189	36.103170
746.579787	36.232442
746.998358	36.348035
747.416902	36.448541
747.835418	36.544771
748.253907	36.630950
748.672368	36.708264
749.090802	36.785134
749.509208	36.858359
749.927586	36.925470
750.345937	36.995171
750.764261	37.054387
751.182556	37.124482
751.600824	37.181471
752.019065	37.242129
752.437277	37.302447
752.855462	37.356505
753.273620	37.410571
753.691749	37.461526
754.109851	37.513422
754.527925	37.552554
754.945971	37.589654
755.363989	37.619560
755.781980	37.647516
756.199943	37.660848
756.617877	37.657073
757.035784	37.634438
757.453663	37.606113
757.871514	37.563012
758.289337	37.496182
758.707132	37.408625
759.124899	37.288913
759.542639	37.147703
759.960350	36.979157
760.378033	36.795148
760.795688	36.584570
761.213314	36.359445
761.630913	36.111906
762.048484	35.838543
762.466026	35.553050
762.883541	35.261093
763.301027	34.948575
763.718485	34.644081
764.135914	34.329157
764.553316	34.014979
764.970689	33.706947
765.388034	33.397968
765.805351	33.099454
766.222639	32.815869
766.639899	32.547319
767.057131	32.297341
767.474334	32.070788
767.891509	31.858794
768.308655	31.676935
768.725773	31.524007
769.142863	31.405699
769.559924	31.311093
769.976957	31.245774
770.393961	31.207528
770.810936	31.205797
771.227883	31.229518
771.644802	31.282196
772.061692	31.366840
772.478553	31.472865
772.895386	31.602109
773.312190	31.762805
773.728965	31.959224
774.145712	32.173195
774.562430	32.408951
774.979119	32.675574
775.395780	32.943609
775.812411	33.237568
776.229014	33.546165
776.645589	33.860382
777.062134	34.187779
777.478651	34.518259
777.895138	34.853081
778.311597	35.193136
778.728027	35.530625
779.144428	35.860281
779.560800	36.183550
779.977143	36.504780
780.393458	36.810479
780.809743	37.109271
781.225999	37.372222
781.642226	37.623715
782.058425	37.840413
782.474594	38.039107
782.890734	38.215359
783.306845	38.367599
783.722926	38.482357
784.138979	38.561322
784.555003	38.610680
784.970997	38.626115
785.386962	38.610958
785.802898	38.577002
786.218805	38.500479
786.634682	38.377443
787.050531	38.238785
787.466349	38.082338
787.882139	37.890860
788.297899	37.700210
788.713630	37.487964
789.129332	37.274139
789.545004	37.047119
789.960647	36.823192
790.376260	36.599860
790.791844	36.381392
791.207399	36.163047
791.622924	35.954108
792.038419	35.752062
792.453885	35.568277
792.869321	35.375044
793.284728	35.206824
793.700106	35.039449
794.115453	34.889798
794.530771	34.737833
794.946060	34.599153
795.361319	34.460134
795.776548	34.328208
796.191747	34.179333
796.606917	34.033397
797.022057	33.879816
797.437167	33.714230
797.852248	33.550896
798.267298	33.379021
798.682319	33.198309
799.097310	33.014035
799.512271	32.818729
799.927203	32.610373
800.342104	32.384645
800.756976	32.154408
801.171818	31.910601
801.586629	31.645360
802.001411	31.359575
802.416163	31.072853
802.830885	30.778195
803.245577	30.485888
803.660238	30.176493
804.074870	29.875094
804.489472	29.563976
804.904043	29.253277
805.318585	28.934673
805.733096	28.627167
806.147577	28.311060
806.562028	28.009364
806.976449	27.708207
807.390840	27.413582
807.805200	27.117976
808.219530	26.833713
808.633830	26.546462
809.048100	26.275772
809.462339	26.018674
809.876548	25.783330
810.290727	25.560362
810.704875	25.345321
811.118993	25.137030
811.533080	24.936883
811.947137	24.756118
812.361164	24.589267
812.775160	24.437694
813.189126	24.306309
813.603061	24.183249
814.016966	24.073763
814.430840	23.985477
814.844684	23.916334
815.258497	23.860491
815.672280	23.817930
816.086032	23.782625
816.499753	23.767273
816.913444	23.770977
817.327104	23.787858
817.740733	23.820865
818.154331	23.873021
818.567899	23.941602
818.981436	24.027092
819.394943	24.125052
819.808418	24.250905
820.221863	24.377245
820.635277	24.530838
821.048660	24.697763
821.462013	24.885220
821.875334	25.095862
822.288625	25.306892
822.701884	25.538874
823.115113	25.777204
823.528311	26.027789
823.941478	26.288357
824.354614	26.564811
824.767718	26.835885
825.180792	27.106361
825.593835	27.377439
826.006847	27.636998
826.419827	27.890481
826.832777	28.132838
827.245695	28.355599
827.658582	28.566908
828.071438	28.748505
828.484263	28.910625
828.897057	29.048574
829.309819	29.161155
829.722551	29.237661
830.135251	29.299073
830.547919	29.318132
830.960557	29.318016
831.373163	29.283132
831.785738	29.227949
832.198281	29.160381
832.610793	29.064387
833.023274	28.965458
833.435723	28.845904
833.848141	28.722929
834.260528	28.584414
834.672883	28.436697
835.085206	28.295064
835.497498	28.138297
835.909758	27.995146
836.321987	27.847857
836.734185	27.706333
837.146350	27.572500
837.558485	27.448929
837.970587	27.339382
838.382658	27.233300
838.794697	27.143906
839.206705	27.070531
839.618681	27.005965
840.030625	26.967930
840.442538	26.929674
840.854418	26.915192
841.266267	26.912947
841.678084	26.938602
842.089870	26.981310
842.501623	27.034652
842.913345	27.102935
843.325035	27.192872
843.736693	27.282917
844.148319	27.397339
844.559913	27.519354
844.971475	27.627664
845.383005	27.754772
845.794504	27.892177
846.205970	28.033410
846.617404	28.160638
847.028806	28.281648
847.440176	28.417052
847.851514	28.532868
848.262820	28.654677
848.674094	28.769310
849.085336	28.872020
849.496546	28.972431
849.907723	29.050470
850.318868	29.115411
850.729981	29.174663
851.141062	29.216370
851.552110	29.248413
851.963127	29.265071
852.374111	29.276183
852.785062	29.264075
853.195982	29.254238
853.606869	29.228230
854.017723	29.196102
854.428546	29.140380
854.839336	29.072022
855.250093	29.002316
855.660818	28.929266
856.071511	28.841293
856.482171	28.738422
856.892799	28.621341
857.303394	28.499615
857.713956	28.390429
858.124486	28.266322
858.534984	28.133985
858.945449	27.998732
859.355881	27.866188
859.766280	27.740765
860.176647	27.591500
860.586982	27.458694
860.997283	27.318228
861.407552	27.172320
861.817789	27.047864
862.227992	26.921875
862.638163	26.805443
863.048301	26.711801
863.458406	26.615481
863.868478	26.552634
864.278518	26.493510
864.688524	26.439444
865.098498	26.410016
865.508439	26.404695
865.918347	26.407097
866.328222	26.428588
866.738064	26.468225
867.147873	26.532327
867.557649	26.612685
867.967392	26.717699
868.377102	26.835797
868.786779	26.994379
869.196423	27.181731
869.606034	27.376988
870.015612	27.606960
870.425156	27.848495
870.834668	28.103739
871.244146	28.391316
871.653591	28.677184
872.063003	28.983121
872.472382	29.314739
872.881728	29.667079
873.291040	30.015549
873.700319	30.378634
874.109564	30.741611
874.518777	31.104645
874.927956	31.469715
875.337102	31.835897
875.746214	32.181351
876.155293	32.520393
876.564338	32.837983
876.973350	33.151797
877.382329	33.463045
877.791274	33.741218
878.200186	33.995140
878.609064	34.200768
879.017909	34.395889
879.426720	34.558334
879.835497	34.690017
880.244241	34.792127
880.652952	34.854969
881.061629	34.881338
881.470272	34.875750
881.878881	34.832912
882.287457	34.779299
882.695999	34.665079
883.104507	34.535736
883.512982	34.393558
883.921423	34.216888
884.329830	34.037915
884.738203	33.838786
885.146543	33.627470
885.554849	33.396380
885.963120	33.155222
886.371358	32.920336
886.779563	32.698761
887.187733	32.464383
887.595869	32.243073
888.003971	32.022307
888.412040	31.812093
888.820074	31.625348
889.228074	31.435748
889.636041	31.269750
890.043973	31.118202
890.451871	30.986879
890.859736	30.861298
891.267566	30.777340
891.675362	30.711069
892.083124	30.648214
892.490851	30.617278
892.898545	30.603330
893.306204	30.610113
893.713829	30.631929
894.121420	30.660949
894.528977	30.726099
894.936499	30.815872
895.343987	30.922275
895.751441	31.052493
896.158860	31.178336
896.566246	31.293570
896.973596	31.425620
897.380913	31.578488
897.788195	31.723140
898.195442	31.878151
898.602655	32.040391
899.009834	32.175892
899.416978	32.310659
899.824088	32.450519
900.231163	32.587466
900.638204	32.715819
901.045210	32.833325
901.452181	32.940094
901.859118	33.042038
902.266021	33.128948
902.672888	33.201605
903.079721	33.273766
903.486520	33.338407
903.893283	33.405327
904.300012	33.456983
904.706707	33.515046
905.113366	33.557605
905.519991	33.600384
905.926581	33.648452
906.333136	33.689922
906.739656	33.751431
907.146142	33.783137
907.552592	33.825956
907.959008	33.866270
908.365389	33.907839
908.771735	33.942798
909.178046	34.009990
909.584322	34.083702
909.990563	34.142307
910.396769	34.215162
910.802940	34.295744
911.209076	34.361153
911.615177	34.459831
912.021243	34.549933
912.427274	34.646032
912.833270	34.724076
913.239231	34.798684
913.645156	34.904417
914.051046	34.999107
914.456902	35.121001
914.862721	35.212330
915.268506	35.308043
915.674256	35.408324
916.079970	35.514753
916.485649	35.605676
916.891292	35.691094
917.296901	35.775340
917.702474	35.854676
918.108011	35.908681
918.513514	35.938269
918.918980	35.977963
919.324412	36.010523
919.729808	36.047909
920.135169	36.055526
920.540494	36.058151
920.945783	36.044410
921.351037	36.039938
921.756256	36.034376
922.161439	36.000371
922.566586	35.991265
922.971698	35.968322
923.376775	35.933685
923.781815	35.917092
924.186820	35.870201
924.591790	35.846330
924.996723	35.820441
925.401621	35.810766
925.806484	35.803945
926.211310	35.774850
926.616101	35.746654
927.020856	35.708338
927.425575	35.674093
927.830259	35.647080
928.234906	35.609156
928.639518	35.578226
929.044094	35.566948
929.448634	35.546234
929.853138	35.506344
930.257606	35.472246
930.662038	35.471183
931.066434	35.465631
931.470795	35.449679
931.875119	35.440010
932.279407	35.444635
932.683659	35.430910
933.087875	35.421641
933.492055	35.416016
933.896199	35.404314
934.300307	35.361222
934.704379	35.353496
935.108414	35.310024
935.512414	35.258747
935.916377	35.198816
936.320304	35.125796
936.724195	35.060619
937.128049	34.973431
937.531867	34.858479
937.935649	34.714085
938.339395	34.594227
938.743104	34.457189
939.146777	34.318877
939.550414	34.168782
939.954014	34.026118
940.357578	33.863489
940.761105	33.692377
941.164596	33.487385
941.568050	33.279419
941.971468	33.060914
942.374850	32.843103
942.778195	32.616757
943.181503	32.380634
943.584775	32.147590
943.988010	31.914854
944.391209	31.668135
944.794371	31.380133
945.197496	31.131630
945.600585	30.871268
946.003637	30.633114
946.406653	30.374181
946.809632	30.151522
947.212574	29.910947
947.615479	29.640184
948.018347	29.396917
948.421179	29.164479
948.823974	28.950801
949.226732	28.739509
949.629453	28.519308
950.032138	28.341897
950.434785	28.179563
950.837396	28.014076
951.239969	27.841016
951.642506	27.699861
952.045006	27.552114
952.447469	27.414847
952.849895	27.281966
953.252283	27.154435
953.654635	27.071323
954.056950	26.997411
954.459227	26.920793
954.861468	26.907072
955.263671	26.862972
955.665838	26.842152
956.067967	26.815310
956.470059	26.818640
956.872114	26.798902
957.274131	26.833682
957.676112	26.844907
958.078055	26.911891
958.479961	26.927688
958.881829	26.976262
959.283661	27.017086
959.685455	27.064912
960.087211	27.156144
960.488931	27.221686
960.890613	27.293085
961.292257	27.336717
961.693864	27.430623
962.095434	27.491539
962.496966	27.542809
962.898461	27.581638
963.299918	27.642336
963.701338	27.716455
964.102720	27.715547
964.504065	27.764317
964.905372	27.769278
965.306641	27.784993
965.707873	27.822996
966.109068	27.821846
966.510224	27.846668
966.911343	27.869636
967.312425	27.842729
967.713468	27.853962
968.114474	27.800689
968.515442	27.784681
968.916373	27.743082
969.317265	27.701355
969.718120	27.641387
970.118937	27.600117
970.519716	27.529897
970.920458	27.482110
971.321161	27.441014
971.721827	27.387456
972.122454	27.306315
972.523044	27.289406
972.923596	27.269650
973.324110	27.258225
973.724585	27.255056
974.125023	27.175242
974.525423	27.175047
974.925785	27.144368
975.326108	27.179803
975.726394	27.110089
976.126642	27.051378
976.526851	27.104160
976.927022	27.123790
977.327155	27.190107
977.727250	27.228696
978.127307	27.289290
978.527325	27.392128
978.927306	27.428369
979.327248	27.499780
979.727151	27.560131
980.127017	27.679877
980.526844	27.819611
980.926633	27.941730
981.326383	28.078318
981.726095	28.213371
982.125769	28.348604
982.525404	28.487656
982.925001	28.579648
983.324560	28.702802
983.724079	28.795046
984.123561	28.907331
984.523004	29.119323
984.922408	29.198560
985.321774	29.306759
985.721102	29.334873
986.120390	29.420039
986.519641	29.560281
986.918852	29.578892
987.318025	29.685025
987.717159	29.686136
988.116255	29.824375
988.515312	29.971909
988.914330	30.066284
989.313310	30.096468
989.712250	30.092057
990.111152	30.181786
990.510015	30.200115
990.908840	30.151770
991.307625	30.131803
991.706372	30.043492
992.105080	30.010699
992.503749	29.799774
992.902379	29.760061
993.300970	29.705251
993.699522	29.636020
994.098035	29.622957
994.496510	29.614574
994.894945	29.454755
995.293341	29.422994
995.691698	29.362139
996.090016	29.356248
996.488296	29.353737
996.886535	29.276862
997.284736	29.204282
997.682898	29.048263
998.081021	29.072079
998.479104	29.028598
998.877148	29.060242
999.275153	29.128877
999.673119	29.126926
1000.071046	29.199855
1000.468933	29.201736
1000.866781	29.109217
1001.264590	29.092675
1001.662359	29.124173
1002.060089	29.152995
1002.457780	29.134396
1002.855431	29.147968
1003.253043	29.224411
1003.650615	29.372076
1004.048148	29.579119
1004.445642	29.641879
1004.843096	29.962073
1005.240511	29.941942
1005.637886	29.952991
1006.035221	30.166079
1006.432517	30.377408
1006.829774	30.532874
1007.226991	30.854619
1007.624168	31.088485
1008.021306	31.209150
1008.418404	31.427589
1008.815462	31.585210
1009.212481	31.747758
1009.609460	32.030887
1010.006399	32.538200
1010.403298	32.676875
1010.800158	33.072100
1011.196978	33.373299
1011.593758	33.737200
1011.990498	34.026017
1012.387199	34.544010
1012.783860	34.991824
1013.180480	35.553156
1013.577061	35.876965
1013.973602	36.316662
1014.370103	36.824125
1014.766564	37.170596
1015.162985	37.535649
1015.559366	37.775551
1015.955708	37.846855
1016.352009	38.109547
1016.748270	38.660731
1017.144491	38.949904
1017.540671	39.464267
1017.936812	40.058543
1018.332913	40.190167
1018.728973	40.291862
1019.124994	40.506329
1019.520974	40.816327
1019.916914	41.302028
1020.312814	41.797197
