Time1=100ms:Average1=5:Objective=10X:Aperture=1: (11/28/2018 11:03:33 AM)
11/28/2018 11:03:33 AM
Reflectance
10X
Ap#: 1
Avg1: 5.000000
Avg2: 0.000000
Int.Time1:100.000000

350.166136	57.313677
350.601937	57.730747
351.037728	57.989846
351.473509	57.717028
351.909281	58.136324
352.345042	58.183563
352.780794	58.288257
353.216536	58.638514
353.652267	58.932633
354.087989	59.208911
354.523701	59.448300
354.959403	59.415328
355.395095	59.527379
355.830777	59.901208
356.266449	60.127253
356.702110	60.426958
357.137762	60.868796
357.573404	60.670461
358.009035	60.445236
358.444656	60.340980
358.880268	60.551934
359.315869	60.781347
359.751459	61.058078
360.187040	60.942521
360.622610	60.966244
361.058170	61.111608
361.493720	61.132882
361.929260	61.114584
362.364789	61.568698
362.800308	61.272808
363.235816	61.166341
363.671314	61.478323
364.106802	61.236454
364.542279	61.285740
364.977746	61.642255
365.413203	61.463501
365.848649	61.512575
366.284084	61.603824
366.719509	61.285752
367.154924	61.278863
367.590328	61.000089
368.025721	61.370082
368.461104	61.481810
368.896477	61.092481
369.331838	60.628466
369.767189	60.766263
370.202530	60.536231
370.637859	60.340889
371.073178	60.336665
371.508486	60.415394
371.943784	60.363257
372.379071	60.052129
372.814347	59.850331
373.249612	59.902456
373.684866	59.966893
374.120110	59.728625
374.555343	59.641490
374.990565	59.552526
375.425776	59.779759
375.860976	59.623267
376.296165	59.817991
376.731343	59.970225
377.166511	59.712986
377.601667	59.835276
378.036812	59.698370
378.471946	59.303742
378.907070	59.316120
379.342182	59.408953
379.777283	59.356522
380.212373	59.257014
380.647452	59.083060
381.082520	59.290134
381.517576	58.735484
381.952622	58.723184
382.387656	58.724397
382.822679	58.806744
383.257691	58.394666
383.692692	58.584807
384.127681	58.527098
384.562659	58.551551
384.997626	58.467115
385.432581	58.505400
385.867525	58.662876
386.302458	58.796137
386.737379	58.831113
387.172289	59.002912
387.607188	59.012600
388.042075	59.131031
388.476951	59.191867
388.911815	58.839498
389.346668	59.115554
389.781509	58.859316
390.216338	58.612238
390.651157	58.611088
391.085963	58.631128
391.520758	58.872599
391.955541	58.819573
392.390313	58.821554
392.825073	58.626775
393.259821	58.593815
393.694558	58.664880
394.129283	58.622129
394.563996	58.465256
394.998698	58.666446
395.433388	58.707227
395.868066	58.901289
396.302732	59.054536
396.737386	59.365417
397.172029	59.094426
397.606659	58.728618
398.041278	58.048117
398.475885	57.758792
398.910480	57.332232
399.345063	56.830580
399.779634	56.065612
400.214194	54.946091
400.648741	53.757759
401.083276	52.972797
401.517799	51.489615
401.952310	49.932364
402.386809	48.158409
402.821296	46.075245
403.255771	44.424869
403.690234	42.701828
404.124684	40.617139
404.559123	38.603515
404.993549	36.380975
405.427963	34.409858
405.862365	32.619409
406.296754	30.845362
406.731131	28.982797
407.165496	27.466397
407.599849	25.923247
408.034190	24.406736
408.468518	22.984320
408.902833	21.773609
409.337137	20.588537
409.771428	19.462966
410.205706	18.435451
410.639973	17.544311
411.074226	16.815988
411.508467	16.199687
411.942696	15.615416
412.376912	15.122940
412.811116	14.652479
413.245307	14.238728
413.679486	13.909348
414.113652	13.590651
414.547805	13.268692
414.981946	13.077049
415.416074	12.934094
415.850190	12.765622
416.284293	12.627575
416.718383	12.489713
417.152460	12.385302
417.586525	12.337861
418.020577	12.294860
418.454616	12.272915
418.888643	12.260711
419.322656	12.244912
419.756657	12.241787
420.190645	12.237147
420.624620	12.201397
421.058582	12.240756
421.492531	12.234024
421.926468	12.300097
422.360391	12.351250
422.794301	12.450406
423.228199	12.591738
423.662083	12.741707
424.095955	12.915824
424.529813	13.095296
424.963658	13.315255
425.397491	13.498734
425.831310	13.674725
426.265116	13.858897
426.698909	14.042755
427.132689	14.248949
427.566455	14.435566
428.000209	14.654867
428.433949	14.845287
428.867676	15.070897
429.301389	15.301696
429.735090	15.546773
430.168777	15.782922
430.602451	15.986699
431.036111	16.148072
431.469759	16.326401
431.903392	16.477425
432.337013	16.634937
432.770620	16.801907
433.204213	16.973740
433.637794	17.207872
434.071360	17.450183
434.504914	17.692786
434.938453	18.003741
435.371979	18.280121
435.805492	18.564144
436.238991	18.856723
436.672477	19.124493
437.105949	19.396817
437.539407	19.623253
437.972852	19.845751
438.406283	20.036730
438.839700	20.251259
439.273104	20.498309
439.706494	20.744124
440.139871	21.016050
440.573233	21.272596
441.006582	21.537623
441.439917	21.797173
441.873238	22.024795
442.306546	22.204953
442.739839	22.399220
443.173119	22.538263
443.606385	22.670661
444.039636	22.803830
444.472874	22.943838
444.906099	23.103040
445.339309	23.290979
445.772505	23.504369
446.205687	23.707063
446.638855	23.934282
447.072009	24.170454
447.505149	24.424164
447.938275	24.669091
448.371387	24.908614
448.804485	25.139851
449.237569	25.342051
449.670638	25.516041
450.103694	25.662919
450.536735	25.799545
450.969762	25.960886
451.402774	26.138735
451.835773	26.300535
452.268757	26.472033
452.701727	26.657361
453.134683	26.843953
453.567624	27.031697
454.000551	27.190572
454.433464	27.345411
454.866362	27.459354
455.299246	27.581012
455.732116	27.675632
456.164971	27.756361
456.597811	27.832385
457.030638	27.922989
457.463449	28.014278
457.896246	28.120370
458.329029	28.210824
458.761797	28.311248
459.194551	28.410340
459.627290	28.524152
460.060014	28.640372
460.492724	28.770459
460.925419	28.884556
461.358099	29.012043
461.790765	29.137992
462.223416	29.258747
462.656052	29.370026
463.088674	29.474807
463.521281	29.576430
463.953873	29.658550
464.386450	29.742551
464.819012	29.809236
465.251560	29.909434
465.684093	30.008892
466.116611	30.109795
466.549114	30.217089
466.981602	30.306748
467.414075	30.429088
467.846533	30.552605
468.278977	30.654273
468.711405	30.743473
469.143818	30.838107
469.576216	30.914145
470.008600	30.990506
470.440968	31.038734
470.873321	31.083996
471.305659	31.121971
471.737982	31.150778
472.170289	31.162178
472.602582	31.180349
473.034859	31.179661
473.467122	31.187517
473.899369	31.183214
474.331600	31.197889
474.763817	31.221742
475.196018	31.244619
475.628204	31.285867
476.060375	31.347754
476.492530	31.416343
476.924670	31.492008
477.356795	31.543445
477.788904	31.566248
478.220998	31.584721
478.653076	31.569633
479.085139	31.544280
479.517186	31.500034
479.949219	31.458141
480.381235	31.433641
480.813236	31.409778
481.245221	31.400907
481.677191	31.421408
482.109146	31.456882
482.541084	31.485112
482.973008	31.493137
483.404915	31.499676
483.836807	31.486708
484.268683	31.452711
484.700544	31.392663
485.132388	31.327524
485.564217	31.230969
485.996031	31.106574
486.427828	30.974591
486.859610	30.819436
487.291376	30.647600
487.723126	30.469895
488.154860	30.275327
488.586579	30.095143
489.018281	29.918126
489.449968	29.757518
489.881639	29.615212
490.313293	29.491527
490.744932	29.422990
491.176555	29.366733
491.608162	29.307914
492.039753	29.253645
492.471328	29.203334
492.902886	29.118548
493.334429	29.024722
493.765956	28.916689
494.197466	28.813351
494.628960	28.701906
495.060439	28.622639
495.491901	28.571285
495.923347	28.572684
496.354776	28.636762
496.786190	28.734338
497.217587	28.890589
497.648968	29.078909
498.080332	29.287836
498.511681	29.495061
498.943013	29.726544
499.374328	29.942981
499.805628	30.160658
500.236911	30.381938
500.668177	30.601832
501.099427	30.804523
501.530661	31.017749
501.961878	31.214637
502.393079	31.413502
502.824264	31.620785
503.255431	31.827129
503.686583	32.049988
504.117717	32.276858
504.548835	32.534151
504.979937	32.843941
505.411022	33.204953
505.842090	33.603459
506.273142	34.065589
506.704177	34.558950
507.135195	35.083950
507.566197	35.610065
507.997182	36.141389
508.428150	36.645257
508.859102	37.124876
509.290036	37.558524
509.720954	37.954212
510.151855	38.327160
510.582739	38.679323
511.013607	39.023295
511.444457	39.371950
511.875291	39.767204
512.306107	40.188047
512.736907	40.675412
513.167690	41.185182
513.598456	41.719979
514.029205	42.278976
514.459936	42.839515
514.890651	43.383961
515.321349	43.904424
515.752030	44.386767
516.182693	44.810572
516.613340	45.191185
517.043969	45.506504
517.474582	45.766522
517.905177	45.971421
518.335755	46.118398
518.766315	46.221004
519.196859	46.281535
519.627385	46.296750
520.057894	46.275946
520.488386	46.247453
520.918860	46.210604
521.349318	46.189351
521.779757	46.190892
522.210180	46.226131
522.640585	46.296251
523.070973	46.410004
523.501343	46.548388
523.931696	46.701507
524.362031	46.873759
524.792349	47.040077
525.222650	47.171604
525.652933	47.248563
526.083198	47.279032
526.513446	47.261308
526.943677	47.189001
527.373890	47.071826
527.804085	46.928209
528.234262	46.778680
528.664422	46.650310
529.094565	46.556242
529.524689	46.509584
529.954796	46.526450
530.384885	46.603188
530.814957	46.741600
531.245011	46.945319
531.675047	47.192264
532.105065	47.462093
532.535065	47.757516
532.965048	48.050045
533.395013	48.346794
533.824959	48.604440
534.254888	48.827118
534.684799	48.964377
535.114693	49.053050
535.544568	49.078993
535.974425	49.035684
536.404264	48.914414
536.834086	48.731601
537.263889	48.479010
537.693674	48.168542
538.123441	47.817380
538.553190	47.436427
538.982921	47.049141
539.412634	46.644635
539.842329	46.248921
540.272006	45.866711
540.701664	45.486926
541.131304	45.142431
541.560926	44.814841
541.990530	44.504797
542.420116	44.196952
542.849683	43.886811
543.279232	43.557738
543.708763	43.218768
544.138275	42.864946
544.567769	42.489635
544.997245	42.086348
545.426702	41.669335
545.856141	41.245187
546.285562	40.830339
546.714964	40.420131
547.144347	40.044179
547.573713	39.717136
548.003059	39.467673
548.432387	39.277607
548.861697	39.154952
549.290988	39.110117
549.720260	39.165804
550.149514	39.308802
550.578750	39.546771
551.007966	39.861150
551.437164	40.253235
551.866344	40.707849
552.295504	41.217443
552.724646	41.764241
553.153769	42.319708
553.582874	42.886186
554.011960	43.447123
554.441027	43.956432
554.870075	44.420020
555.299104	44.824236
555.728115	45.168081
556.157106	45.445294
556.586079	45.651816
557.015033	45.802438
557.443968	45.882186
557.872884	45.911118
558.301781	45.892945
558.730659	45.830565
559.159518	45.719830
559.588358	45.574187
560.017180	45.395566
560.445982	45.188948
560.874765	44.942823
561.303528	44.657538
561.732273	44.333980
562.160999	43.970554
562.589705	43.567699
563.018393	43.103056
563.447061	42.601061
563.875710	42.040676
564.304340	41.442207
564.732950	40.806459
565.161542	40.127150
565.590114	39.413864
566.018666	38.678947
566.447200	37.940811
566.875714	37.196380
567.304208	36.460864
567.732684	35.750333
568.161140	35.068151
568.589576	34.424481
569.017993	33.830024
569.446391	33.291442
569.874769	32.830632
570.303128	32.432810
570.731467	32.119740
571.159787	31.885146
571.588087	31.741107
572.016368	31.686454
572.444629	31.728043
572.872870	31.851704
573.301092	32.057981
573.729294	32.333761
574.157476	32.673743
574.585639	33.065257
575.013782	33.504276
575.441906	33.974862
575.870009	34.470491
576.298093	34.987129
576.726157	35.508231
577.154202	36.054039
577.582226	36.602811
578.010231	37.163715
578.438216	37.733796
578.866181	38.310094
579.294126	38.894017
579.722051	39.483734
580.149957	40.071176
580.577842	40.652853
581.005707	41.244333
581.433553	41.814577
581.861378	42.367961
582.289184	42.895560
582.716969	43.398089
583.144734	43.862418
583.572479	44.280757
584.000205	44.644118
584.427910	44.948426
584.855594	45.184668
585.283259	45.363091
585.710904	45.463643
586.138528	45.498150
586.566132	45.461100
586.993716	45.355594
587.421280	45.179435
587.848823	44.939147
588.276346	44.628902
588.703849	44.235239
589.131332	43.785392
589.558794	43.280632
589.986236	42.722822
590.413657	42.104613
590.841058	41.444611
591.268438	40.738174
591.695799	40.006135
592.123138	39.261647
592.550458	38.498973
592.977756	37.733869
593.405034	36.982862
593.832292	36.250843
594.259529	35.526671
594.686746	34.834163
595.113942	34.170726
595.541117	33.545838
595.968272	32.944283
596.395406	32.364733
596.822519	31.811391
597.249612	31.284277
597.676684	30.788146
598.103735	30.315805
598.530766	29.860494
598.957775	29.432310
599.384764	29.034009
599.811733	28.659660
600.238680	28.324792
600.665606	28.019935
601.092512	27.769958
601.519397	27.564654
601.946261	27.428237
602.373104	27.340217
602.799926	27.305594
603.226727	27.330063
603.653507	27.411212
604.080266	27.543067
604.507004	27.734351
604.933721	27.961393
605.360417	28.227221
605.787092	28.527478
606.213746	28.861289
606.640379	29.218414
607.066991	29.602708
607.493581	30.012294
607.920150	30.436289
608.346699	30.862300
608.773226	31.298088
609.199731	31.753048
609.626216	32.222937
610.052679	32.703278
610.479121	33.206273
610.905542	33.703522
611.331941	34.206027
611.758319	34.704164
612.184676	35.193339
612.611011	35.672423
613.037325	36.139916
613.463617	36.568584
613.889888	36.970555
614.316138	37.327292
614.742366	37.650123
615.168573	37.925882
615.594758	38.155975
616.020921	38.343812
616.447063	38.492864
616.873184	38.606012
617.299283	38.684532
617.725360	38.717582
618.151416	38.733194
618.577450	38.717792
619.003462	38.683474
619.429453	38.624354
619.855422	38.549891
620.281369	38.442884
620.707295	38.307034
621.133199	38.161967
621.559081	37.998589
621.984941	37.800879
622.410779	37.578512
622.836596	37.314689
623.262391	37.028247
623.688163	36.707690
624.113914	36.372601
624.539644	36.028926
624.965351	35.679650
625.391036	35.322525
625.816699	34.972402
626.242340	34.633646
626.667960	34.322161
627.093557	34.042486
627.519132	33.801191
627.944685	33.589383
628.370216	33.430740
628.795725	33.318575
629.221212	33.243603
629.646677	33.210098
630.072119	33.211400
630.497540	33.242011
630.922938	33.311046
631.348314	33.400739
631.773668	33.510040
632.198999	33.632527
632.624308	33.770448
633.049595	33.914809
633.474860	34.078828
633.900102	34.251848
634.325322	34.429057
634.750520	34.620076
635.175695	34.824762
635.600848	35.038971
636.025978	35.268187
636.451086	35.513613
636.876171	35.761353
637.301234	36.016102
637.726275	36.274366
638.151293	36.533073
638.576288	36.791278
639.001261	37.036493
639.426211	37.273562
639.851139	37.492125
640.276044	37.690124
640.700927	37.852803
641.125787	37.988980
641.550624	38.083242
641.975438	38.146460
642.400230	38.170365
642.824999	38.154818
643.249745	38.112093
643.674469	38.049109
644.099169	37.964608
644.523847	37.869837
644.948502	37.773789
645.373135	37.689646
645.797744	37.609942
646.222330	37.541717
646.646894	37.486920
647.071435	37.453423
647.495953	37.451309
647.920447	37.480031
648.344919	37.535971
648.769368	37.623064
649.193794	37.749522
649.618197	37.901867
650.042576	38.093550
650.466933	38.323418
650.891267	38.579367
651.315577	38.863661
651.739864	39.193822
652.164129	39.555629
652.588370	39.940441
653.012587	40.357660
653.436782	40.795667
653.860953	41.271101
654.285102	41.770774
654.709226	42.284527
655.133328	42.810350
655.557406	43.360880
655.981461	43.929912
656.405493	44.495143
656.829501	45.038721
657.253486	45.570746
657.677448	46.074431
658.101386	46.554892
658.525301	46.985381
658.949192	47.366136
659.373060	47.696415
659.796904	47.975765
660.220725	48.192215
660.644522	48.338696
661.068296	48.421095
661.492046	48.451995
661.915772	48.423960
662.339475	48.343361
662.763154	48.214322
663.186810	48.048505
663.610442	47.844672
664.034050	47.619313
664.457635	47.374915
664.881196	47.101132
665.304733	46.811446
665.728247	46.531418
666.151736	46.236723
666.575202	45.949407
666.998644	45.658691
667.422062	45.376009
667.845457	45.100889
668.268827	44.826581
668.692174	44.546852
669.115496	44.262051
669.538795	43.977412
669.962070	43.710984
670.385321	43.443948
670.808547	43.175829
671.231750	42.900445
671.654929	42.636960
672.078084	42.376872
672.501214	42.131027
672.924321	41.884425
673.347404	41.664102
673.770462	41.462184
674.193496	41.285196
674.616506	41.126474
675.039492	40.994553
675.462454	40.886672
675.885391	40.804031
676.308305	40.757849
676.731194	40.739992
677.154058	40.755083
677.576899	40.803896
677.999715	40.885404
678.422507	41.000926
678.845274	41.149538
679.268017	41.335860
679.690736	41.543373
680.113430	41.774170
680.536100	42.021240
680.958746	42.290956
681.381367	42.570532
681.803963	42.861187
682.226535	43.163780
682.649083	43.470566
683.071605	43.782827
683.494104	44.095454
683.916578	44.410784
684.339027	44.725303
684.761451	45.028367
685.183851	45.340079
685.606227	45.628613
686.028577	45.905309
686.450903	46.167251
686.873204	46.405910
687.295481	46.613607
687.717733	46.793390
688.139959	46.941998
688.562162	47.059738
688.984339	47.142209
689.406492	47.171962
689.828619	47.165430
690.250722	47.103203
690.672800	46.995697
691.094853	46.839265
691.516881	46.648214
691.938884	46.399073
692.360863	46.105991
692.782816	45.781335
693.204744	45.427810
693.626647	45.054110
694.048526	44.659057
694.470379	44.258707
694.892207	43.862113
695.314010	43.471748
695.735788	43.093269
696.157540	42.731288
696.579268	42.393634
697.000970	42.088178
697.422648	41.815673
697.844300	41.577939
698.265926	41.374113
698.687528	41.214008
699.109104	41.102365
699.530655	41.015958
699.952181	40.979499
700.373681	40.970383
700.795156	40.996093
701.216606	41.051000
701.638030	41.127393
702.059429	41.225808
702.480803	41.342065
702.902151	41.471154
703.323473	41.610158
703.744770	41.748265
704.166042	41.903111
704.587288	42.047833
705.008509	42.195776
705.429704	42.351628
705.850873	42.503099
706.272017	42.653754
706.693135	42.804991
707.114228	42.958094
707.535295	43.117057
707.956336	43.277203
708.377352	43.429295
708.798342	43.580727
709.219306	43.735623
709.640245	43.898286
710.061157	44.060746
710.482044	44.226851
710.902905	44.404080
711.323741	44.583840
711.744550	44.768942
712.165334	44.954316
712.586092	45.164867
713.006823	45.366179
713.427529	45.590027
713.848209	45.814708
714.268863	46.048726
714.689492	46.295664
715.110094	46.549331
715.530670	46.817357
715.951220	47.086734
716.371744	47.374009
716.792242	47.674187
717.212714	47.967658
717.633159	48.272990
718.053579	48.585451
718.473973	48.892527
718.894340	49.203236
719.314681	49.510271
719.734996	49.801470
720.155285	50.089269
720.575547	50.358951
720.995784	50.609956
721.415994	50.839473
721.836177	51.057288
722.256335	51.235639
722.676466	51.378130
723.096570	51.488484
723.516649	51.555409
723.936701	51.587425
724.356726	51.572330
724.776725	51.522835
725.196698	51.441279
725.616644	51.315746
726.036564	51.160837
726.456457	50.970077
726.876324	50.768680
727.296164	50.546028
727.715977	50.306881
728.135764	50.064426
728.555525	49.816227
728.975258	49.576717
729.394966	49.342618
729.814646	49.131669
730.234300	48.944905
730.653927	48.785615
731.073527	48.648483
731.493101	48.553335
731.912648	48.490056
732.332168	48.473118
732.751661	48.499631
733.171128	48.553810
733.590568	48.653041
734.009980	48.788214
734.429366	48.963168
734.848726	49.167062
735.268058	49.397822
735.687363	49.654597
736.106641	49.938256
736.525893	50.251379
736.945117	50.568835
737.364314	50.901461
737.783485	51.241149
738.202628	51.579222
738.621744	51.914198
739.040834	52.245781
739.459896	52.571714
739.878931	52.875030
740.297939	53.162592
740.716919	53.438317
741.135873	53.685757
741.554799	53.908856
741.973698	54.101231
742.392570	54.260233
742.811415	54.383036
743.230232	54.468750
743.649022	54.525738
744.067785	54.550383
744.486521	54.528314
744.905229	54.477293
745.323909	54.393657
745.742563	54.283119
746.161189	54.153354
746.579787	54.001074
746.998358	53.836315
747.416902	53.640275
747.835418	53.443306
748.253907	53.248645
748.672368	53.054129
749.090802	52.853590
749.509208	52.654697
749.927586	52.471666
750.345937	52.307022
750.764261	52.156062
751.182556	52.026250
751.600824	51.910213
752.019065	51.818206
752.437277	51.748444
752.855462	51.703395
753.273620	51.675667
753.691749	51.661519
754.109851	51.669980
754.527925	51.699270
754.945971	51.744644
755.363989	51.805918
755.781980	51.876203
756.199943	51.962321
756.617877	52.039072
757.035784	52.115775
757.453663	52.196447
757.871514	52.260282
758.289337	52.300120
758.707132	52.319857
759.124899	52.306757
759.542639	52.269010
759.960350	52.190136
760.378033	52.093793
760.795688	51.943301
761.213314	51.762668
761.630913	51.545090
762.048484	51.294673
762.466026	51.000339
762.883541	50.684153
763.301027	50.334012
763.718485	49.967185
764.135914	49.574211
764.553316	49.167543
764.970689	48.752636
765.388034	48.325974
765.805351	47.896268
766.222639	47.467309
766.639899	47.041739
767.057131	46.631649
767.474334	46.237151
767.891509	45.861147
768.308655	45.515556
768.725773	45.192779
769.142863	44.903106
769.559924	44.647357
769.976957	44.423144
770.393961	44.233002
770.810936	44.094219
771.227883	43.994835
771.644802	43.925935
772.061692	43.914824
772.478553	43.928912
772.895386	43.998568
773.312190	44.098264
773.728965	44.255355
774.145712	44.444466
774.562430	44.665090
774.979119	44.927299
775.395780	45.227454
775.812411	45.544487
776.229014	45.884822
776.645589	46.237422
777.062134	46.609131
777.478651	46.984077
777.895138	47.366409
778.311597	47.754724
778.728027	48.132828
779.144428	48.507929
779.560800	48.859328
779.977143	49.198318
780.393458	49.509442
780.809743	49.796252
781.225999	50.039756
781.642226	50.250349
782.058425	50.408984
782.474594	50.534524
782.890734	50.611339
783.306845	50.641849
783.722926	50.614869
784.138979	50.535410
784.555003	50.408676
784.970997	50.223058
785.386962	50.002161
785.802898	49.715950
786.218805	49.393026
786.634682	49.023357
787.050531	48.616039
787.466349	48.176089
787.882139	47.707228
788.297899	47.228821
788.713630	46.730295
789.129332	46.238626
789.545004	45.739887
789.960647	45.255044
790.376260	44.791615
790.791844	44.347472
791.207399	43.921001
791.622924	43.521058
792.038419	43.147370
792.453885	42.829231
792.869321	42.533517
793.284728	42.284269
793.700106	42.077841
794.115453	41.906969
794.530771	41.781544
794.946060	41.691324
795.361319	41.638667
795.776548	41.629089
796.191747	41.653958
796.606917	41.696440
797.022057	41.755894
797.437167	41.836421
797.852248	41.925616
798.267298	42.026204
798.682319	42.139247
799.097310	42.263083
799.512271	42.370829
799.927203	42.482180
800.342104	42.591068
800.756976	42.681507
801.171818	42.745897
801.586629	42.792414
802.001411	42.806826
802.416163	42.804114
802.830885	42.791622
803.245577	42.755067
803.660238	42.677413
804.074870	42.574677
804.489472	42.458525
804.904043	42.324189
805.318585	42.158684
805.733096	41.981911
806.147577	41.770138
806.562028	41.545758
806.976449	41.311741
807.390840	41.055563
807.805200	40.803572
808.219530	40.538050
808.633830	40.248633
809.048100	39.950491
809.462339	39.661438
809.876548	39.378710
810.290727	39.104787
810.704875	38.832799
811.118993	38.571047
811.533080	38.308637
811.947137	38.062060
812.361164	37.827399
812.775160	37.601403
813.189126	37.398500
813.603061	37.217946
814.016966	37.063280
814.430840	36.933815
814.844684	36.825129
815.258497	36.754305
815.672280	36.694285
816.086032	36.672912
816.499753	36.685484
816.913444	36.737332
817.327104	36.820431
817.740733	36.932685
818.154331	37.077075
818.567899	37.254125
818.981436	37.472921
819.394943	37.708033
819.808418	37.987063
820.221863	38.286583
820.635277	38.612642
821.048660	38.943579
821.462013	39.329847
821.875334	39.731315
822.288625	40.147854
822.701884	40.573366
823.115113	41.015433
823.528311	41.475983
823.941478	41.920687
824.354614	42.386667
824.767718	42.851016
825.180792	43.303774
825.593835	43.744930
826.006847	44.155659
826.419827	44.552179
826.832777	44.925565
827.245695	45.268854
827.658582	45.576048
828.071438	45.826272
828.484263	46.039116
828.897057	46.202862
829.309819	46.338176
829.722551	46.400732
830.135251	46.413697
830.547919	46.380365
830.960557	46.302941
831.373163	46.181417
831.785738	46.018019
832.198281	45.838985
832.610793	45.602831
833.023274	45.363810
833.435723	45.095483
833.848141	44.845705
834.260528	44.558546
834.672883	44.261212
835.085206	43.982901
835.497498	43.712795
835.909758	43.450130
836.321987	43.196401
836.734185	42.989718
837.146350	42.798205
837.558485	42.619559
837.970587	42.484260
838.382658	42.375727
838.794697	42.307603
839.206705	42.267126
839.618681	42.249145
840.030625	42.263101
840.442538	42.317260
840.854418	42.397696
841.266267	42.518678
841.678084	42.661631
842.089870	42.819996
842.501623	43.004280
842.913345	43.217767
843.325035	43.433072
843.736693	43.671860
844.148319	43.916172
844.559913	44.171792
844.971475	44.421683
845.383005	44.683670
845.794504	44.929155
846.205970	45.175260
846.617404	45.388560
847.028806	45.586383
847.440176	45.790635
847.851514	45.947740
848.262820	46.104189
848.674094	46.220346
849.085336	46.312908
849.496546	46.368722
849.907723	46.378981
850.318868	46.360362
850.729981	46.297755
851.141062	46.213391
851.552110	46.086681
851.963127	45.906630
852.374111	45.725662
852.785062	45.499768
853.195982	45.242450
853.606869	44.985386
854.017723	44.685950
854.428546	44.358120
854.839336	44.019773
855.250093	43.678648
855.660818	43.310799
856.071511	42.949973
856.482171	42.567967
856.892799	42.173772
857.303394	41.766048
857.713956	41.360245
858.124486	40.974252
858.534984	40.575584
858.945449	40.174625
859.355881	39.767145
859.766280	39.388174
860.176647	39.000568
860.586982	38.629470
860.997283	38.252413
861.407552	37.887859
861.817789	37.552448
862.227992	37.208147
862.638163	36.897496
863.048301	36.615303
863.458406	36.344688
863.868478	36.095260
864.278518	35.884793
864.688524	35.710182
865.098498	35.540792
865.508439	35.431084
865.918347	35.332334
866.328222	35.262130
866.738064	35.233116
867.147873	35.250053
867.557649	35.286613
867.967392	35.365383
868.377102	35.475546
868.786779	35.630667
869.196423	35.818953
869.606034	36.059074
870.015612	36.329772
870.425156	36.641134
870.834668	36.971478
871.244146	37.354216
871.653591	37.749578
872.063003	38.179538
872.472382	38.643180
872.881728	39.129406
873.291040	39.636585
873.700319	40.135582
874.109564	40.662509
874.518777	41.175123
874.927956	41.712394
875.337102	42.234088
875.746214	42.739715
876.155293	43.244442
876.564338	43.729242
876.973350	44.172824
877.382329	44.588985
877.791274	44.964906
878.200186	45.302007
878.609064	45.609994
879.017909	45.865144
879.426720	46.071898
879.835497	46.235741
880.244241	46.359342
880.652952	46.420220
881.061629	46.448529
881.470272	46.428064
881.878881	46.363075
882.287457	46.239622
882.695999	46.073674
883.104507	45.857769
883.512982	45.626932
883.921423	45.339422
884.329830	45.051916
884.738203	44.740615
885.146543	44.388777
885.554849	44.026597
885.963120	43.638849
886.371358	43.299722
886.779563	42.924955
887.187733	42.545032
887.595869	42.170758
888.003971	41.811320
888.412040	41.486443
888.820074	41.151800
889.228074	40.842512
889.636041	40.561742
890.043973	40.305571
890.451871	40.084091
890.859736	39.871111
891.267566	39.687673
891.675362	39.532166
892.083124	39.391792
892.490851	39.272592
892.898545	39.182396
893.306204	39.112838
893.713829	39.044004
894.121420	38.998962
894.528977	38.959362
894.936499	38.940695
895.343987	38.947066
895.751441	38.945724
896.158860	38.938881
896.566246	38.944957
896.973596	38.923909
897.380913	38.936334
897.788195	38.909404
898.195442	38.882786
898.602655	38.856098
899.009834	38.775304
899.416978	38.710092
899.824088	38.636961
900.231163	38.545208
900.638204	38.437535
901.045210	38.280267
901.452181	38.124431
901.859118	37.954029
902.266021	37.740372
902.672888	37.538694
903.079721	37.309055
903.486520	37.056294
903.893283	36.780774
904.300012	36.510733
904.706707	36.216674
905.113366	35.925137
905.519991	35.610556
905.926581	35.314491
906.333136	35.003670
906.739656	34.674806
907.146142	34.361673
907.552592	34.055529
907.959008	33.734884
908.365389	33.453407
908.771735	33.156745
909.178046	32.869005
909.584322	32.609621
909.990563	32.318558
910.396769	32.088399
910.802940	31.847992
911.209076	31.636504
911.615177	31.424962
912.021243	31.233499
912.427274	31.045592
912.833270	30.886119
913.239231	30.731970
913.645156	30.602749
914.051046	30.484057
914.456902	30.373459
914.862721	30.307892
915.268506	30.204473
915.674256	30.130704
916.079970	30.084345
916.485649	30.055993
916.891292	30.025671
917.296901	30.015417
917.702474	29.998329
918.108011	30.009056
918.513514	29.999910
918.918980	30.021625
919.324412	30.048716
919.729808	30.086011
920.135169	30.140037
920.540494	30.183191
920.945783	30.225260
921.351037	30.278873
921.756256	30.363388
922.161439	30.435041
922.566586	30.533607
922.971698	30.611641
923.376775	30.690656
923.781815	30.776094
924.186820	30.876535
924.591790	30.981847
924.996723	31.095560
925.401621	31.197046
925.806484	31.289476
926.211310	31.378661
926.616101	31.489932
927.020856	31.589261
927.425575	31.661593
927.830259	31.747834
928.234906	31.833473
928.639518	31.916855
929.044094	31.996161
929.448634	32.046814
929.853138	32.087736
930.257606	32.152583
930.662038	32.199288
931.066434	32.241702
931.470795	32.265835
931.875119	32.301875
932.279407	32.317742
932.683659	32.328365
933.087875	32.350559
933.492055	32.358775
933.896199	32.349847
934.300307	32.328517
934.704379	32.319120
935.108414	32.275542
935.512414	32.227886
935.916377	32.203927
936.320304	32.148714
936.724195	32.082996
937.128049	32.001449
937.531867	31.912061
937.935649	31.796035
938.339395	31.697083
938.743104	31.585780
939.146777	31.483336
939.550414	31.364308
939.954014	31.255448
940.357578	31.126872
940.761105	30.995799
941.164596	30.826927
941.568050	30.691249
941.971468	30.542469
942.374850	30.401680
942.778195	30.227526
943.181503	30.049503
943.584775	29.887622
943.988010	29.719085
944.391209	29.528704
944.794371	29.381894
945.197496	29.203414
945.600585	29.019737
946.003637	28.823652
946.406653	28.628626
946.809632	28.404359
947.212574	28.192103
947.615479	27.984619
948.018347	27.766298
948.421179	27.542655
948.823974	27.318132
949.226732	27.134910
949.629453	26.927505
950.032138	26.735540
950.434785	26.546334
950.837396	26.368139
951.239969	26.183647
951.642506	25.975251
952.045006	25.781091
952.447469	25.592599
952.849895	25.424926
953.252283	25.267284
953.654635	25.129295
954.056950	24.982480
954.459227	24.868015
954.861468	24.741935
955.263671	24.617066
955.665838	24.523087
956.067967	24.429113
956.470059	24.344935
956.872114	24.268247
957.274131	24.188537
957.676112	24.078104
958.078055	24.033853
958.479961	23.970008
958.881829	23.926250
959.283661	23.920188
959.685455	23.918761
960.087211	23.941057
960.488931	23.989967
960.890613	24.008294
961.292257	24.034311
961.693864	24.078590
962.095434	24.122243
962.496966	24.158856
962.898461	24.202180
963.299918	24.230448
963.701338	24.272249
964.102720	24.344982
964.504065	24.395878
964.905372	24.412660
965.306641	24.455439
965.707873	24.494985
966.109068	24.537006
966.510224	24.585285
966.911343	24.583475
967.312425	24.619514
967.713468	24.676021
968.114474	24.664776
968.515442	24.684827
968.916373	24.709560
969.317265	24.747515
969.718120	24.724230
970.118937	24.802427
970.519716	24.770242
970.920458	24.798713
971.321161	24.788059
971.721827	24.758430
972.122454	24.714655
972.523044	24.698372
972.923596	24.683264
973.324110	24.679895
973.724585	24.679167
974.125023	24.592569
974.525423	24.543180
974.925785	24.500196
975.326108	24.461522
975.726394	24.413621
976.126642	24.355358
976.526851	24.274549
976.927022	24.207339
977.327155	24.221677
977.727250	24.204199
978.127307	24.121015
978.527325	24.078872
978.927306	24.005978
979.327248	23.952753
979.727151	23.869257
980.127017	23.772300
980.526844	23.726590
980.926633	23.651394
981.326383	23.586323
981.726095	23.516175
982.125769	23.471958
982.525404	23.340197
982.925001	23.236890
983.324560	23.215501
983.724079	23.161604
984.123561	23.099291
984.523004	23.065987
984.922408	22.961864
985.321774	22.888504
985.721102	22.746078
986.120390	22.698310
986.519641	22.637090
986.918852	22.546665
987.318025	22.459511
987.717159	22.309226
988.116255	22.315434
988.515312	22.286908
988.914330	22.257814
989.313310	22.235916
989.712250	22.123958
990.111152	22.059846
990.510015	22.088208
990.908840	22.044497
991.307625	22.034433
991.706372	22.084407
992.105080	22.138096
992.503749	22.174696
992.902379	22.203862
993.300970	22.320706
993.699522	22.361823
994.098035	22.337629
994.496510	22.402891
994.894945	22.481008
995.293341	22.602039
995.691698	22.572786
996.090016	22.712661
996.488296	22.804688
996.886535	22.983080
997.284736	23.050436
997.682898	23.089761
998.081021	23.299736
998.479104	23.351454
998.877148	23.649808
999.275153	23.857655
999.673119	23.993726
1000.071046	24.312093
1000.468933	24.471971
1000.866781	24.644447
1001.264590	24.908435
1001.662359	25.039061
1002.060089	25.384012
1002.457780	25.534882
1002.855431	25.742874
1003.253043	25.974147
1003.650615	26.297699
1004.048148	26.561175
1004.445642	26.682034
1004.843096	26.975775
1005.240511	27.238388
1005.637886	27.365701
1006.035221	27.685920
1006.432517	28.111450
1006.829774	28.516698
1007.226991	28.960770
1007.624168	29.301603
1008.021306	29.734372
1008.418404	30.077806
1008.815462	30.598034
1009.212481	30.773761
1009.609460	31.281980
1010.006399	31.743067
1010.403298	32.189454
1010.800158	32.783901
1011.196978	33.154355
1011.593758	33.576368
1011.990498	34.130746
1012.387199	34.714261
1012.783860	35.143658
1013.180480	35.781138
1013.577061	36.118331
1013.973602	36.814238
1014.370103	37.185467
1014.766564	37.725381
1015.162985	38.201097
1015.559366	38.646524
1015.955708	38.766376
1016.352009	39.062500
1016.748270	39.805561
1017.144491	40.154143
1017.540671	40.588897
1017.936812	41.153513
1018.332913	41.593228
1018.728973	42.122186
1019.124994	42.378692
1019.520974	42.559524
1019.916914	43.238299
1020.312814	43.297609
