Time1=100ms:Average1=5:Objective=10X:Aperture=1: (11/28/2018 11:03:12 AM)
11/28/2018 11:03:12 AM
Reflectance
10X
Ap#: 1
Avg1: 5.000000
Avg2: 0.000000
Int.Time1:100.000000

350.166136	62.252252
350.601937	62.240699
351.037728	62.361243
351.473509	61.967606
351.909281	61.941329
352.345042	62.318967
352.780794	62.074682
353.216536	62.169266
353.652267	62.204724
354.087989	62.252236
354.523701	62.154089
354.959403	61.934861
355.395095	62.102107
355.830777	62.141660
356.266449	62.009544
356.702110	62.164785
357.137762	62.461293
357.573404	62.502223
358.009035	62.350846
358.444656	62.215478
358.880268	62.025543
359.315869	61.769155
359.751459	61.950219
360.187040	61.924313
360.622610	61.769959
361.058170	61.791820
361.493720	61.827574
361.929260	61.882647
362.364789	62.444167
362.800308	62.100579
363.235816	61.867566
363.671314	61.984719
364.106802	62.027003
364.542279	62.058249
364.977746	62.006214
365.413203	61.844437
365.848649	61.671980
366.284084	61.825102
366.719509	61.808200
367.154924	61.891652
367.590328	61.737277
368.025721	62.052464
368.461104	62.457853
368.896477	61.948465
369.331838	62.045595
369.767189	62.002455
370.202530	61.824236
370.637859	61.764189
371.073178	61.678064
371.508486	61.645868
371.943784	61.597289
372.379071	61.659427
372.814347	61.616777
373.249612	61.679150
373.684866	61.996864
374.120110	62.007480
374.555343	61.903933
374.990565	61.947212
375.425776	62.174445
375.860976	62.178425
376.296165	62.250613
376.731343	62.614940
377.166511	62.609380
377.601667	62.770525
378.036812	62.740825
378.471946	62.906876
378.907070	62.971040
379.342182	62.807475
379.777283	62.921739
380.212373	63.084517
380.647452	62.864790
381.082520	63.011344
381.517576	62.572043
381.952622	62.341690
382.387656	62.466511
382.822679	62.196282
383.257691	62.299766
383.692692	62.547693
384.127681	62.045121
384.562659	62.440584
384.997626	62.696358
385.432581	63.049676
385.867525	62.763849
386.302458	63.254571
386.737379	62.930812
387.172289	62.891897
387.607188	62.835348
388.042075	63.193076
388.476951	63.377755
388.911815	63.115032
389.346668	62.868519
389.781509	62.881284
390.216338	62.440838
390.651157	62.129778
391.085963	61.868326
391.520758	62.091338
391.955541	61.871532
392.390313	61.809636
392.825073	61.912766
393.259821	61.862063
393.694558	61.529441
394.129283	61.244259
394.563996	61.039827
394.998698	61.303699
395.433388	61.373674
395.868066	61.676893
396.302732	61.902417
396.737386	61.663327
397.172029	61.366505
397.606659	61.300497
398.041278	60.546015
398.475885	60.246374
398.910480	59.712060
399.345063	59.297070
399.779634	58.320529
400.214194	57.558622
400.648741	56.347916
401.083276	55.328667
401.517799	53.612141
401.952310	51.809266
402.386809	49.895698
402.821296	47.872008
403.255771	45.843287
403.690234	43.947996
404.124684	41.775946
404.559123	39.522587
404.993549	37.089710
405.427963	34.914686
405.862365	32.880200
406.296754	30.870248
406.731131	28.795812
407.165496	27.077402
407.599849	25.558565
408.034190	23.936414
408.468518	22.471791
408.902833	21.152735
409.337137	19.845734
409.771428	18.622327
410.205706	17.610292
410.639973	16.685197
411.074226	15.841185
411.508467	15.027088
411.942696	14.256866
412.376912	13.595757
412.811116	13.070412
413.245307	12.518588
413.679486	12.047128
414.113652	11.591760
414.547805	11.184486
414.981946	10.878135
415.416074	10.550526
415.850190	10.257576
416.284293	9.981645
416.718383	9.698384
417.152460	9.477052
417.586525	9.256722
418.020577	9.038233
418.454616	8.856024
418.888643	8.707664
419.322656	8.540757
419.756657	8.412670
420.190645	8.285331
420.624620	8.128752
421.058582	8.007999
421.492531	7.872424
421.926468	7.758514
422.360391	7.661081
422.794301	7.576612
423.228199	7.500676
423.662083	7.445250
424.095955	7.392924
424.529813	7.336004
424.963658	7.308251
425.397491	7.268730
425.831310	7.253354
426.265116	7.202087
426.698909	7.181722
427.132689	7.158498
427.566455	7.164413
428.000209	7.144242
428.433949	7.097195
428.867676	7.072141
429.301389	7.052615
429.735090	7.044687
430.168777	7.049079
430.602451	7.036012
431.036111	7.012127
431.469759	7.011748
431.903392	7.012530
432.337013	7.001275
432.770620	7.002721
433.204213	7.007095
433.637794	7.017507
434.071360	7.030975
434.504914	7.035038
434.938453	7.059884
435.371979	7.063803
435.805492	7.080569
436.238991	7.097517
436.672477	7.108369
437.105949	7.123660
437.539407	7.129288
437.972852	7.147594
438.406283	7.165070
438.839700	7.178557
439.273104	7.185375
439.706494	7.197773
440.139871	7.205394
440.573233	7.208779
441.006582	7.209283
441.439917	7.225835
441.873238	7.257053
442.306546	7.279695
442.739839	7.305126
443.173119	7.330914
443.606385	7.357894
444.039636	7.376430
444.472874	7.415533
444.906099	7.448322
445.339309	7.486099
445.772505	7.507373
446.205687	7.530372
446.638855	7.547528
447.072009	7.566262
447.505149	7.594042
447.938275	7.614165
448.371387	7.640159
448.804485	7.673395
449.237569	7.681938
449.670638	7.707074
450.103694	7.736140
450.536735	7.750535
450.969762	7.768039
451.402774	7.793963
451.835773	7.820472
452.268757	7.846626
452.701727	7.869376
453.134683	7.906681
453.567624	7.947243
454.000551	7.993970
454.433464	8.026581
454.866362	8.057896
455.299246	8.082531
455.732116	8.118093
456.164971	8.147828
456.597811	8.172287
457.030638	8.211630
457.463449	8.246245
457.896246	8.285556
458.329029	8.321042
458.761797	8.347774
459.194551	8.377828
459.627290	8.401105
460.060014	8.430813
460.492724	8.461737
460.925419	8.486167
461.358099	8.522645
461.790765	8.548320
462.223416	8.584380
462.656052	8.628752
463.088674	8.667669
463.521281	8.719767
463.953873	8.767635
464.386450	8.822444
464.819012	8.876282
465.251560	8.916051
465.684093	8.955908
466.116611	8.998210
466.549114	9.033250
466.981602	9.060814
467.414075	9.072777
467.846533	9.094688
468.278977	9.104397
468.711405	9.125412
469.143818	9.138275
469.576216	9.157562
470.008600	9.180989
470.440968	9.200388
470.873321	9.229473
471.305659	9.253825
471.737982	9.278663
472.170289	9.302519
472.602582	9.345728
473.034859	9.382299
473.467122	9.421666
473.899369	9.457578
474.331600	9.491624
474.763817	9.520664
475.196018	9.552403
475.628204	9.582446
476.060375	9.609375
476.492530	9.638515
476.924670	9.661841
477.356795	9.690476
477.788904	9.725522
478.220998	9.754726
478.653076	9.792703
479.085139	9.828773
479.517186	9.862627
479.949219	9.892911
480.381235	9.924636
480.813236	9.952999
481.245221	9.984737
481.677191	10.010551
482.109146	10.024320
482.541084	10.035743
482.973008	10.041784
483.404915	10.036309
483.836807	10.033573
484.268683	10.041213
484.700544	10.046836
485.132388	10.054990
485.564217	10.068673
485.996031	10.082943
486.427828	10.106007
486.859610	10.130170
487.291376	10.159529
487.723126	10.190101
488.154860	10.216078
488.586579	10.244990
489.018281	10.268283
489.449968	10.284384
489.881639	10.296875
490.313293	10.308979
490.744932	10.320567
491.176555	10.317107
491.608162	10.321285
492.039753	10.317806
492.471328	10.334192
492.902886	10.352238
493.334429	10.379275
493.765956	10.408721
494.197466	10.460757
494.628960	10.515528
495.060439	10.584567
495.491901	10.664498
495.923347	10.752804
496.354776	10.840439
496.786190	10.940637
497.217587	11.037523
497.648968	11.128828
498.080332	11.221960
498.511681	11.317514
498.943013	11.419638
499.374328	11.517398
499.805628	11.620488
500.236911	11.732760
500.668177	11.855221
501.099427	11.992334
501.530661	12.151894
501.961878	12.321162
502.393079	12.501432
502.824264	12.707204
503.255431	12.920809
503.686583	13.150223
504.117717	13.385046
504.548835	13.630665
504.979937	13.870724
505.411022	14.111042
505.842090	14.331343
506.273142	14.536540
506.704177	14.738884
507.135195	14.940492
507.566197	15.117282
507.997182	15.283606
508.428150	15.437929
508.859102	15.583167
509.290036	15.722845
509.720954	15.866138
510.151855	16.005261
510.582739	16.163298
511.013607	16.325503
511.444457	16.498354
511.875291	16.678722
512.306107	16.867520
512.736907	17.071670
513.167690	17.279245
513.598456	17.486839
514.029205	17.700607
514.459936	17.895642
514.890651	18.085286
515.321349	18.261873
515.752030	18.431854
516.182693	18.572782
516.613340	18.706731
517.043969	18.818778
517.474582	18.923308
517.905177	19.013303
518.335755	19.094322
518.766315	19.182682
519.196859	19.272990
519.627385	19.372748
520.057894	19.474598
520.488386	19.588137
520.918860	19.720561
521.349318	19.873632
521.779757	20.045898
522.210180	20.231483
522.640585	20.434487
523.070973	20.656967
523.501343	20.893523
523.931696	21.126498
524.362031	21.368965
524.792349	21.622374
525.222650	21.875826
525.652933	22.123485
526.083198	22.388351
526.513446	22.651559
526.943677	22.917953
527.373890	23.183644
527.804085	23.476708
528.234262	23.780864
528.664422	24.092440
529.094565	24.426882
529.524689	24.783507
529.954796	25.167899
530.384885	25.566571
530.814957	26.000229
531.245011	26.476183
531.675047	26.985397
532.105065	27.524067
532.535065	28.106439
532.965048	28.722272
533.395013	29.376942
533.824959	30.060682
534.254888	30.792699
534.684799	31.600582
535.114693	32.441798
535.544568	33.309587
535.974425	34.213954
536.404264	35.163068
536.834086	36.147857
537.263889	37.172493
537.693674	38.226849
538.123441	39.316393
538.553190	40.441037
538.982921	41.603561
539.412634	42.783636
539.842329	43.997426
540.272006	45.239878
540.701664	46.498462
541.131304	47.768187
541.560926	49.041764
541.990530	50.333549
542.420116	51.624878
542.849683	52.910349
543.279232	54.179215
543.708763	55.434804
544.138275	56.665411
544.567769	57.864042
544.997245	59.019429
545.426702	60.142582
545.856141	61.235645
546.285562	62.301984
546.714964	63.321955
547.144347	64.318270
547.573713	65.272724
548.003059	66.158791
548.432387	67.008378
548.861697	67.813586
549.290988	68.577611
549.720260	69.278628
550.149514	69.942697
550.578750	70.567112
551.007966	71.156189
551.437164	71.687455
551.866344	72.186918
552.295504	72.652346
552.724646	73.061588
553.153769	73.442401
553.582874	73.782007
554.011960	74.101315
554.441027	74.385776
554.870075	74.660331
555.299104	74.923352
555.728115	75.166063
556.157106	75.386087
556.586079	75.596272
557.015033	75.811084
557.443968	76.012420
557.872884	76.219888
558.301781	76.461974
558.730659	76.688069
559.159518	76.911712
559.588358	77.143815
560.017180	77.397626
560.445982	77.666098
560.874765	77.930106
561.303528	78.193957
561.732273	78.468950
562.160999	78.747343
562.589705	79.033903
563.018393	79.324522
563.447061	79.622425
563.875710	79.909219
564.304340	80.196920
564.732950	80.483979
565.161542	80.757883
565.590114	81.033226
566.018666	81.320696
566.447200	81.593272
566.875714	81.868373
567.304208	82.149727
567.732684	82.411739
568.161140	82.659877
568.589576	82.902337
569.017993	83.134719
569.446391	83.366829
569.874769	83.597073
570.303128	83.804486
570.731467	84.002947
571.159787	84.168749
571.588087	84.306084
572.016368	84.458173
572.444629	84.583331
572.872870	84.689230
573.301092	84.794834
573.729294	84.863989
574.157476	84.947308
574.585639	85.004689
575.013782	85.063512
575.441906	85.116355
575.870009	85.147291
576.298093	85.182569
576.726157	85.195600
577.154202	85.207643
577.582226	85.224555
578.010231	85.251751
578.438216	85.272662
578.866181	85.283085
579.294126	85.291481
579.722051	85.307404
580.149957	85.311677
580.577842	85.308582
581.005707	85.322774
581.433553	85.331772
581.861378	85.331034
582.289184	85.329862
582.716969	85.318021
583.144734	85.306035
583.572479	85.306382
584.000205	85.304085
584.427910	85.303920
584.855594	85.299565
585.283259	85.299765
585.710904	85.300126
586.138528	85.302575
586.566132	85.284235
586.993716	85.281774
587.421280	85.248131
587.848823	85.234169
588.276346	85.201039
588.703849	85.168953
589.131332	85.144229
589.558794	85.093517
589.986236	85.044887
590.413657	84.991727
590.841058	84.915685
591.268438	84.836290
591.695799	84.754566
592.123138	84.664764
592.550458	84.561725
592.977756	84.456850
593.405034	84.341636
593.832292	84.218711
594.259529	84.092103
594.686746	83.953396
595.113942	83.808375
595.541117	83.660010
595.968272	83.516324
596.395406	83.345078
596.822519	83.176971
597.249612	83.005285
597.676684	82.843397
598.103735	82.663520
598.530766	82.467869
598.957775	82.280312
599.384764	82.075725
599.811733	81.878241
600.238680	81.679831
600.665606	81.474115
601.092512	81.264857
601.519397	81.046941
601.946261	80.838507
602.373104	80.615966
602.799926	80.402043
603.226727	80.176267
603.653507	79.951814
604.080266	79.735557
604.507004	79.493590
604.933721	79.243409
605.360417	78.994217
605.787092	78.738729
606.213746	78.480273
606.640379	78.222553
607.066991	77.961198
607.493581	77.705183
607.920150	77.434918
608.346699	77.150523
608.773226	76.862164
609.199731	76.565402
609.626216	76.277766
610.052679	75.962424
610.479121	75.653165
610.905542	75.315857
611.331941	74.986932
611.758319	74.639004
612.184676	74.287376
612.611011	73.931553
613.037325	73.559066
613.463617	73.175187
613.889888	72.775231
614.316138	72.356114
614.742366	71.946131
615.168573	71.517211
615.594758	71.073939
616.020921	70.621338
616.447063	70.168972
616.873184	69.707112
617.299283	69.227416
617.725360	68.759266
618.151416	68.279716
618.577450	67.803793
619.003462	67.332567
619.429453	66.845002
619.855422	66.355204
620.281369	65.861698
620.707295	65.354862
621.133199	64.859778
621.559081	64.375300
621.984941	63.870916
622.410779	63.382974
622.836596	62.877785
623.262391	62.369309
623.688163	61.848160
624.113914	61.329653
624.539644	60.803156
624.965351	60.267812
625.391036	59.717345
625.816699	59.153971
626.242340	58.582961
626.667960	57.981947
627.093557	57.382477
627.519132	56.774052
627.944685	56.125896
628.370216	55.463399
628.795725	54.793409
629.221212	54.103737
629.646677	53.399496
630.072119	52.671036
630.497540	51.937657
630.922938	51.194823
631.348314	50.448145
631.773668	49.690004
632.198999	48.917462
632.624308	48.159690
633.049595	47.405926
633.474860	46.657653
633.900102	45.924777
634.325322	45.201736
634.750520	44.494102
635.175695	43.803363
635.600848	43.121652
636.025978	42.468052
636.451086	41.844157
636.876171	41.232556
637.301234	40.649902
637.726275	40.082794
638.151293	39.552420
638.576288	39.037118
639.001261	38.560612
639.426211	38.106657
639.851139	37.693576
640.276044	37.311619
640.700927	36.962777
641.125787	36.658354
641.550624	36.383516
641.975438	36.153407
642.400230	35.959842
642.824999	35.801469
643.249745	35.691868
643.674469	35.612999
644.099169	35.565449
644.523847	35.558131
644.948502	35.588254
645.373135	35.658204
645.797744	35.743603
646.222330	35.854358
646.646894	35.994117
647.071435	36.148695
647.495953	36.323085
647.920447	36.511290
648.344919	36.717393
648.769368	36.930450
649.193794	37.149386
649.618197	37.372862
650.042576	37.596971
650.466933	37.833000
650.891267	38.070729
651.315577	38.303332
651.739864	38.541089
652.164129	38.760301
652.588370	38.978272
653.012587	39.182825
653.436782	39.376309
653.860953	39.567282
654.285102	39.749002
654.709226	39.924346
655.133328	40.080824
655.557406	40.236896
655.981461	40.385380
656.405493	40.528437
656.829501	40.664606
657.253486	40.792213
657.677448	40.911333
658.101386	41.017611
658.525301	41.126081
658.949192	41.230315
659.373060	41.339443
659.796904	41.440930
660.220725	41.544834
660.644522	41.645254
661.068296	41.738774
661.492046	41.831061
661.915772	41.924259
662.339475	42.019627
662.763154	42.115461
663.186810	42.213034
663.610442	42.298415
664.034050	42.394210
664.457635	42.484539
664.881196	42.570004
665.304733	42.657460
665.728247	42.745957
666.151736	42.836099
666.575202	42.925750
666.998644	43.008544
667.422062	43.091016
667.845457	43.176370
668.268827	43.264336
668.692174	43.342876
669.115496	43.423456
669.538795	43.493638
669.962070	43.564842
670.385321	43.632783
670.808547	43.695610
671.231750	43.754922
671.654929	43.796017
672.078084	43.844633
672.501214	43.879253
672.924321	43.904654
673.347404	43.920654
673.770462	43.934468
674.193496	43.944136
674.616506	43.948535
675.039492	43.943636
675.462454	43.923115
675.885391	43.894678
676.308305	43.864191
676.731194	43.832446
677.154058	43.790153
677.576899	43.742844
677.999715	43.690328
678.422507	43.640119
678.845274	43.581428
679.268017	43.528682
679.690736	43.465701
680.113430	43.398441
680.536100	43.324898
680.958746	43.254645
681.381367	43.171935
681.803963	43.088817
682.226535	42.997049
682.649083	42.898997
683.071605	42.796924
683.494104	42.684264
683.916578	42.568846
684.339027	42.450187
684.761451	42.334377
685.183851	42.209665
685.606227	42.074629
686.028577	41.941524
686.450903	41.805942
686.873204	41.671457
687.295481	41.533764
687.717733	41.400701
688.139959	41.273529
688.562162	41.155231
688.984339	41.044868
689.406492	40.940785
689.828619	40.850422
690.250722	40.758458
690.672800	40.682495
691.094853	40.613429
691.516881	40.560015
691.938884	40.524773
692.360863	40.494109
692.782816	40.482626
693.204744	40.485415
693.626647	40.503821
694.048526	40.524512
694.470379	40.564605
694.892207	40.617051
695.314010	40.691587
695.735788	40.787463
696.157540	40.890419
696.579268	41.021618
697.000970	41.160520
697.422648	41.318256
697.844300	41.484137
698.265926	41.669699
698.687528	41.874592
699.109104	42.092670
699.530655	42.317363
699.952181	42.560495
700.373681	42.810566
700.795156	43.072888
701.216606	43.337928
701.638030	43.616063
702.059429	43.888448
702.480803	44.167660
702.902151	44.437082
703.323473	44.718100
703.744770	44.994253
704.166042	45.274769
704.587288	45.545191
705.008509	45.800325
705.429704	46.046923
705.850873	46.283411
706.272017	46.510814
706.693135	46.725821
707.114228	46.925768
707.535295	47.106986
707.956336	47.279161
708.377352	47.414219
708.798342	47.518094
709.219306	47.606271
709.640245	47.665457
710.061157	47.701796
710.482044	47.712450
710.902905	47.705766
711.323741	47.658217
711.744550	47.599193
712.165334	47.508645
712.586092	47.406590
713.006823	47.271799
713.427529	47.125117
713.848209	46.954742
714.268863	46.769316
714.689492	46.565060
715.110094	46.345859
715.530670	46.104173
715.951220	45.854000
716.371744	45.579332
716.792242	45.294705
717.212714	44.986254
717.633159	44.663638
718.053579	44.330281
718.473973	43.975906
718.894340	43.610043
719.314681	43.229447
719.734996	42.829222
720.155285	42.423763
720.575547	42.017927
720.995784	41.597186
721.415994	41.184745
721.836177	40.774660
722.256335	40.362716
722.676466	39.943596
723.096570	39.540843
723.516649	39.138832
723.936701	38.740449
724.356726	38.359853
724.776725	37.978662
725.196698	37.612075
725.616644	37.250097
726.036564	36.896404
726.456457	36.550052
726.876324	36.217432
727.296164	35.893390
727.715977	35.579894
728.135764	35.279097
728.555525	34.990113
728.975258	34.713699
729.394966	34.456019
729.814646	34.210816
730.234300	33.981582
730.653927	33.763667
731.073527	33.560295
731.493101	33.382422
731.912648	33.216712
732.332168	33.066123
732.751661	32.938954
733.171128	32.824705
733.590568	32.721964
734.009980	32.635655
734.429366	32.565535
734.848726	32.509524
735.268058	32.470562
735.687363	32.450711
736.106641	32.447413
736.525893	32.456527
736.945117	32.480730
737.364314	32.526037
737.783485	32.582044
738.202628	32.645658
738.621744	32.727004
739.040834	32.821447
739.459896	32.930939
739.878931	33.050425
740.297939	33.185632
740.716919	33.335100
741.135873	33.494476
741.554799	33.663608
741.973698	33.838677
742.392570	34.015074
742.811415	34.192116
743.230232	34.380565
743.649022	34.566402
744.067785	34.759190
744.486521	34.941377
744.905229	35.126909
745.323909	35.306636
745.742563	35.479903
746.161189	35.657944
746.579787	35.837493
746.998358	36.008950
747.416902	36.165739
747.835418	36.319674
748.253907	36.467820
748.672368	36.608398
749.090802	36.738800
749.509208	36.865983
749.927586	36.999415
750.345937	37.112232
750.764261	37.217483
751.182556	37.324005
751.600824	37.425843
752.019065	37.522808
752.437277	37.612013
752.855462	37.696010
753.273620	37.769539
753.691749	37.834924
754.109851	37.899959
754.527925	37.957109
754.945971	37.999420
755.363989	38.048687
755.781980	38.083807
756.199943	38.116642
756.617877	38.139315
757.035784	38.148256
757.453663	38.157158
757.871514	38.154153
758.289337	38.149907
758.707132	38.135359
759.124899	38.099391
759.542639	38.052437
759.960350	38.006473
760.378033	37.956471
760.795688	37.894039
761.213314	37.825194
761.630913	37.750207
762.048484	37.675368
762.466026	37.583522
762.883541	37.476149
763.301027	37.371582
763.718485	37.277397
764.135914	37.173379
764.553316	37.056655
764.970689	36.940301
765.388034	36.822004
765.805351	36.708663
766.222639	36.599373
766.639899	36.478387
767.057131	36.365207
767.474334	36.256332
767.891509	36.153916
768.308655	36.048409
768.725773	35.955613
769.142863	35.859460
769.559924	35.770714
769.976957	35.692884
770.393961	35.622913
770.810936	35.563234
771.227883	35.509042
771.644802	35.465899
772.061692	35.445714
772.478553	35.426197
772.895386	35.415805
773.312190	35.415999
773.728965	35.434902
774.145712	35.457072
774.562430	35.496484
774.979119	35.546002
775.395780	35.609220
775.812411	35.685370
776.229014	35.773976
776.645589	35.862665
777.062134	35.967884
777.478651	36.083933
777.895138	36.212881
778.311597	36.352174
778.728027	36.493243
779.144428	36.645670
779.560800	36.811223
779.977143	36.988456
780.393458	37.170891
780.809743	37.362069
781.225999	37.551709
781.642226	37.746212
782.058425	37.950970
782.474594	38.165111
782.890734	38.375667
783.306845	38.588372
783.722926	38.800269
784.138979	39.006616
784.555003	39.213913
784.970997	39.410407
785.386962	39.610247
785.802898	39.796736
786.218805	39.980885
786.634682	40.152207
787.050531	40.328101
787.466349	40.493591
787.882139	40.638963
788.297899	40.792759
788.713630	40.934001
789.129332	41.072745
789.545004	41.196505
789.960647	41.322713
790.376260	41.448491
790.791844	41.573069
791.207399	41.691886
791.622924	41.809327
792.038419	41.924852
792.453885	42.050590
792.869321	42.163964
793.284728	42.286103
793.700106	42.413187
794.115453	42.551830
794.530771	42.700435
794.946060	42.853220
795.361319	43.003931
795.776548	43.171659
796.191747	43.332119
796.606917	43.497460
797.022057	43.668742
797.437167	43.842276
797.852248	44.013962
798.267298	44.180441
798.682319	44.355765
799.097310	44.528411
799.512271	44.696738
799.927203	44.861898
800.342104	45.036436
800.756976	45.194081
801.171818	45.343223
801.586629	45.484682
802.001411	45.605464
802.416163	45.728657
802.830885	45.835613
803.245577	45.934506
803.660238	46.019021
804.074870	46.093638
804.489472	46.159547
804.904043	46.216353
805.318585	46.244484
805.733096	46.264092
806.147577	46.264432
806.562028	46.244859
806.976449	46.213783
807.390840	46.158994
807.805200	46.086027
808.219530	46.019378
808.633830	45.911316
809.048100	45.801283
809.462339	45.697676
809.876548	45.578380
810.290727	45.456427
810.704875	45.311508
811.118993	45.171621
811.533080	45.013540
811.947137	44.856352
812.361164	44.691496
812.775160	44.512709
813.189126	44.322561
813.603061	44.139712
814.016966	43.945547
814.430840	43.739423
814.844684	43.538255
815.258497	43.335083
815.672280	43.123047
816.086032	42.906673
816.499753	42.682362
816.913444	42.462462
817.327104	42.235338
817.740733	42.002149
818.154331	41.773321
818.567899	41.534498
818.981436	41.300266
819.394943	41.071005
819.808418	40.849944
820.221863	40.627224
820.635277	40.399707
821.048660	40.157091
821.462013	39.932453
821.875334	39.706626
822.288625	39.456293
822.701884	39.209233
823.115113	38.959669
823.528311	38.720667
823.941478	38.476087
824.354614	38.240522
824.767718	37.988638
825.180792	37.751374
825.593835	37.524736
826.006847	37.293426
826.419827	37.067936
826.832777	36.851242
827.245695	36.651940
827.658582	36.452466
828.071438	36.261814
828.484263	36.076917
828.897057	35.912117
829.309819	35.762376
829.722551	35.620659
830.135251	35.493723
830.547919	35.373109
830.960557	35.287550
831.373163	35.201652
831.785738	35.129549
832.198281	35.077399
832.610793	35.028363
833.023274	35.001206
833.435723	34.974670
833.848141	34.975361
834.260528	34.989936
834.672883	35.010567
835.085206	35.050527
835.497498	35.108137
835.909758	35.160917
836.321987	35.229750
836.734185	35.310228
837.146350	35.400326
837.558485	35.507925
837.970587	35.617459
838.382658	35.721884
838.794697	35.844873
839.206705	35.977428
839.618681	36.109061
840.030625	36.249340
840.442538	36.389342
840.854418	36.529442
841.266267	36.682196
841.678084	36.844854
842.089870	37.002439
842.501623	37.148055
842.913345	37.309942
843.325035	37.459538
843.736693	37.596967
844.148319	37.746240
844.559913	37.903493
844.971475	38.033393
845.383005	38.175184
845.794504	38.306699
846.205970	38.458272
846.617404	38.585186
847.028806	38.702630
847.440176	38.825070
847.851514	38.951297
848.262820	39.069447
848.674094	39.193067
849.085336	39.301357
849.496546	39.403868
849.907723	39.488671
850.318868	39.575722
850.729981	39.651928
851.141062	39.738886
851.552110	39.803628
851.963127	39.852801
852.374111	39.916105
852.785062	39.962353
853.195982	40.004815
853.606869	40.034848
854.017723	40.081699
854.428546	40.097284
854.839336	40.114006
855.250093	40.136255
855.660818	40.145196
856.071511	40.161479
856.482171	40.170751
856.892799	40.184842
857.303394	40.167801
857.713956	40.164168
858.124486	40.141298
858.534984	40.113156
858.945449	40.063532
859.355881	40.011723
859.766280	39.971972
860.176647	39.924838
860.586982	39.849022
860.997283	39.774096
861.407552	39.676255
861.817789	39.601196
862.227992	39.498673
862.638163	39.413313
863.048301	39.319184
863.458406	39.218959
863.868478	39.104739
864.278518	38.991349
864.688524	38.870859
865.098498	38.740134
865.508439	38.597650
865.918347	38.466368
866.328222	38.347436
866.738064	38.200668
867.147873	38.080166
867.557649	37.942913
867.967392	37.828094
868.377102	37.701388
868.786779	37.578089
869.196423	37.467557
869.606034	37.347867
870.015612	37.254442
870.425156	37.161444
870.834668	37.083682
871.244146	37.017046
871.653591	36.956915
872.063003	36.897928
872.472382	36.849813
872.881728	36.803242
873.291040	36.766679
873.700319	36.716529
874.109564	36.695791
874.518777	36.678561
874.927956	36.663490
875.337102	36.647410
875.746214	36.646023
876.155293	36.636358
876.564338	36.649392
876.973350	36.662515
877.382329	36.693139
877.791274	36.721833
878.200186	36.773462
878.609064	36.817587
879.017909	36.854618
879.426720	36.891924
879.835497	36.944245
880.244241	36.982238
880.652952	37.021465
881.061629	37.071415
881.470272	37.126143
881.878881	37.153595
882.287457	37.194035
882.695999	37.221185
883.104507	37.243288
883.512982	37.261607
883.921423	37.266954
884.329830	37.279375
884.738203	37.293914
885.146543	37.301262
885.554849	37.306908
885.963120	37.294223
886.371358	37.320375
886.779563	37.319486
887.187733	37.296343
887.595869	37.289168
888.003971	37.270230
888.412040	37.237136
888.820074	37.211271
889.228074	37.177841
889.636041	37.140229
890.043973	37.097281
890.451871	37.059112
890.859736	37.002847
891.267566	36.936273
891.675362	36.880751
892.083124	36.830036
892.490851	36.739942
892.898545	36.685527
893.306204	36.601978
893.713829	36.504265
894.121420	36.400354
894.528977	36.306757
894.936499	36.202480
895.343987	36.093719
895.751441	35.988490
896.158860	35.862028
896.566246	35.741147
896.973596	35.595985
897.380913	35.473410
897.788195	35.317463
898.195442	35.161618
898.602655	35.020054
899.009834	34.831820
899.416978	34.657327
899.824088	34.488362
900.231163	34.329547
900.638204	34.164705
901.045210	33.995616
901.452181	33.809909
901.859118	33.601641
902.266021	33.408395
902.672888	33.217690
903.079721	33.013660
903.486520	32.824722
903.893283	32.645524
904.300012	32.448495
904.706707	32.249169
905.113366	32.059332
905.519991	31.875818
905.926581	31.704406
906.333136	31.514865
906.739656	31.356181
907.146142	31.182261
907.552592	31.025025
907.959008	30.847642
908.365389	30.694100
908.771735	30.543499
909.178046	30.398853
909.584322	30.282873
909.990563	30.138287
910.396769	30.018904
910.802940	29.899386
911.209076	29.794191
911.615177	29.702890
912.021243	29.614429
912.427274	29.537041
912.833270	29.446885
913.239231	29.369284
913.645156	29.301933
914.051046	29.260159
914.456902	29.250105
914.862721	29.228053
915.268506	29.199613
915.674256	29.206310
916.079970	29.205777
916.485649	29.213417
916.891292	29.237306
917.296901	29.262128
917.702474	29.293412
918.108011	29.308374
918.513514	29.334079
918.918980	29.380644
919.324412	29.429564
919.729808	29.494421
920.135169	29.551187
920.540494	29.627251
920.945783	29.691058
921.351037	29.766390
921.756256	29.836736
922.161439	29.903304
922.566586	29.996513
922.971698	30.079983
923.376775	30.174454
923.781815	30.267298
924.186820	30.357643
924.591790	30.459749
924.996723	30.557029
925.401621	30.663670
925.806484	30.760744
926.211310	30.838153
926.616101	30.916637
927.020856	30.978546
927.425575	31.027477
927.830259	31.087141
928.234906	31.112447
928.639518	31.142573
929.044094	31.165926
929.448634	31.192910
929.853138	31.203727
930.257606	31.197003
930.662038	31.199543
931.066434	31.179361
931.470795	31.150380
931.875119	31.111161
932.279407	31.058314
932.683659	30.993558
933.087875	30.919909
933.492055	30.842830
933.896199	30.744845
934.300307	30.644855
934.704379	30.547933
935.108414	30.426681
935.512414	30.306369
935.916377	30.147693
936.320304	30.000255
936.724195	29.837542
937.128049	29.668219
937.531867	29.492655
937.935649	29.296448
938.339395	29.103029
938.743104	28.908543
939.146777	28.725854
939.550414	28.549795
939.954014	28.378138
940.357578	28.182357
940.761105	28.010910
941.164596	27.836608
941.568050	27.664401
941.971468	27.474621
942.374850	27.293648
942.778195	27.136205
943.181503	26.989952
943.584775	26.829435
943.988010	26.677245
944.391209	26.529002
944.794371	26.388217
945.197496	26.258355
945.600585	26.136419
946.003637	26.031892
946.406653	25.936619
946.809632	25.839160
947.212574	25.759199
947.615479	25.666415
948.018347	25.572260
948.421179	25.512312
948.823974	25.420008
949.226732	25.378819
949.629453	25.296005
950.032138	25.252441
950.434785	25.195077
950.837396	25.162732
951.239969	25.132687
951.642506	25.093741
952.045006	25.044477
952.447469	25.010676
952.849895	24.989406
953.252283	24.951502
953.654635	24.918815
954.056950	24.897005
954.459227	24.902419
954.861468	24.931576
955.263671	24.909264
955.665838	24.912490
956.067967	24.930818
956.470059	24.953202
956.872114	24.946031
957.274131	24.975945
957.676112	25.005574
958.078055	25.084429
958.479961	25.080790
958.881829	25.091957
959.283661	25.113168
959.685455	25.136687
960.087211	25.155773
960.488931	25.203550
960.890613	25.255275
961.292257	25.307920
961.693864	25.348194
962.095434	25.390773
962.496966	25.393418
962.898461	25.446212
963.299918	25.509906
963.701338	25.550457
964.102720	25.572192
964.504065	25.603045
964.905372	25.634981
965.306641	25.638669
965.707873	25.671638
966.109068	25.702649
966.510224	25.720594
966.911343	25.713200
967.312425	25.710609
967.713468	25.725124
968.114474	25.665979
968.515442	25.637886
968.916373	25.614915
969.317265	25.612295
969.718120	25.549038
970.118937	25.499633
970.519716	25.412410
970.920458	25.374839
971.321161	25.339007
971.721827	25.277457
972.122454	25.216701
972.523044	25.180568
972.923596	25.136435
973.324110	25.055625
973.724585	25.011883
974.125023	24.911178
974.525423	24.843715
974.925785	24.768681
975.326108	24.709185
975.726394	24.592523
976.126642	24.504493
976.526851	24.429919
976.927022	24.350771
977.327155	24.283182
977.727250	24.231335
978.127307	24.143579
978.527325	24.072076
978.927306	23.997339
979.327248	23.897427
979.727151	23.766584
980.127017	23.700577
980.526844	23.621262
980.926633	23.554527
981.326383	23.472444
981.726095	23.377851
982.125769	23.287522
982.525404	23.204950
982.925001	23.102293
983.324560	23.050013
983.724079	22.934173
984.123561	22.898901
984.523004	22.807193
984.922408	22.702568
985.321774	22.581167
985.721102	22.518594
986.120390	22.438626
986.519641	22.391848
986.918852	22.343992
987.318025	22.310070
987.717159	22.180241
988.116255	22.161214
988.515312	22.163417
988.914330	22.152425
989.313310	22.107008
989.712250	22.057376
990.111152	22.043575
990.510015	22.036819
990.908840	22.032145
991.307625	22.010784
991.706372	22.011920
992.105080	22.034400
992.503749	22.075341
992.902379	22.200420
993.300970	22.218705
993.699522	22.352835
994.098035	22.444252
994.496510	22.557212
994.894945	22.640639
995.293341	22.820483
995.691698	22.888898
996.090016	23.067095
996.488296	23.230471
996.886535	23.452958
997.284736	23.630946
997.682898	23.777627
998.081021	23.916963
998.479104	24.055779
998.877148	24.232173
999.275153	24.428518
999.673119	24.502239
1000.071046	24.818972
1000.468933	25.033085
1000.866781	25.122137
1001.264590	25.330189
1001.662359	25.553251
1002.060089	25.778913
1002.457780	26.000772
1002.855431	26.221953
1003.253043	26.390529
1003.650615	26.752809
1004.048148	27.063622
1004.445642	27.316764
1004.843096	27.676222
1005.240511	27.832960
1005.637886	27.986507
1006.035221	28.222369
1006.432517	28.507333
1006.829774	28.965597
1007.226991	29.318851
1007.624168	29.440628
1008.021306	29.797218
1008.418404	30.236857
1008.815462	30.589220
1009.212481	30.864365
1009.609460	31.156387
1010.006399	31.604158
1010.403298	32.002363
1010.800158	32.541207
1011.196978	32.945837
1011.593758	33.313676
1011.990498	34.224452
1012.387199	34.612111
1012.783860	35.021023
1013.180480	35.547156
1013.577061	35.963609
1013.973602	36.590967
1014.370103	36.962092
1014.766564	37.392510
1015.162985	37.864717
1015.559366	38.315092
1015.955708	38.432745
1016.352009	38.787775
1016.748270	39.333091
1017.144491	39.267823
1017.540671	39.648298
1017.936812	40.524718
1018.332913	40.827922
1018.728973	41.182290
1019.124994	41.165612
1019.520974	41.723356
1019.916914	42.445495
1020.312814	42.819456
