Time1=100ms:Average1=5:Objective=10X:Aperture=1: (11/28/2018 11:04:14 AM)
11/28/2018 11:04:14 AM
Reflectance
10X
Ap#: 1
Avg1: 5.000000
Avg2: 0.000000
Int.Time1:100.000000

350.166136	51.949222
350.601937	52.103804
351.037728	52.387918
351.473509	52.163853
351.909281	52.528041
352.345042	52.966324
352.780794	53.219333
353.216536	53.416856
353.652267	53.254593
354.087989	53.490616
354.523701	53.755600
354.959403	53.937319
355.395095	53.646063
355.830777	53.850225
356.266449	54.056204
356.702110	54.313691
357.137762	54.604972
357.573404	54.446025
358.009035	54.105076
358.444656	54.110506
358.880268	54.380638
359.315869	54.409540
359.751459	54.545455
360.187040	54.141378
360.622610	54.286480
361.058170	54.497449
361.493720	54.604560
361.929260	54.764669
362.364789	55.109880
362.800308	55.389408
363.235816	55.361264
363.671314	55.357143
364.106802	55.294013
364.542279	55.700586
364.977746	55.898802
365.413203	55.598866
365.848649	55.331208
366.284084	55.142503
366.719509	54.918976
367.154924	55.133215
367.590328	54.951594
368.025721	55.157745
368.461104	54.986690
368.896477	54.747617
369.331838	54.704691
369.767189	54.690514
370.202530	54.332778
370.637859	54.173256
371.073178	54.401192
371.508486	54.577188
371.943784	54.471191
372.379071	54.509122
372.814347	54.429168
373.249612	54.589793
373.684866	54.905036
374.120110	54.892581
374.555343	55.194918
374.990565	55.191400
375.425776	54.972907
375.860976	54.774571
376.296165	54.681484
376.731343	54.934758
377.166511	54.690235
377.601667	55.051257
378.036812	54.868800
378.471946	54.482158
378.907070	54.666783
379.342182	54.411126
379.777283	54.365217
380.212373	54.468306
380.647452	54.420653
381.082520	54.726710
381.517576	54.382796
381.952622	54.424054
382.387656	54.895860
382.822679	55.010808
383.257691	54.766646
383.692692	54.960111
384.127681	54.602818
384.562659	54.550169
384.997626	54.255136
385.432581	54.401728
385.867525	54.105281
386.302458	53.897896
386.737379	53.889128
387.172289	53.726229
387.607188	53.492757
388.042075	53.346474
388.476951	53.596446
388.911815	54.063454
389.346668	54.015588
389.781509	53.950148
390.216338	53.532792
390.651157	53.219138
391.085963	52.980745
391.520758	53.058645
391.955541	53.102405
392.390313	52.904146
392.825073	52.962434
393.259821	53.180256
393.694558	52.977636
394.129283	52.835073
394.563996	52.507915
394.998698	52.612374
395.433388	52.668510
395.868066	52.571758
396.302732	52.345193
396.737386	52.565728
397.172029	52.428845
397.606659	52.521331
398.041278	52.039550
398.475885	52.064375
398.910480	51.632444
399.345063	51.363778
399.779634	51.075599
400.214194	50.169645
400.648741	49.327520
401.083276	48.401761
401.517799	47.052241
401.952310	45.586743
402.386809	43.702738
402.821296	42.091119
403.255771	40.277114
403.690234	38.707846
404.124684	36.942675
404.559123	35.121116
404.993549	33.162232
405.427963	31.453640
405.862365	29.894452
406.296754	28.331866
406.731131	26.616091
407.165496	25.266503
407.599849	23.804395
408.034190	22.569762
408.468518	21.343434
408.902833	20.222039
409.337137	19.175956
409.771428	18.199358
410.205706	17.341154
410.639973	16.482133
411.074226	15.790602
411.508467	15.233356
411.942696	14.693139
412.376912	14.248036
412.811116	13.848762
413.245307	13.447337
413.679486	13.172816
414.113652	12.902861
414.547805	12.667375
414.981946	12.472424
415.416074	12.342822
415.850190	12.238784
416.284293	12.125699
416.718383	12.040046
417.152460	11.964371
417.586525	11.920623
418.020577	11.883449
418.454616	11.899556
418.888643	11.907300
419.322656	11.873074
419.756657	11.878636
420.190645	11.871906
420.624620	11.882886
421.058582	11.924471
421.492531	11.956960
421.926468	12.026090
422.360391	12.111722
422.794301	12.252029
423.228199	12.410861
423.662083	12.575907
424.095955	12.788300
424.529813	13.000049
424.963658	13.210331
425.397491	13.386452
425.831310	13.569230
426.265116	13.757619
426.698909	13.956587
427.132689	14.172177
427.566455	14.373837
428.000209	14.581928
428.433949	14.811663
428.867676	15.046351
429.301389	15.279525
429.735090	15.539623
430.168777	15.771570
430.602451	15.981304
431.036111	16.182590
431.469759	16.386130
431.903392	16.559342
432.337013	16.742949
432.770620	16.938866
433.204213	17.150864
433.637794	17.405397
434.071360	17.683171
434.504914	17.960572
434.938453	18.252563
435.371979	18.533850
435.805492	18.861906
436.238991	19.161485
436.672477	19.457483
437.105949	19.738468
437.539407	19.988777
437.972852	20.207980
438.406283	20.427290
438.839700	20.681210
439.273104	20.934284
439.706494	21.192360
440.139871	21.483599
440.573233	21.761767
441.006582	22.039009
441.439917	22.327214
441.873238	22.548233
442.306546	22.752931
442.739839	22.947682
443.173119	23.093692
443.606385	23.235413
444.039636	23.379328
444.472874	23.508625
444.906099	23.657045
445.339309	23.843504
445.772505	24.040504
446.205687	24.267621
446.638855	24.495001
447.072009	24.722600
447.505149	24.944274
447.938275	25.196180
448.371387	25.447214
448.804485	25.667045
449.237569	25.853065
449.670638	26.022563
450.103694	26.162905
450.536735	26.302637
450.969762	26.445066
451.402774	26.619404
451.835773	26.789208
452.268757	26.975309
452.701727	27.154961
453.134683	27.343861
453.567624	27.512736
454.000551	27.668496
454.433464	27.827962
454.866362	27.937270
455.299246	28.050954
455.732116	28.143366
456.164971	28.229520
456.597811	28.320636
457.030638	28.411239
457.463449	28.506583
457.896246	28.630174
458.329029	28.734306
458.761797	28.843499
459.194551	28.945693
459.627290	29.050662
460.060014	29.182565
460.492724	29.319777
460.925419	29.461683
461.358099	29.583104
461.790765	29.702571
462.223416	29.835564
462.656052	29.941836
463.088674	30.032699
463.521281	30.150148
463.953873	30.236808
464.386450	30.324602
464.819012	30.413211
465.251560	30.507210
465.684093	30.592208
466.116611	30.697301
466.549114	30.802048
466.981602	30.905948
467.414075	31.015862
467.846533	31.113420
468.278977	31.214889
468.711405	31.307272
469.143818	31.382183
469.576216	31.443751
470.008600	31.489973
470.440968	31.534076
470.873321	31.575416
471.305659	31.607411
471.737982	31.638918
472.170289	31.659303
472.602582	31.669995
473.034859	31.689605
473.467122	31.694551
473.899369	31.707178
474.331600	31.727696
474.763817	31.749992
475.196018	31.777426
475.628204	31.825119
476.060375	31.893287
476.492530	31.970370
476.924670	32.011933
477.356795	32.047286
477.788904	32.062290
478.220998	32.053677
478.653076	32.039353
479.085139	31.993690
479.517186	31.943785
479.949219	31.890172
480.381235	31.850712
480.813236	31.814377
481.245221	31.800358
481.677191	31.804957
482.109146	31.824529
482.541084	31.840084
482.973008	31.840628
483.404915	31.832752
483.836807	31.812620
484.268683	31.760465
484.700544	31.675202
485.132388	31.567125
485.564217	31.436625
485.996031	31.298451
486.427828	31.134325
486.859610	30.964374
487.291376	30.785806
487.723126	30.598991
488.154860	30.420924
488.586579	30.261902
489.018281	30.104927
489.449968	29.982901
489.881639	29.893152
490.313293	29.832734
490.744932	29.807191
491.176555	29.809028
491.608162	29.825059
492.039753	29.831377
492.471328	29.848734
492.902886	29.823200
493.334429	29.789484
493.765956	29.731034
494.197466	29.680236
494.628960	29.645342
495.060439	29.629726
495.491901	29.641921
495.923347	29.720827
496.354776	29.850304
496.786190	30.044570
497.217587	30.278266
497.648968	30.548901
498.080332	30.847355
498.511681	31.170295
498.943013	31.504926
499.374328	31.824531
499.805628	32.143962
500.236911	32.445696
500.668177	32.735842
501.099427	33.005596
501.530661	33.271357
501.961878	33.509030
502.393079	33.745998
502.824264	33.974747
503.255431	34.190225
503.686583	34.432708
504.117717	34.679575
504.548835	34.952809
504.979937	35.252780
505.411022	35.598510
505.842090	35.989603
506.273142	36.438582
506.704177	36.914514
507.135195	37.414703
507.566197	37.926401
507.997182	38.406172
508.428150	38.858046
508.859102	39.271209
509.290036	39.638340
509.720954	39.953841
510.151855	40.209118
510.582739	40.443542
511.013607	40.671183
511.444457	40.906496
511.875291	41.173219
512.306107	41.467779
512.736907	41.822117
513.167690	42.207582
513.598456	42.627013
514.029205	43.072103
514.459936	43.531256
514.890651	43.971240
515.321349	44.394249
515.752030	44.785059
516.182693	45.112050
516.613340	45.403402
517.043969	45.623628
517.474582	45.795577
517.905177	45.897524
518.335755	45.949231
518.766315	45.951162
519.196859	45.909864
519.627385	45.825353
520.057894	45.716483
520.488386	45.606736
520.918860	45.484286
521.349318	45.378437
521.779757	45.301753
522.210180	45.276973
522.640585	45.280754
523.070973	45.340461
523.501343	45.445329
523.931696	45.575134
524.362031	45.723617
524.792349	45.873078
525.222650	45.986747
525.652933	46.050841
526.083198	46.065464
526.513446	46.026377
526.943677	45.928398
527.373890	45.783128
527.804085	45.600515
528.234262	45.408887
528.664422	45.220962
529.094565	45.045920
529.524689	44.920766
529.954796	44.831848
530.384885	44.787760
530.814957	44.802025
531.245011	44.875918
531.675047	44.984328
532.105065	45.122343
532.535065	45.274077
532.965048	45.430310
533.395013	45.588930
533.824959	45.708075
534.254888	45.809853
534.684799	45.865250
535.114693	45.883681
535.544568	45.850450
535.974425	45.770982
536.404264	45.639166
536.834086	45.467911
537.263889	45.246063
537.693674	44.976730
538.123441	44.691831
538.553190	44.392977
538.982921	44.097196
539.412634	43.802637
539.842329	43.530852
540.272006	43.296183
540.701664	43.084153
541.131304	42.914094
541.560926	42.773047
541.990530	42.654134
542.420116	42.562425
542.849683	42.462058
543.279232	42.367382
543.708763	42.261786
544.138275	42.136019
544.567769	41.976410
544.997245	41.791682
545.426702	41.581019
545.856141	41.348629
546.285562	41.111827
546.714964	40.852466
547.144347	40.610295
547.573713	40.372288
548.003059	40.175416
548.432387	40.001395
548.861697	39.859749
549.290988	39.764031
549.720260	39.724325
550.149514	39.716884
550.578750	39.770112
551.007966	39.872178
551.437164	40.003893
551.866344	40.168568
552.295504	40.350834
552.724646	40.544064
553.153769	40.733600
553.582874	40.904954
554.011960	41.050545
554.441027	41.144177
554.870075	41.197077
555.299104	41.208807
555.728115	41.175149
556.157106	41.091446
556.586079	40.971346
557.015033	40.822198
557.443968	40.634971
557.872884	40.437714
558.301781	40.228841
558.730659	39.999514
559.159518	39.775236
559.588358	39.537332
560.017180	39.310622
560.445982	39.089937
560.874765	38.871663
561.303528	38.647267
561.732273	38.420316
562.160999	38.184178
562.589705	37.936432
563.018393	37.661708
563.447061	37.381590
563.875710	37.064500
564.304340	36.735721
564.732950	36.385736
565.161542	36.009788
565.590114	35.622018
566.018666	35.226244
566.447200	34.822646
566.875714	34.421914
567.304208	34.029211
567.732684	33.652756
568.161140	33.293659
568.589576	32.969598
569.017993	32.665724
569.446391	32.399189
569.874769	32.172411
570.303128	31.986831
570.731467	31.858115
571.159787	31.771897
571.588087	31.738170
572.016368	31.757015
572.444629	31.827095
572.872870	31.949982
573.301092	32.106263
573.729294	32.289693
574.157476	32.499683
574.585639	32.718629
575.013782	32.945773
575.441906	33.179401
575.870009	33.385300
576.298093	33.594055
576.726157	33.779582
577.154202	33.966650
577.582226	34.135988
578.010231	34.297855
578.438216	34.459126
578.866181	34.624057
579.294126	34.781307
579.722051	34.944249
580.149957	35.107814
580.577842	35.273335
581.005707	35.442861
581.433553	35.612942
581.861378	35.759128
582.289184	35.903505
582.716969	36.049010
583.144734	36.169729
583.572479	36.275366
584.000205	36.346321
584.427910	36.394385
584.855594	36.409050
585.283259	36.410119
585.710904	36.367242
586.138528	36.298380
586.566132	36.207157
586.993716	36.082071
587.421280	35.937109
587.848823	35.758791
588.276346	35.552848
588.703849	35.310857
589.131332	35.060249
589.558794	34.773612
589.986236	34.470879
590.413657	34.142249
590.841058	33.801920
591.268438	33.449896
591.695799	33.092427
592.123138	32.733643
592.550458	32.383575
592.977756	32.045660
593.405034	31.728327
593.832292	31.436120
594.259529	31.170927
594.686746	30.936277
595.113942	30.736661
595.541117	30.563592
595.968272	30.417810
596.395406	30.289790
596.822519	30.177429
597.249612	30.084164
597.676684	30.008167
598.103735	29.934239
598.530766	29.855723
598.957775	29.777837
599.384764	29.696542
599.811733	29.613487
600.238680	29.539427
600.665606	29.459957
601.092512	29.402503
601.519397	29.354838
601.946261	29.329436
602.373104	29.321251
602.799926	29.330909
603.226727	29.367185
603.653507	29.420453
604.080266	29.484552
604.507004	29.562177
604.933721	29.646335
605.360417	29.745532
605.787092	29.843035
606.213746	29.939472
606.640379	30.021379
607.066991	30.091743
607.493581	30.159269
607.920150	30.208967
608.346699	30.250153
608.773226	30.283258
609.199731	30.298174
609.626216	30.324281
610.052679	30.343475
610.479121	30.373729
610.905542	30.390773
611.331941	30.414043
611.758319	30.446941
612.184676	30.486541
612.611011	30.526917
613.037325	30.565470
613.463617	30.606236
613.889888	30.646162
614.316138	30.677421
614.742366	30.705077
615.168573	30.724361
615.594758	30.741908
616.020921	30.769216
616.447063	30.792831
616.873184	30.834464
617.299283	30.884028
617.725360	30.947043
618.151416	31.031480
618.577450	31.122952
619.003462	31.241608
619.429453	31.375416
619.855422	31.530007
620.281369	31.708482
620.707295	31.895425
621.133199	32.090769
621.559081	32.289481
621.984941	32.476213
622.410779	32.662512
622.836596	32.809563
623.262391	32.939284
623.688163	33.041088
624.113914	33.121931
624.539644	33.175579
624.965351	33.202375
625.391036	33.201253
625.816699	33.175447
626.242340	33.132004
626.667960	33.073735
627.093557	33.003832
627.519132	32.925488
627.944685	32.849333
628.370216	32.766631
628.795725	32.681403
629.221212	32.588456
629.646677	32.497356
630.072119	32.386979
630.497540	32.280961
630.922938	32.163532
631.348314	32.038742
631.773668	31.901389
632.198999	31.750222
632.624308	31.596602
633.049595	31.439623
633.474860	31.284409
633.900102	31.130343
634.325322	30.984039
634.750520	30.847722
635.175695	30.735113
635.600848	30.640730
636.025978	30.587827
636.451086	30.561949
636.876171	30.571727
637.301234	30.615430
637.726275	30.696118
638.151293	30.806828
638.576288	30.947041
639.001261	31.120423
639.426211	31.315821
639.851139	31.523649
640.276044	31.746249
640.700927	31.978038
641.125787	32.211233
641.550624	32.446810
641.975438	32.677192
642.400230	32.903412
642.824999	33.117506
643.249745	33.323449
643.674469	33.527848
644.099169	33.720597
644.523847	33.911416
644.948502	34.105523
645.373135	34.309832
645.797744	34.502108
646.222330	34.692791
646.646894	34.886193
647.071435	35.074273
647.495953	35.261495
647.920447	35.444668
648.344919	35.619441
648.769368	35.785687
649.193794	35.942054
649.618197	36.088661
650.042576	36.208968
650.466933	36.321254
650.891267	36.410557
651.315577	36.482009
651.739864	36.547359
652.164129	36.597312
652.588370	36.632616
653.012587	36.660848
653.436782	36.672803
653.860953	36.692436
654.285102	36.710738
654.709226	36.726449
655.133328	36.745686
655.557406	36.767201
655.981461	36.798885
656.405493	36.843883
656.829501	36.878319
657.253486	36.918280
657.677448	36.954381
658.101386	36.986765
658.525301	37.002730
658.949192	37.015253
659.373060	37.020782
659.796904	37.001118
660.220725	36.974577
660.644522	36.934738
661.068296	36.876933
661.492046	36.809618
661.915772	36.732452
662.339475	36.643420
662.763154	36.555899
663.186810	36.476100
663.610442	36.393451
664.034050	36.321836
664.457635	36.268683
664.881196	36.232922
665.304733	36.212966
665.728247	36.218349
666.151736	36.247313
666.575202	36.300759
666.998644	36.372634
667.422062	36.457900
667.845457	36.569913
668.268827	36.693685
668.692174	36.823397
669.115496	36.955513
669.538795	37.080954
669.962070	37.207458
670.385321	37.327952
670.808547	37.428285
671.231750	37.507557
671.654929	37.567912
672.078084	37.606891
672.501214	37.618648
672.924321	37.603081
673.347404	37.569500
673.770462	37.520598
674.193496	37.463636
674.616506	37.392273
675.039492	37.314317
675.462454	37.233819
675.885391	37.141537
676.308305	37.051078
676.731194	36.979163
677.154058	36.917226
677.576899	36.855038
677.999715	36.800853
678.422507	36.756411
678.845274	36.730436
679.268017	36.717679
679.690736	36.710890
680.113430	36.713473
680.536100	36.727673
680.958746	36.749880
681.381367	36.777917
681.803963	36.819477
682.226535	36.864588
682.649083	36.925762
683.071605	36.992743
683.494104	37.065683
683.916578	37.158804
684.339027	37.269446
684.761451	37.389342
685.183851	37.522471
685.606227	37.664525
686.028577	37.816031
686.450903	37.971183
686.873204	38.119285
687.295481	38.263547
687.717733	38.407996
688.139959	38.546341
688.562162	38.665571
688.984339	38.775170
689.406492	38.855592
689.828619	38.909592
690.250722	38.931003
690.672800	38.929976
691.094853	38.892145
691.516881	38.833659
691.938884	38.739478
692.360863	38.612092
692.782816	38.470883
693.204744	38.303326
693.626647	38.121351
694.048526	37.921054
694.470379	37.725146
694.892207	37.518971
695.314010	37.315653
695.735788	37.117472
696.157540	36.931431
696.579268	36.757989
697.000970	36.598145
697.422648	36.451012
697.844300	36.315147
698.265926	36.204034
698.687528	36.108936
699.109104	36.039158
699.530655	35.985197
699.952181	35.952751
700.373681	35.944293
700.795156	35.939851
701.216606	35.939888
701.638030	35.957257
702.059429	35.982137
702.480803	36.014681
702.902151	36.042164
703.323473	36.069380
703.744770	36.092581
704.166042	36.119292
704.587288	36.132086
705.008509	36.136728
705.429704	36.141479
705.850873	36.142427
706.272017	36.136746
706.693135	36.130072
707.114228	36.124300
707.535295	36.114047
707.956336	36.114657
708.377352	36.124893
708.798342	36.132209
709.219306	36.147250
709.640245	36.182033
710.061157	36.227447
710.482044	36.285732
710.902905	36.369180
711.323741	36.462150
711.744550	36.581524
712.165334	36.713397
712.586092	36.866717
713.006823	37.039334
713.427529	37.222509
713.848209	37.432533
714.268863	37.663086
714.689492	37.904422
715.110094	38.162040
715.530670	38.435503
715.951220	38.724088
716.371744	39.026716
716.792242	39.351651
717.212714	39.668675
717.633159	40.004851
718.053579	40.353998
718.473973	40.696803
718.894340	41.033766
719.314681	41.377499
719.734996	41.706322
720.155285	42.028102
720.575547	42.334976
720.995784	42.616646
721.415994	42.876797
721.836177	43.111107
722.256335	43.310486
722.676466	43.460099
723.096570	43.570084
723.516649	43.645163
723.936701	43.678128
724.356726	43.656941
724.776725	43.588848
725.196698	43.481324
725.616644	43.324704
726.036564	43.127017
726.456457	42.895515
726.876324	42.639181
727.296164	42.353279
727.715977	42.046368
728.135764	41.724474
728.555525	41.395825
728.975258	41.061458
729.394966	40.736805
729.814646	40.413015
730.234300	40.118202
730.653927	39.831563
731.073527	39.560631
731.493101	39.326916
731.912648	39.116681
732.332168	38.932997
732.751661	38.793546
733.171128	38.682938
733.590568	38.599212
734.009980	38.555350
734.429366	38.539372
734.848726	38.566409
735.268058	38.616906
735.687363	38.704948
736.106641	38.827496
736.525893	38.964685
736.945117	39.111314
737.364314	39.290204
737.783485	39.489722
738.202628	39.699014
738.621744	39.926603
739.040834	40.156996
739.459896	40.389084
739.878931	40.616575
740.297939	40.842746
740.716919	41.073350
741.135873	41.286232
741.554799	41.492916
741.973698	41.686337
742.392570	41.862456
742.811415	42.006702
743.230232	42.130421
743.649022	42.248762
744.067785	42.345474
744.486521	42.412833
744.905229	42.456120
745.323909	42.480014
745.742563	42.482118
746.161189	42.468699
746.579787	42.439690
746.998358	42.390846
747.416902	42.331623
747.835418	42.256447
748.253907	42.184669
748.672368	42.100718
749.090802	42.013950
749.509208	41.925612
749.927586	41.858365
750.345937	41.789499
750.764261	41.722212
751.182556	41.673053
751.600824	41.624246
752.019065	41.598454
752.437277	41.588835
752.855462	41.592613
753.273620	41.607685
753.691749	41.633443
754.109851	41.685518
754.527925	41.741587
754.945971	41.810238
755.363989	41.891382
755.781980	41.984833
756.199943	42.086338
756.617877	42.172490
757.035784	42.255105
757.453663	42.338792
757.871514	42.425687
758.289337	42.492719
758.707132	42.536602
759.124899	42.556466
759.542639	42.558813
759.960350	42.541087
760.378033	42.494655
760.795688	42.417399
761.213314	42.305583
761.630913	42.176280
762.048484	42.010342
762.466026	41.823339
762.883541	41.593008
763.301027	41.344415
763.718485	41.075180
764.135914	40.784877
764.553316	40.478142
764.970689	40.154649
765.388034	39.821192
765.805351	39.474297
766.222639	39.133309
766.639899	38.785732
767.057131	38.437985
767.474334	38.098750
767.891509	37.765029
768.308655	37.447209
768.725773	37.152664
769.142863	36.874321
769.559924	36.618947
769.976957	36.389661
770.393961	36.176398
770.810936	35.990882
771.227883	35.839957
771.644802	35.712468
772.061692	35.619581
772.478553	35.548862
772.895386	35.506553
773.312190	35.495823
773.728965	35.520501
774.145712	35.580375
774.562430	35.656857
774.979119	35.768510
775.395780	35.901346
775.812411	36.069991
776.229014	36.261928
776.645589	36.468734
777.062134	36.684571
777.478651	36.908356
777.895138	37.159292
778.311597	37.407462
778.728027	37.666036
779.144428	37.928758
779.560800	38.186610
779.977143	38.438625
780.393458	38.683153
780.809743	38.913701
781.225999	39.126354
781.642226	39.309778
782.058425	39.476091
782.474594	39.618160
782.890734	39.732893
783.306845	39.830661
783.722926	39.888702
784.138979	39.905742
784.555003	39.896973
784.970997	39.851922
785.386962	39.782984
785.802898	39.673944
786.218805	39.533747
786.634682	39.359105
787.050531	39.156137
787.466349	38.940916
787.882139	38.689835
788.297899	38.430027
788.713630	38.156670
789.129332	37.868667
789.545004	37.579068
789.960647	37.294824
790.376260	37.028187
790.791844	36.754090
791.207399	36.504941
791.622924	36.273283
792.038419	36.055672
792.453885	35.863716
792.869321	35.697746
793.284728	35.560480
793.700106	35.466710
794.115453	35.393625
794.530771	35.348261
794.946060	35.327479
795.361319	35.327687
795.776548	35.351014
796.191747	35.386196
796.606917	35.444380
797.022057	35.518193
797.437167	35.599862
797.852248	35.692378
798.267298	35.792788
798.682319	35.899998
799.097310	36.008650
799.512271	36.106234
799.927203	36.199419
800.342104	36.283559
800.756976	36.352469
801.171818	36.404889
801.586629	36.431417
802.001411	36.438662
802.416163	36.432319
802.830885	36.408768
803.245577	36.365203
803.660238	36.306151
804.074870	36.215200
804.489472	36.105033
804.904043	35.973953
805.318585	35.816362
805.733096	35.642953
806.147577	35.445178
806.562028	35.220423
806.976449	34.976972
807.390840	34.728647
807.805200	34.465009
808.219530	34.197124
808.633830	33.918885
809.048100	33.637047
809.462339	33.351149
809.876548	33.067981
810.290727	32.789256
810.704875	32.501598
811.118993	32.219757
811.533080	31.947502
811.947137	31.673269
812.361164	31.417344
812.775160	31.156925
813.189126	30.912981
813.603061	30.683254
814.016966	30.473853
814.430840	30.287023
814.844684	30.116269
815.258497	29.963861
815.672280	29.834725
816.086032	29.733271
816.499753	29.639195
816.913444	29.590438
817.327104	29.555066
817.740733	29.543627
818.154331	29.575097
818.567899	29.619310
818.981436	29.698160
819.394943	29.807908
819.808418	29.952291
820.221863	30.115200
820.635277	30.300859
821.048660	30.507431
821.462013	30.741723
821.875334	30.989987
822.288625	31.271821
822.701884	31.565130
823.115113	31.872537
823.528311	32.206580
823.941478	32.536319
824.354614	32.882196
824.767718	33.232624
825.180792	33.591673
825.593835	33.957972
826.006847	34.310368
826.419827	34.656823
826.832777	34.982177
827.245695	35.290753
827.658582	35.580311
828.071438	35.845400
828.484263	36.073532
828.897057	36.269624
829.309819	36.458349
829.722551	36.600801
830.135251	36.700894
830.547919	36.774631
830.960557	36.794981
831.373163	36.794734
831.785738	36.752085
832.198281	36.691178
832.610793	36.588120
833.023274	36.490577
833.435723	36.358887
833.848141	36.222365
834.260528	36.077812
834.672883	35.933888
835.085206	35.774545
835.497498	35.622054
835.909758	35.482604
836.321987	35.334708
836.734185	35.216759
837.146350	35.102064
837.558485	35.013362
837.970587	34.933329
838.382658	34.879648
838.794697	34.849511
839.206705	34.837804
839.618681	34.844387
840.030625	34.886008
840.442538	34.954681
840.854418	35.039892
841.266267	35.153740
841.678084	35.293598
842.089870	35.434164
842.501623	35.590283
842.913345	35.785373
843.325035	35.980567
843.736693	36.194507
844.148319	36.421596
844.559913	36.657266
844.971475	36.873717
845.383005	37.114456
845.794504	37.329453
846.205970	37.560578
846.617404	37.782516
847.028806	37.975612
847.440176	38.162705
847.851514	38.325524
848.262820	38.479308
848.674094	38.597033
849.085336	38.704110
849.496546	38.783590
849.907723	38.819660
850.318868	38.839653
850.729981	38.814505
851.141062	38.775975
851.552110	38.690918
851.963127	38.579980
852.374111	38.452770
852.785062	38.287180
853.195982	38.076051
853.606869	37.849504
854.017723	37.607966
854.428546	37.337104
854.839336	37.058696
855.250093	36.760028
855.660818	36.443683
856.071511	36.119426
856.482171	35.786870
856.892799	35.442984
857.303394	35.090827
857.713956	34.745592
858.124486	34.386970
858.534984	34.030883
858.945449	33.666983
859.355881	33.292029
859.766280	32.931001
860.176647	32.581906
860.586982	32.247422
860.997283	31.913392
861.407552	31.598134
861.817789	31.303720
862.227992	31.003594
862.638163	30.756642
863.048301	30.509467
863.458406	30.288775
863.868478	30.088858
864.278518	29.930096
864.688524	29.785137
865.098498	29.673692
865.508439	29.586659
865.918347	29.546875
866.328222	29.519657
866.738064	29.531576
867.147873	29.576324
867.557649	29.644184
867.967392	29.749106
868.377102	29.885429
868.786779	30.049314
869.196423	30.256210
869.606034	30.489029
870.015612	30.762290
870.425156	31.054640
870.834668	31.382308
871.244146	31.735581
871.653591	32.110948
872.063003	32.518921
872.472382	32.943374
872.881728	33.373058
873.291040	33.822408
873.700319	34.261935
874.109564	34.717175
874.518777	35.168252
874.927956	35.639061
875.337102	36.081159
875.746214	36.522984
876.155293	36.956048
876.564338	37.350108
876.973350	37.723041
877.382329	38.089939
877.791274	38.422493
878.200186	38.726175
878.609064	38.983197
879.017909	39.232903
879.426720	39.424513
879.835497	39.575587
880.244241	39.694912
880.652952	39.784958
881.061629	39.842321
881.470272	39.859640
881.878881	39.838483
882.287457	39.797092
882.695999	39.707237
883.104507	39.611667
883.512982	39.477478
883.921423	39.319722
884.329830	39.157328
884.738203	38.977120
885.146543	38.798525
885.554849	38.604571
885.963120	38.377796
886.371358	38.192880
886.779563	37.980932
887.187733	37.783515
887.595869	37.588705
888.003971	37.405265
888.412040	37.239714
888.820074	37.067472
889.228074	36.929036
889.636041	36.799690
890.043973	36.705283
890.451871	36.611352
890.859736	36.531949
891.267566	36.480069
891.675362	36.436165
892.083124	36.403322
892.490851	36.395408
892.898545	36.399255
893.306204	36.411243
893.713829	36.417663
894.121420	36.456645
894.528977	36.481480
894.936499	36.510796
895.343987	36.561684
895.751441	36.591271
896.158860	36.623580
896.566246	36.648101
896.973596	36.644612
897.380913	36.638394
897.788195	36.612556
898.195442	36.568009
898.602655	36.547231
899.009834	36.498588
899.416978	36.445376
899.824088	36.359866
900.231163	36.275684
900.638204	36.176211
901.045210	36.039512
901.452181	35.902441
901.859118	35.738550
902.266021	35.569067
902.672888	35.384264
903.079721	35.213267
903.486520	35.018859
903.893283	34.809678
904.300012	34.593565
904.706707	34.375056
905.113366	34.147924
905.519991	33.925087
905.926581	33.689786
906.333136	33.449627
906.739656	33.219097
907.146142	33.001436
907.552592	32.770530
907.959008	32.546271
908.365389	32.337112
908.771735	32.127639
909.178046	31.952422
909.584322	31.804554
909.990563	31.648213
910.396769	31.495523
910.802940	31.361407
911.209076	31.220689
911.615177	31.072454
912.021243	30.961050
912.427274	30.864102
912.833270	30.760195
913.239231	30.662292
913.645156	30.597273
914.051046	30.531294
914.456902	30.482977
914.862721	30.429806
915.268506	30.384687
915.674256	30.328254
916.079970	30.301626
916.485649	30.281859
916.891292	30.270033
917.296901	30.277867
917.702474	30.272643
918.108011	30.273522
918.513514	30.286735
918.918980	30.317073
919.324412	30.329374
919.729808	30.363263
920.135169	30.400451
920.540494	30.433812
920.945783	30.455384
921.351037	30.495063
921.756256	30.539370
922.161439	30.556050
922.566586	30.615103
922.971698	30.661677
923.376775	30.714393
923.781815	30.795226
924.186820	30.844152
924.591790	30.900198
924.996723	30.954562
925.401621	31.024952
925.806484	31.082326
926.211310	31.131166
926.616101	31.211128
927.020856	31.279200
927.425575	31.348671
927.830259	31.394189
928.234906	31.440018
928.639518	31.472958
929.044094	31.519053
929.448634	31.549671
929.853138	31.567518
930.257606	31.588147
930.662038	31.616139
931.066434	31.631889
931.470795	31.640834
931.875119	31.657821
932.279407	31.651827
932.683659	31.652932
933.087875	31.661805
933.492055	31.696811
933.896199	31.714400
934.300307	31.701318
934.704379	31.708307
935.108414	31.685313
935.512414	31.686271
935.916377	31.677978
936.320304	31.646295
936.724195	31.638852
937.128049	31.608712
937.531867	31.572232
937.935649	31.498846
938.339395	31.445228
938.743104	31.373062
939.146777	31.297977
939.550414	31.217057
939.954014	31.134702
940.357578	31.045595
940.761105	30.963220
941.164596	30.857233
941.568050	30.766375
941.971468	30.667171
942.374850	30.550885
942.778195	30.440584
943.181503	30.320051
943.584775	30.212869
943.988010	30.085673
944.391209	29.935868
944.794371	29.818298
945.197496	29.665409
945.600585	29.480741
946.003637	29.310180
946.406653	29.145692
946.809632	28.961498
947.212574	28.818435
947.615479	28.643137
948.018347	28.442053
948.421179	28.266577
948.823974	28.085864
949.226732	27.933101
949.629453	27.771222
950.032138	27.605270
950.434785	27.449015
950.837396	27.309526
951.239969	27.183414
951.642506	27.032454
952.045006	26.907337
952.447469	26.778186
952.849895	26.641634
953.252283	26.528823
953.654635	26.437477
954.056950	26.331034
954.459227	26.246636
954.861468	26.179563
955.263671	26.092289
955.665838	26.023136
956.067967	25.953474
956.470059	25.904726
956.872114	25.860231
957.274131	25.807491
957.676112	25.795707
958.078055	25.799543
958.479961	25.762210
958.881829	25.719290
959.283661	25.708958
959.685455	25.684848
960.087211	25.702109
960.488931	25.727378
960.890613	25.735821
961.292257	25.715357
961.693864	25.717206
962.095434	25.710553
962.496966	25.726918
962.898461	25.743171
963.299918	25.751825
963.701338	25.761208
964.102720	25.766074
964.504065	25.742500
964.905372	25.737884
965.306641	25.747636
965.707873	25.750082
966.109068	25.784221
966.510224	25.798558
966.911343	25.819094
967.312425	25.812499
967.713468	25.847647
968.114474	25.814372
968.515442	25.788083
968.916373	25.777306
969.317265	25.758072
969.718120	25.692864
970.118937	25.669976
970.519716	25.629670
970.920458	25.656414
971.321161	25.658806
971.721827	25.644962
972.122454	25.613088
972.523044	25.564551
972.923596	25.506708
973.324110	25.469137
973.724585	25.485063
974.125023	25.453460
974.525423	25.441866
974.925785	25.443962
975.326108	25.449169
975.726394	25.417755
976.126642	25.355258
976.526851	25.335457
976.927022	25.305391
977.327155	25.301254
977.727250	25.235389
978.127307	25.175714
978.527325	25.094938
978.927306	25.027858
979.327248	24.933696
979.727151	24.854918
980.127017	24.799128
980.526844	24.743840
980.926633	24.643569
981.326383	24.568169
981.726095	24.519516
982.125769	24.502221
982.525404	24.391893
982.925001	24.285920
983.324560	24.167583
983.724079	24.040361
984.123561	23.980353
984.523004	23.889018
984.922408	23.797500
985.321774	23.749278
985.721102	23.606511
986.120390	23.470148
986.519641	23.423092
986.918852	23.289796
987.318025	23.130077
987.717159	22.928094
988.116255	22.796708
988.515312	22.799875
988.914330	22.737610
989.313310	22.689218
989.712250	22.604504
990.111152	22.598252
990.510015	22.576403
990.908840	22.561719
991.307625	22.456959
991.706372	22.396907
992.105080	22.440951
992.503749	22.432346
992.902379	22.456883
993.300970	22.552847
993.699522	22.552350
994.098035	22.552714
994.496510	22.608025
994.894945	22.707953
995.293341	22.840162
995.691698	22.915073
996.090016	23.067095
996.488296	23.095569
996.886535	23.325789
997.284736	23.419049
997.682898	23.425801
998.081021	23.616441
998.479104	23.696526
998.877148	23.821376
999.275153	24.008402
999.673119	24.117692
1000.071046	24.402607
1000.468933	24.665184
1000.866781	24.647161
1001.264590	24.808546
1001.662359	24.862930
1002.060089	25.026859
1002.457780	25.143179
1002.855431	25.354760
1003.253043	25.582624
1003.650615	25.893511
1004.048148	26.234910
1004.445642	26.351306
1004.843096	26.483753
1005.240511	26.706771
1005.637886	26.827430
1006.035221	27.296443
1006.432517	27.670324
1006.829774	27.913006
1007.226991	28.200843
1007.624168	28.594210
1008.021306	28.841964
1008.418404	29.084813
1008.815462	29.566789
1009.212481	29.695569
1009.609460	30.188855
1010.006399	30.636586
1010.403298	30.993058
1010.800158	31.575488
1011.196978	32.038784
1011.593758	32.343323
1011.990498	33.111013
1012.387199	33.550877
1012.783860	34.133380
1013.180480	34.629230
1013.577061	34.917688
1013.973602	35.672365
1014.370103	36.324814
1014.766564	36.927878
1015.162985	37.279708
1015.559366	37.482658
1015.955708	37.798031
1016.352009	37.929258
1016.748270	38.415410
1017.144491	38.805395
1017.540671	39.280237
1017.936812	39.950130
1018.332913	39.946660
1018.728973	40.168192
1019.124994	40.704114
1019.520974	41.227324
1019.916914	41.408751
1020.312814	42.061006
