Time1=100ms:Average1=5:Objective=10X:Aperture=1: (11/28/2018 11:08:54 AM)
11/28/2018 11:08:54 AM
Reflectance
10X
Ap#: 1
Avg1: 5.000000
Avg2: 0.000000
Int.Time1:100.000000

350.166136	71.482391
350.601937	71.604938
351.037728	72.102229
351.473509	71.557117
351.909281	71.811907
352.345042	72.465538
352.780794	72.325947
353.216536	72.708954
353.652267	72.607174
354.087989	72.557446
354.523701	72.362295
354.959403	72.109560
355.395095	72.568557
355.830777	72.797036
356.266449	73.055850
356.702110	73.623853
357.137762	74.272317
357.573404	74.195269
358.009035	74.247551
358.444656	74.444345
358.880268	74.761097
359.315869	74.815342
359.751459	75.037916
360.187040	74.910746
360.622610	75.040186
361.058170	75.503446
361.493720	75.463128
361.929260	75.609538
362.364789	76.192603
362.800308	76.119270
363.235816	76.078466
363.671314	75.986141
364.106802	75.706165
364.542279	75.768070
364.977746	76.031957
365.413203	75.664422
365.848649	75.797024
366.284084	75.783324
366.719509	75.754892
367.154924	76.012433
367.590328	75.708322
368.025721	76.010280
368.461104	76.264419
368.896477	75.838334
369.331838	75.451105
369.767189	75.775907
370.202530	75.256287
370.637859	75.241610
371.073178	75.583026
371.508486	75.364342
371.943784	75.301990
372.379071	75.499566
372.814347	75.191438
373.249612	75.248215
373.684866	75.492246
374.120110	75.358789
374.555343	75.461190
374.990565	75.616151
375.425776	75.668589
375.860976	75.303044
376.296165	75.420021
376.731343	75.365619
377.166511	75.253763
377.601667	75.869622
378.036812	75.660361
378.471946	75.300261
378.907070	75.549546
379.342182	74.845719
379.777283	75.026087
380.212373	74.653620
380.647452	74.615783
381.082520	74.974218
381.517576	74.726882
381.952622	74.834152
382.387656	74.729928
382.822679	74.976221
383.257691	74.811672
383.692692	75.260146
384.127681	74.967586
384.562659	74.799067
384.997626	74.546867
385.432581	74.419006
385.867525	74.196606
386.302458	74.413591
386.737379	74.207134
387.172289	73.976358
387.607188	73.892175
388.042075	73.716685
388.476951	73.902272
388.911815	73.447574
389.346668	73.381904
389.781509	73.274187
390.216338	73.301217
390.651157	73.023374
391.085963	72.799126
391.520758	72.952477
391.955541	73.120901
392.390313	73.107269
392.825073	73.426338
393.259821	73.451772
393.694558	73.439987
394.129283	73.002088
394.563996	73.004499
394.998698	72.814729
395.433388	72.679242
395.868066	73.022279
396.302732	72.936928
396.737386	72.788977
397.172029	72.120200
397.606659	71.972178
398.041278	71.286177
398.475885	71.114643
398.910480	70.734010
399.345063	70.246259
399.779634	69.645052
400.214194	68.845661
400.648741	67.780077
401.083276	66.700339
401.517799	65.039513
401.952310	63.334461
402.386809	61.453716
402.821296	59.633773
403.255771	57.614668
403.690234	55.416146
404.124684	53.219504
404.559123	50.999647
404.993549	48.622557
405.427963	46.642564
405.862365	44.687667
406.296754	42.842375
406.731131	40.940984
407.165496	39.482222
407.599849	38.114729
408.034190	36.533623
408.468518	35.281030
408.902833	34.097643
409.337137	32.982280
409.771428	31.874318
410.205706	31.012964
410.639973	30.264717
411.074226	29.501282
411.508467	28.919299
411.942696	28.415778
412.376912	28.019625
412.811116	27.672158
413.245307	27.407566
413.679486	27.232575
414.113652	27.070442
414.547805	26.909985
414.981946	26.893537
415.416074	26.811503
415.850190	26.797325
416.284293	26.729741
416.718383	26.702583
417.152460	26.806054
417.586525	26.925516
418.020577	27.035580
418.454616	27.174600
418.888643	27.311549
419.322656	27.428629
419.756657	27.513757
420.190645	27.600679
420.624620	27.613622
421.058582	27.660976
421.492531	27.696047
421.926468	27.809282
422.360391	27.952225
422.794301	28.114729
423.228199	28.338947
423.662083	28.581746
424.095955	28.891236
424.529813	29.203829
424.963658	29.527172
425.397491	29.778678
425.831310	30.010780
426.265116	30.236648
426.698909	30.445810
427.132689	30.667562
427.566455	30.892326
428.000209	31.155559
428.433949	31.404578
428.867676	31.718882
429.301389	31.992550
429.735090	32.286792
430.168777	32.537794
430.602451	32.713219
431.036111	32.807468
431.469759	32.920460
431.903392	32.986809
432.337013	33.014114
432.770620	33.098308
433.204213	33.242141
433.637794	33.402519
434.071360	33.643528
434.504914	33.898397
434.938453	34.228650
435.371979	34.518838
435.805492	34.827259
436.238991	35.097090
436.672477	35.388797
437.105949	35.650311
437.539407	35.827947
437.972852	35.977492
438.406283	36.096232
438.839700	36.246542
439.273104	36.426796
439.706494	36.627684
440.139871	36.847592
440.573233	37.042160
441.006582	37.269044
441.439917	37.457947
441.873238	37.572955
442.306546	37.633350
442.739839	37.668441
443.173119	37.651076
443.606385	37.619165
444.039636	37.578844
444.472874	37.565808
444.906099	37.569441
445.339309	37.611152
445.772505	37.707454
446.205687	37.806640
446.638855	37.904249
447.072009	38.013913
447.505149	38.128845
447.938275	38.247784
448.371387	38.303597
448.804485	38.350984
449.237569	38.343894
449.670638	38.328453
450.103694	38.204211
450.536735	38.064653
450.969762	37.951914
451.402774	37.848539
451.835773	37.758882
452.268757	37.693578
452.701727	37.617906
453.134683	37.537282
453.567624	37.442960
454.000551	37.346417
454.433464	37.199206
454.866362	36.991152
455.299246	36.776965
455.732116	36.549801
456.164971	36.322414
456.597811	36.079832
457.030638	35.852648
457.463449	35.635639
457.896246	35.443963
458.329029	35.233333
458.761797	35.025237
459.194551	34.813231
459.627290	34.594071
460.060014	34.389842
460.492724	34.207758
460.925419	34.019626
461.358099	33.810203
461.790765	33.613811
462.223416	33.412693
462.656052	33.203662
463.088674	33.005911
463.521281	32.839949
463.953873	32.650264
464.386450	32.463971
464.819012	32.309667
465.251560	32.166282
465.684093	32.051489
466.116611	31.978472
466.549114	31.922521
466.981602	31.899090
467.414075	31.915162
467.846533	31.955588
468.278977	32.037232
468.711405	32.128992
469.143818	32.232877
469.576216	32.338617
470.008600	32.483075
470.440968	32.620695
470.873321	32.779130
471.305659	32.955140
471.737982	33.172710
472.170289	33.399837
472.602582	33.656148
473.034859	33.936437
473.467122	34.247385
473.899369	34.596075
474.331600	34.988670
474.763817	35.419551
475.196018	35.908035
475.628204	36.439597
476.060375	37.035654
476.492530	37.648430
476.924670	38.262803
477.356795	38.894617
477.788904	39.512636
478.220998	40.134355
478.653076	40.738995
479.085139	41.329058
479.517186	41.924580
479.949219	42.541207
480.381235	43.179353
480.813236	43.829139
481.245221	44.514819
481.677191	45.240447
482.109146	45.989637
482.541084	46.740369
482.973008	47.480562
483.404915	48.178031
483.836807	48.855756
484.268683	49.482863
484.700544	50.045069
485.132388	50.545316
485.564217	51.002536
485.996031	51.421520
486.427828	51.794919
486.859610	52.133889
487.291376	52.425003
487.723126	52.705959
488.154860	52.980107
488.586579	53.244962
489.018281	53.526009
489.449968	53.816299
489.881639	54.153727
490.313293	54.537126
490.744932	54.965731
491.176555	55.422306
491.608162	55.852218
492.039753	56.241460
492.471328	56.587684
492.902886	56.842910
493.334429	57.026041
493.765956	57.118599
494.197466	57.162729
494.628960	57.178601
495.060439	57.179634
495.491901	57.198383
495.923347	57.260256
496.354776	57.368708
496.786190	57.542211
497.217587	57.768754
497.648968	58.014265
498.080332	58.285347
498.511681	58.538338
498.943013	58.791268
499.374328	58.992262
499.805628	59.156761
500.236911	59.257822
500.668177	59.332719
501.099427	59.320123
501.530661	59.279558
501.961878	59.200778
502.393079	59.065565
502.824264	58.922684
503.255431	58.729538
503.686583	58.557840
504.117717	58.395935
504.548835	58.251713
504.979937	58.182750
505.411022	58.191670
505.842090	58.296150
506.273142	58.469825
506.704177	58.730792
507.135195	59.055737
507.566197	59.396685
507.997182	59.745192
508.428150	60.061766
508.859102	60.335435
509.290036	60.546369
509.720954	60.712568
510.151855	60.830374
510.582739	60.902254
511.013607	60.987741
511.444457	61.094006
511.875291	61.275336
512.306107	61.523186
512.736907	61.888546
513.167690	62.328022
513.598456	62.849743
514.029205	63.423634
514.459936	64.055552
514.890651	64.681656
515.321349	65.295347
515.752030	65.912138
516.182693	66.472715
516.613340	66.985989
517.043969	67.412959
517.474582	67.781103
517.905177	68.083184
518.335755	68.291981
518.766315	68.470001
519.196859	68.564091
519.627385	68.615153
520.057894	68.611334
520.488386	68.589409
520.918860	68.583140
521.349318	68.586219
521.779757	68.627922
522.210180	68.729413
522.640585	68.916268
523.070973	69.169684
523.501343	69.488069
523.931696	69.874985
524.362031	70.290888
524.792349	70.735868
525.222650	71.127974
525.652933	71.460140
526.083198	71.721846
526.513446	71.902444
526.943677	72.018003
527.373890	72.057821
527.804085	72.044335
528.234262	72.027708
528.664422	72.006857
529.094565	71.982928
529.524689	72.008601
529.954796	72.101005
530.384885	72.255790
530.814957	72.472935
531.245011	72.742690
531.675047	73.045513
532.105065	73.339932
532.535065	73.637183
532.965048	73.908785
533.395013	74.135697
533.824959	74.288735
534.254888	74.367127
534.684799	74.317188
535.114693	74.194823
535.544568	73.982813
535.974425	73.658598
536.404264	73.251841
536.834086	72.759420
537.263889	72.191117
537.693674	71.556431
538.123441	70.875855
538.553190	70.198916
538.982921	69.543658
539.412634	68.892738
539.842329	68.307393
540.272006	67.780351
540.701664	67.314053
541.131304	66.928516
541.560926	66.589648
541.990530	66.332786
542.420116	66.134310
542.849683	65.957344
543.279232	65.818590
543.708763	65.679764
544.138275	65.553919
544.567769	65.417889
544.997245	65.281025
545.426702	65.149522
545.856141	65.016705
546.285562	64.898918
546.714964	64.791776
547.144347	64.725340
547.573713	64.692984
548.003059	64.753056
548.432387	64.870915
548.861697	65.043498
549.290988	65.273331
549.720260	65.576554
550.149514	65.948614
550.578750	66.387233
551.007966	66.879787
551.437164	67.391262
551.866344	67.925579
552.295504	68.419306
552.724646	68.880003
553.153769	69.285479
553.582874	69.600695
554.011960	69.822357
554.441027	69.923756
554.870075	69.923149
555.299104	69.791908
555.728115	69.539567
556.157106	69.188109
556.586079	68.725729
557.015033	68.195013
557.443968	67.587972
557.872884	66.953156
558.301781	66.290048
558.730659	65.606816
559.159518	64.917429
559.588358	64.256465
560.017180	63.618373
560.445982	63.016628
560.874765	62.460206
561.303528	61.915919
561.732273	61.403118
562.160999	60.916528
562.589705	60.467659
563.018393	60.033761
563.447061	59.617743
563.875710	59.211392
564.304340	58.833461
564.732950	58.489315
565.161542	58.148633
565.590114	57.861352
566.018666	57.604465
566.447200	57.386200
566.875714	57.216278
567.304208	57.098905
567.732684	57.026318
568.161140	57.012500
568.589576	57.059195
569.017993	57.181028
569.446391	57.361000
569.874769	57.614754
570.303128	57.933410
570.731467	58.319914
571.159787	58.769216
571.588087	59.277603
572.016368	59.838457
572.444629	60.450426
572.872870	61.083711
573.301092	61.732473
573.729294	62.355695
574.157476	62.952078
574.585639	63.494012
575.013782	63.970794
575.441906	64.366562
575.870009	64.654032
576.298093	64.848757
576.726157	64.943702
577.154202	64.944067
577.582226	64.843525
578.010231	64.672033
578.438216	64.433097
578.866181	64.135875
579.294126	63.802501
579.722051	63.434620
580.149957	63.043564
580.577842	62.643558
581.005707	62.232625
581.433553	61.801783
581.861378	61.365849
582.289184	60.907894
582.716969	60.445250
583.144734	59.971092
583.572479	59.482850
584.000205	58.977786
584.427910	58.446339
584.855594	57.910050
585.283259	57.375849
585.710904	56.832588
586.138528	56.283635
586.566132	55.749957
586.993716	55.242691
587.421280	54.755021
587.848823	54.301831
588.276346	53.880008
588.703849	53.494844
589.131332	53.161977
589.558794	52.866880
589.986236	52.628039
590.413657	52.434086
590.841058	52.291549
591.268438	52.188930
591.695799	52.158420
592.123138	52.182989
592.550458	52.273953
592.977756	52.431977
593.405034	52.650956
593.832292	52.948478
594.259529	53.316435
594.686746	53.765155
595.113942	54.264945
595.541117	54.826594
595.968272	55.424392
596.395406	56.049089
596.822519	56.687575
597.249612	57.326097
597.676684	57.957064
598.103735	58.543702
598.530766	59.085063
598.957775	59.563041
599.384764	59.991852
599.811733	60.351094
600.238680	60.643708
600.665606	60.870351
601.092512	61.041205
601.519397	61.153562
601.946261	61.228169
602.373104	61.252303
602.799926	61.227065
603.226727	61.151870
603.653507	61.048720
604.080266	60.914241
604.507004	60.730877
604.933721	60.498300
605.360417	60.219251
605.787092	59.885320
606.213746	59.493038
606.640379	59.050792
607.066991	58.538473
607.493581	57.982234
607.920150	57.359978
608.346699	56.696123
608.773226	55.995356
609.199731	55.272255
609.626216	54.533578
610.052679	53.794330
610.479121	53.064761
610.905542	52.357659
611.331941	51.697669
611.758319	51.066915
612.184676	50.505260
612.611011	49.986873
613.037325	49.534119
613.463617	49.150050
613.889888	48.810615
614.316138	48.542130
614.742366	48.339696
615.168573	48.200840
615.594758	48.125096
616.020921	48.132839
616.447063	48.219250
616.873184	48.376441
617.299283	48.607774
617.725360	48.939015
618.151416	49.353480
618.577450	49.853371
619.003462	50.443825
619.429453	51.118423
619.855422	51.869735
620.281369	52.699018
620.707295	53.594707
621.133199	54.548456
621.559081	55.536606
621.984941	56.539554
622.410779	57.548246
622.836596	58.540221
623.262391	59.504717
623.688163	60.425477
624.113914	61.287636
624.539644	62.087422
624.965351	62.825058
625.391036	63.471595
625.816699	64.036009
626.242340	64.522253
626.667960	64.918679
627.093557	65.257237
627.519132	65.521388
627.944685	65.723276
628.370216	65.869226
628.795725	65.966679
629.221212	65.996711
629.646677	65.969466
630.072119	65.876948
630.497540	65.735606
630.922938	65.519373
631.348314	65.241884
631.773668	64.892193
632.198999	64.474663
632.624308	64.013094
633.049595	63.506623
633.474860	62.949121
633.900102	62.379996
634.325322	61.797585
634.750520	61.215959
635.175695	60.660811
635.600848	60.140064
636.025978	59.676677
636.451086	59.271290
636.876171	58.932124
637.301234	58.668803
637.726275	58.466715
638.151293	58.334662
638.576288	58.297644
639.001261	58.320207
639.426211	58.410777
639.851139	58.548499
640.276044	58.744178
640.700927	58.979422
641.125787	59.235889
641.550624	59.500819
641.975438	59.777011
642.400230	60.051288
642.824999	60.312878
643.249745	60.573922
643.674469	60.823744
644.099169	61.064581
644.523847	61.298555
644.948502	61.532885
645.373135	61.768687
645.797744	61.981556
646.222330	62.174445
646.646894	62.361725
647.071435	62.511454
647.495953	62.626086
647.920447	62.724697
648.344919	62.778929
648.769368	62.792721
649.193794	62.744650
649.618197	62.655038
650.042576	62.507502
650.466933	62.317132
650.891267	62.074484
651.315577	61.793148
651.739864	61.449725
652.164129	61.087931
652.588370	60.687643
653.012587	60.266145
653.436782	59.812774
653.860953	59.360331
654.285102	58.908581
654.709226	58.457492
655.133328	58.019168
655.557406	57.606964
655.981461	57.219709
656.405493	56.866286
656.829501	56.533267
657.253486	56.227066
657.677448	55.944134
658.101386	55.695687
658.525301	55.464895
658.949192	55.262358
659.373060	55.099886
659.796904	54.949863
660.220725	54.828792
660.644522	54.740164
661.068296	54.663700
661.492046	54.625696
661.915772	54.624756
662.339475	54.673654
662.763154	54.758357
663.186810	54.897902
663.610442	55.089045
664.034050	55.348199
664.457635	55.672055
664.881196	56.065356
665.304733	56.525468
665.728247	57.064027
666.151736	57.669021
666.575202	58.351396
666.998644	59.088308
667.422062	59.878384
667.845457	60.708237
668.268827	61.571177
668.692174	62.462461
669.115496	63.365948
669.538795	64.244471
669.962070	65.112576
670.385321	65.953132
670.808547	66.745731
671.231750	67.470770
671.654929	68.137069
672.078084	68.733186
672.501214	69.246391
672.924321	69.698385
673.347404	70.073653
673.770462	70.386838
674.193496	70.651646
674.616506	70.864422
675.039492	71.012682
675.462454	71.104209
675.885391	71.147353
676.308305	71.155352
676.731194	71.130860
677.154058	71.070114
677.576899	70.974189
677.999715	70.845669
678.422507	70.682112
678.845274	70.491218
679.268017	70.288567
679.690736	70.025843
680.113430	69.747993
680.536100	69.440612
680.958746	69.123561
681.381367	68.784744
681.803963	68.434041
682.226535	68.072670
682.649083	67.726509
683.071605	67.387301
683.494104	67.054087
683.916578	66.760629
684.339027	66.488962
684.761451	66.244357
685.183851	66.035580
685.606227	65.845120
686.028577	65.679376
686.450903	65.538847
686.873204	65.415694
687.295481	65.297185
687.717733	65.179369
688.139959	65.077459
688.562162	64.963464
688.984339	64.850626
689.406492	64.723190
689.828619	64.573757
690.250722	64.399868
690.672800	64.194788
691.094853	63.969132
691.516881	63.728549
691.938884	63.447441
692.360863	63.133682
692.782816	62.823637
693.204744	62.483153
693.626647	62.146178
694.048526	61.804895
694.470379	61.478281
694.892207	61.159400
695.314010	60.866967
695.735788	60.604700
696.157540	60.368681
696.579268	60.174038
697.000970	60.012973
697.422648	59.902625
697.844300	59.832834
698.265926	59.805099
698.687528	59.824842
699.109104	59.887690
699.530655	59.978957
699.952181	60.106132
700.373681	60.255441
700.795156	60.426673
701.216606	60.605647
701.638030	60.801772
702.059429	61.001548
702.480803	61.191151
702.902151	61.363798
703.323473	61.514448
703.744770	61.654349
704.166042	61.772388
704.587288	61.849727
705.008509	61.923347
705.429704	61.967503
705.850873	61.983739
706.272017	61.982561
706.693135	61.961216
707.114228	61.917576
707.535295	61.858152
707.956336	61.792310
708.377352	61.704366
708.798342	61.592608
709.219306	61.476631
709.640245	61.367048
710.061157	61.242314
710.482044	61.124800
710.902905	61.009597
711.323741	60.892546
711.744550	60.794132
712.165334	60.691680
712.586092	60.619830
713.006823	60.554228
713.427529	60.516402
713.848209	60.500193
714.268863	60.504627
714.689492	60.532132
715.110094	60.591487
715.530670	60.676950
715.951220	60.799958
716.371744	60.954859
716.792242	61.129942
717.212714	61.317115
717.633159	61.535759
718.053579	61.754295
718.473973	61.993918
718.894340	62.244109
719.314681	62.489647
719.734996	62.725508
720.155285	62.970453
720.575547	63.198959
720.995784	63.402100
721.415994	63.588094
721.836177	63.753672
722.256335	63.881142
722.676466	63.957781
723.096570	64.001292
723.516649	63.992004
723.936701	63.943355
724.356726	63.842329
724.776725	63.684129
725.196698	63.484472
725.616644	63.226962
726.036564	62.932748
726.456457	62.598634
726.876324	62.227181
727.296164	61.830356
727.715977	61.406879
728.135764	60.957121
728.555525	60.495744
728.975258	60.026614
729.394966	59.562460
729.814646	59.120273
730.234300	58.707417
730.653927	58.309236
731.073527	57.936049
731.493101	57.608146
731.912648	57.307126
732.332168	57.058354
732.751661	56.857446
733.171128	56.689154
733.590568	56.561909
734.009980	56.477871
734.429366	56.429603
734.848726	56.417019
735.268058	56.434490
735.687363	56.478613
736.106641	56.542140
736.525893	56.621594
736.945117	56.710819
737.364314	56.810580
737.783485	56.914821
738.202628	57.010113
738.621744	57.101392
739.040834	57.174963
739.459896	57.228405
739.878931	57.253685
740.297939	57.261311
740.716919	57.249915
741.135873	57.204480
741.554799	57.135527
741.973698	57.033722
742.392570	56.909361
742.811415	56.738941
743.230232	56.538329
743.649022	56.321219
744.067785	56.085294
744.486521	55.813737
744.905229	55.531894
745.323909	55.231557
745.742563	54.919617
746.161189	54.599253
746.579787	54.286943
746.998358	53.974958
747.416902	53.667220
747.835418	53.372329
748.253907	53.097478
748.672368	52.844085
749.090802	52.619235
749.509208	52.430657
749.927586	52.271526
750.345937	52.143398
750.764261	52.053315
751.182556	52.010175
751.600824	52.007744
752.019065	52.044365
752.437277	52.125423
752.855462	52.261560
753.273620	52.414742
753.691749	52.604809
754.109851	52.829497
754.527925	53.078879
754.945971	53.350141
755.363989	53.645725
755.781980	53.949468
756.199943	54.265188
756.617877	54.579041
757.035784	54.883251
757.453663	55.177867
757.871514	55.458552
758.289337	55.708120
758.707132	55.916553
759.124899	56.079071
759.542639	56.189369
759.960350	56.258719
760.378033	56.283098
760.795688	56.248494
761.213314	56.165368
761.630913	56.030719
762.048484	55.837805
762.466026	55.589353
762.883541	55.290460
763.301027	54.960428
763.718485	54.603883
764.135914	54.200016
764.553316	53.768793
764.970689	53.320861
765.388034	52.854554
765.805351	52.374631
766.222639	51.898227
766.639899	51.415019
767.057131	50.945577
767.474334	50.481997
767.891509	50.043641
768.308655	49.613971
768.725773	49.218520
769.142863	48.850452
769.559924	48.505054
769.976957	48.195385
770.393961	47.917839
770.810936	47.673106
771.227883	47.473787
771.644802	47.301927
772.061692	47.188342
772.478553	47.099429
772.895386	47.044027
773.312190	47.035500
773.728965	47.076659
774.145712	47.141646
774.562430	47.232980
774.979119	47.363976
775.395780	47.516120
775.812411	47.697037
776.229014	47.897326
776.645589	48.098358
777.062134	48.325047
777.478651	48.545718
777.895138	48.780824
778.311597	49.013609
778.728027	49.243930
779.144428	49.475433
779.560800	49.699622
779.977143	49.902908
780.393458	50.093690
780.809743	50.262168
781.225999	50.402188
781.642226	50.531643
782.058425	50.621674
782.474594	50.694115
782.890734	50.731206
783.306845	50.742234
783.722926	50.720334
784.138979	50.652186
784.555003	50.556730
784.970997	50.428386
785.386962	50.270939
785.802898	50.075687
786.218805	49.851231
786.634682	49.589391
787.050531	49.303561
787.466349	49.021194
787.882139	48.708573
788.297899	48.391512
788.713630	48.079011
789.129332	47.760744
789.545004	47.448325
789.960647	47.143908
790.376260	46.874500
790.791844	46.614614
791.207399	46.379195
791.622924	46.170160
792.038419	45.973655
792.453885	45.814327
792.869321	45.687234
793.284728	45.606184
793.700106	45.555493
794.115453	45.542696
794.530771	45.549370
794.946060	45.589843
795.361319	45.652839
795.776548	45.747137
796.191747	45.854941
796.606917	45.981177
797.022057	46.121968
797.437167	46.280629
797.852248	46.442935
798.267298	46.624123
798.682319	46.819377
799.097310	46.995005
799.512271	47.171676
799.927203	47.370304
800.342104	47.541404
800.756976	47.703058
801.171818	47.863299
801.586629	48.002453
802.001411	48.126308
802.416163	48.243803
802.830885	48.347714
803.245577	48.433088
803.660238	48.496732
804.074870	48.549505
804.489472	48.586258
804.904043	48.628209
805.318585	48.648080
805.733096	48.657168
806.147577	48.645457
806.562028	48.627115
806.976449	48.587226
807.390840	48.538377
807.805200	48.477813
808.219530	48.412371
808.633830	48.327771
809.048100	48.246914
809.462339	48.159899
809.876548	48.071208
810.290727	47.997816
810.704875	47.901381
811.118993	47.802761
811.533080	47.702442
811.947137	47.613041
812.361164	47.516751
812.775160	47.410708
813.189126	47.324051
813.603061	47.238303
814.016966	47.147406
814.430840	47.069293
814.844684	47.001969
815.258497	46.945065
815.672280	46.906777
816.086032	46.868098
816.499753	46.852011
816.913444	46.870076
817.327104	46.902355
817.740733	46.944966
818.154331	47.024851
818.567899	47.121080
818.981436	47.246355
819.394943	47.392024
819.808418	47.591162
820.221863	47.809785
820.635277	48.064566
821.048660	48.339173
821.462013	48.643154
821.875334	48.960375
822.288625	49.299758
822.701884	49.656891
823.115113	50.015457
823.528311	50.418764
823.941478	50.808807
824.354614	51.195448
824.767718	51.584276
825.180792	51.961194
825.593835	52.329374
826.006847	52.658081
826.419827	52.982211
826.832777	53.272798
827.245695	53.515048
827.658582	53.719115
828.071438	53.859605
828.484263	53.940212
828.897057	53.977109
829.309819	53.955399
829.722551	53.857418
830.135251	53.682824
830.547919	53.439018
830.960557	53.123409
831.373163	52.748485
831.785738	52.303258
832.198281	51.822678
832.610793	51.270351
833.023274	50.695309
833.435723	50.055170
833.848141	49.397387
834.260528	48.719757
834.672883	48.028458
835.085206	47.340696
835.497498	46.661553
835.909758	46.000022
836.321987	45.327886
836.734185	44.703290
837.146350	44.104404
837.558485	43.537235
837.970587	43.020540
838.382658	42.536390
838.794697	42.100878
839.206705	41.703421
839.618681	41.344652
840.030625	41.052400
840.442538	40.803323
840.854418	40.609417
841.266267	40.481181
841.678084	40.389388
842.089870	40.360322
842.501623	40.348389
842.913345	40.400468
843.325035	40.496231
843.736693	40.627599
844.148319	40.795923
844.559913	40.996160
844.971475	41.214717
845.383005	41.457724
845.794504	41.704287
846.205970	41.989106
846.617404	42.283489
847.028806	42.583525
847.440176	42.884983
847.851514	43.171828
848.262820	43.445135
848.674094	43.693344
849.085336	43.923605
849.496546	44.139604
849.907723	44.311768
850.318868	44.448403
850.729981	44.539352
851.141062	44.600481
851.552110	44.625702
851.963127	44.600684
852.374111	44.563616
852.785062	44.458319
853.195982	44.318182
853.606869	44.151202
854.017723	43.943209
854.428546	43.694778
854.839336	43.398933
855.250093	43.100976
855.660818	42.777275
856.071511	42.433467
856.482171	42.071815
856.892799	41.694935
857.303394	41.299795
857.713956	40.885997
858.124486	40.497560
858.534984	40.099639
858.945449	39.689678
859.355881	39.271582
859.766280	38.866741
860.176647	38.469558
860.586982	38.078719
860.997283	37.710051
861.407552	37.339090
861.817789	37.012611
862.227992	36.676216
862.638163	36.376484
863.048301	36.113199
863.458406	35.875633
863.868478	35.668978
864.278518	35.488230
864.688524	35.347012
865.098498	35.228668
865.508439	35.140783
865.918347	35.091971
866.328222	35.063809
866.738064	35.059762
867.147873	35.097693
867.557649	35.143179
867.967392	35.231341
868.377102	35.322974
868.786779	35.431485
869.196423	35.563373
869.606034	35.706546
870.015612	35.885873
870.425156	36.062030
870.834668	36.225444
871.244146	36.403680
871.653591	36.589784
872.063003	36.784937
872.472382	36.969545
872.881728	37.162554
873.291040	37.339097
873.700319	37.507426
874.109564	37.682275
874.518777	37.823043
874.927956	37.957767
875.337102	38.072219
875.746214	38.157755
876.155293	38.241565
876.564338	38.277099
876.973350	38.302939
877.382329	38.295601
877.791274	38.273318
878.200186	38.231767
878.609064	38.144979
879.017909	38.041576
879.426720	37.894105
879.835497	37.723485
880.244241	37.545919
880.652952	37.332193
881.061629	37.113179
881.470272	36.874014
881.878881	36.602901
882.287457	36.311436
882.695999	35.999758
883.104507	35.694693
883.512982	35.397209
883.921423	35.082468
884.329830	34.781719
884.738203	34.476489
885.146543	34.176298
885.554849	33.873555
885.963120	33.585670
886.371358	33.322140
886.779563	33.043289
887.187733	32.777656
887.595869	32.515347
888.003971	32.276841
888.412040	32.063811
888.820074	31.834637
889.228074	31.638639
889.636041	31.449562
890.043973	31.269713
890.451871	31.091903
890.859736	30.932234
891.267566	30.784368
891.675362	30.635935
892.083124	30.487552
892.490851	30.359249
892.898545	30.221384
893.306204	30.090715
893.713829	29.941395
894.121420	29.820546
894.528977	29.691324
894.936499	29.597728
895.343987	29.487701
895.751441	29.380775
896.158860	29.259133
896.566246	29.137280
896.973596	28.995148
897.380913	28.865601
897.788195	28.721941
898.195442	28.573734
898.602655	28.428279
899.009834	28.271298
899.416978	28.118677
899.824088	27.975293
900.231163	27.851672
900.638204	27.713875
901.045210	27.569247
901.452181	27.446316
901.859118	27.317373
902.266021	27.169703
902.672888	27.052599
903.079721	26.934255
903.486520	26.806630
903.893283	26.696400
904.300012	26.587264
904.706707	26.513856
905.113366	26.419112
905.519991	26.356212
905.926581	26.271780
906.333136	26.199046
906.739656	26.118558
907.146142	26.065429
907.552592	26.000581
907.959008	25.935184
908.365389	25.873150
908.771735	25.827866
909.178046	25.792480
909.584322	25.755388
909.990563	25.687139
910.396769	25.647359
910.802940	25.605090
911.209076	25.553166
911.615177	25.503271
912.021243	25.467482
912.427274	25.421851
912.833270	25.356198
913.239231	25.291456
913.645156	25.224958
914.051046	25.151130
914.456902	25.082581
914.862721	25.011446
915.268506	24.939707
915.674256	24.871414
916.079970	24.807763
916.485649	24.749852
916.891292	24.691729
917.296901	24.616722
917.702474	24.560909
918.108011	24.487856
918.513514	24.440015
918.918980	24.390751
919.324412	24.355239
919.729808	24.316826
920.135169	24.275244
920.540494	24.256826
920.945783	24.237647
921.351037	24.194077
921.756256	24.178134
922.161439	24.174462
922.566586	24.209698
922.971698	24.221816
923.376775	24.243406
923.781815	24.292071
924.186820	24.314002
924.591790	24.354996
924.996723	24.392079
925.401621	24.455067
925.806484	24.508091
926.211310	24.556982
926.616101	24.609595
927.020856	24.669021
927.425575	24.718602
927.830259	24.757760
928.234906	24.787212
928.639518	24.827351
929.044094	24.850407
929.448634	24.883947
929.853138	24.917417
930.257606	24.931168
930.662038	24.966026
931.066434	24.972486
931.470795	24.998057
931.875119	24.996690
932.279407	24.999716
932.683659	24.980040
933.087875	24.951093
933.492055	24.925529
933.896199	24.897357
934.300307	24.828547
934.704379	24.763319
935.108414	24.664262
935.512414	24.568174
935.916377	24.458386
936.320304	24.348867
936.724195	24.225452
937.128049	24.076077
937.531867	23.924357
937.935649	23.742877
938.339395	23.568147
938.743104	23.399712
939.146777	23.222477
939.550414	23.024793
939.954014	22.854854
940.357578	22.654940
940.761105	22.467255
941.164596	22.256931
941.568050	22.051151
941.971468	21.820471
942.374850	21.595890
942.778195	21.382417
943.181503	21.159208
943.584775	20.956064
943.988010	20.729979
944.391209	20.519458
944.794371	20.316017
945.197496	20.116211
945.600585	19.910740
946.003637	19.699435
946.406653	19.496470
946.809632	19.301606
947.212574	19.114362
947.615479	18.931882
948.018347	18.763739
948.421179	18.593392
948.823974	18.393064
949.226732	18.229403
949.629453	18.078937
950.032138	17.944884
950.434785	17.800393
950.837396	17.691964
951.239969	17.554261
951.642506	17.403159
952.045006	17.291014
952.447469	17.159561
952.849895	17.061773
953.252283	16.942314
953.654635	16.829171
954.056950	16.731954
954.459227	16.634379
954.861468	16.559217
955.263671	16.485334
955.665838	16.400645
956.067967	16.313306
956.470059	16.219581
956.872114	16.139210
957.274131	16.038594
957.676112	15.970767
958.078055	15.916910
958.479961	15.849951
958.881829	15.778751
959.283661	15.747885
959.685455	15.690692
960.087211	15.652099
960.488931	15.608238
960.890613	15.561410
961.292257	15.530432
961.693864	15.535941
962.095434	15.492709
962.496966	15.429725
962.898461	15.416619
963.299918	15.397289
963.701338	15.390127
964.102720	15.418950
964.504065	15.388964
964.905372	15.361497
965.306641	15.354474
965.707873	15.383289
966.109068	15.423389
966.510224	15.449884
966.911343	15.482363
967.312425	15.524529
967.713468	15.551589
968.114474	15.555609
968.515442	15.584925
968.916373	15.677979
969.317265	15.719218
969.718120	15.778284
970.118937	15.831201
970.519716	15.884999
970.920458	15.947915
971.321161	16.072050
971.721827	16.136342
972.122454	16.200065
972.523044	16.308032
972.923596	16.401166
973.324110	16.522299
973.724585	16.625875
974.125023	16.690640
974.525423	16.781069
974.925785	16.944151
975.326108	17.056422
975.726394	17.132699
976.126642	17.214654
976.526851	17.282129
976.927022	17.409459
977.327155	17.551612
977.727250	17.644543
978.127307	17.724291
978.527325	17.838908
978.927306	17.947256
979.327248	18.064459
979.727151	18.118672
980.127017	18.224159
980.526844	18.338215
980.926633	18.435654
981.326383	18.485698
981.726095	18.590062
982.125769	18.679597
982.525404	18.743818
982.925001	18.801373
983.324560	18.878240
983.724079	18.925845
984.123561	19.020703
984.523004	19.137427
984.922408	19.152815
985.321774	19.253611
985.721102	19.285487
986.120390	19.330833
986.519641	19.408476
986.918852	19.506581
987.318025	19.524345
987.717159	19.535393
988.116255	19.641836
988.515312	19.757359
988.914330	19.850514
989.313310	19.899990
989.712250	19.941234
990.111152	20.113302
990.510015	20.236692
990.908840	20.318362
991.307625	20.435770
991.706372	20.525129
992.105080	20.622171
992.503749	20.699527
992.902379	20.799339
993.300970	20.963033
993.699522	21.051496
994.098035	21.157417
994.496510	21.333936
994.894945	21.446293
995.293341	21.651513
995.691698	21.839890
996.090016	21.966700
996.488296	22.037435
996.886535	22.250242
997.284736	22.458890
997.682898	22.474064
998.081021	22.701003
998.479104	22.963838
998.877148	23.164101
999.275153	23.318918
999.673119	23.439674
1000.071046	23.725044
1000.468933	23.876449
1000.866781	23.987623
1001.264590	24.284129
1001.662359	24.499304
1002.060089	24.846831
1002.457780	24.938425
1002.855431	25.115221
1003.253043	25.287428
1003.650615	25.441584
1004.048148	25.628059
1004.445642	25.870248
1004.843096	26.237742
1005.240511	26.486430
1005.637886	26.680303
1006.035221	27.053939
1006.432517	27.417713
1006.829774	27.661468
1007.226991	28.121270
1007.624168	28.455185
1008.021306	28.779118
1008.418404	29.200877
1008.815462	29.663743
1009.212481	30.012685
1009.609460	30.416783
1010.006399	31.072472
1010.403298	31.426321
1010.800158	31.808070
1011.196978	32.330709
1011.593758	32.890152
1011.990498	33.607100
1012.387199	33.993530
1012.783860	34.454567
1013.180480	35.151188
1013.577061	35.307588
1013.973602	36.189079
1014.370103	36.692727
1014.766564	37.274619
1015.162985	37.755027
1015.559366	38.091568
1015.955708	38.522256
1016.352009	39.045330
1016.748270	39.651099
1017.144491	39.913295
1017.540671	40.527553
1017.936812	40.990893
1018.332913	41.338126
1018.728973	41.676973
1019.124994	42.101793
1019.520974	42.488662
1019.916914	42.887635
1020.312814	43.264633
