Time1=100ms:Average1=5:Objective=10X:Aperture=1: (11/21/2018 2:22:57 PM)
11/21/2018 2:22:57 PM
Reflectance
10X
Ap#: 1
Avg1: 5.000000
Avg2: 0.000000
Int.Time1:100.000000

350.166136	83.709902
350.601937	83.625168
351.037728	83.344770
351.473509	83.627451
351.909281	83.300609
352.345042	83.647675
352.780794	83.209950
353.216536	83.183302
353.652267	83.561101
354.087989	83.328383
354.523701	83.109443
354.959403	82.992794
355.395095	82.932621
355.830777	82.808789
356.266449	81.969966
356.702110	81.758220
357.137762	81.543591
357.573404	81.530472
358.009035	81.777256
358.444656	82.017845
358.880268	82.010737
359.315869	81.949600
359.751459	81.726633
360.187040	81.942411
360.622610	82.414131
361.058170	82.421260
361.493720	82.574414
361.929260	82.435620
362.364789	82.289609
362.800308	81.810985
363.235816	81.867482
363.671314	81.869159
364.106802	82.431635
364.542279	82.448014
364.977746	82.448537
365.413203	82.820081
365.848649	82.555380
366.284084	82.613434
366.719509	82.495804
367.154924	82.334354
367.590328	81.965921
368.025721	81.874630
368.461104	81.871172
368.896477	81.909946
369.331838	81.273408
369.767189	82.110046
370.202530	82.247993
370.637859	82.270916
371.073178	82.395138
371.508486	82.170234
371.943784	81.545491
372.379071	81.177990
372.814347	81.065030
373.249612	81.571655
373.684866	81.227079
374.120110	81.313580
374.555343	81.371870
374.990565	81.133571
375.425776	80.921248
375.860976	81.108586
376.296165	81.529354
376.731343	81.883771
377.166511	82.118417
377.601667	81.616560
378.036812	81.560284
378.471946	81.326370
378.907070	80.970113
379.342182	80.744795
379.777283	81.248163
380.212373	81.141512
380.647452	81.424513
381.082520	81.639248
381.517576	81.931951
381.952622	81.111648
382.387656	80.855553
382.822679	81.011688
383.257691	80.626074
383.692692	80.443894
384.127681	80.678256
384.562659	80.542129
384.997626	80.793576
385.432581	81.418023
385.867525	81.606464
386.302458	81.210282
386.737379	81.723908
387.172289	82.225598
387.607188	82.037178
388.042075	81.773539
388.476951	81.888501
388.911815	81.819037
389.346668	81.688689
389.781509	81.632270
390.216338	81.509222
390.651157	81.461042
391.085963	81.547396
391.520758	81.894855
391.955541	81.844434
392.390313	81.619705
392.825073	81.678465
393.259821	81.643632
393.694558	81.715450
394.129283	81.822387
394.563996	82.084027
394.998698	82.020389
395.433388	82.616002
395.868066	82.794793
396.302732	82.600579
396.737386	82.399479
397.172029	82.367150
397.606659	82.000369
398.041278	81.098457
398.475885	80.536790
398.910480	79.629212
399.345063	78.916440
399.779634	78.270237
400.214194	76.415866
400.648741	74.914884
401.083276	73.546930
401.517799	72.035964
401.952310	70.144512
402.386809	68.391860
402.821296	66.391582
403.255771	64.177664
403.690234	61.874202
404.124684	59.320771
404.559123	56.741096
404.993549	54.336672
405.427963	51.673549
405.862365	49.364178
406.296754	47.028545
406.731131	44.672564
407.165496	42.713820
407.599849	40.695736
408.034190	38.826895
408.468518	37.281724
408.902833	35.785246
409.337137	34.363682
409.771428	33.225008
410.205706	32.042829
410.639973	31.078170
411.074226	30.140416
411.508467	29.390080
411.942696	28.710236
412.376912	28.160243
412.811116	27.757443
413.245307	27.287103
413.679486	26.920122
414.113652	26.535729
414.547805	26.236795
414.981946	25.965322
415.416074	25.733524
415.850190	25.549456
416.284293	25.409919
416.718383	25.349121
417.152460	25.270535
417.586525	25.282775
418.020577	25.333027
418.454616	25.314073
418.888643	25.353969
419.322656	25.464023
419.756657	25.644624
420.190645	25.797087
420.624620	25.926206
421.058582	26.092130
421.492531	26.278078
421.926468	26.429014
422.360391	26.594688
422.794301	26.782565
423.228199	26.942095
423.662083	27.154156
424.095955	27.355362
424.529813	27.562696
424.963658	27.814013
425.397491	28.038976
425.831310	28.257128
426.265116	28.479726
426.698909	28.700148
427.132689	28.952631
427.566455	29.227274
428.000209	29.506190
428.433949	29.791767
428.867676	30.064301
429.301389	30.368862
429.735090	30.663780
430.168777	30.917109
430.602451	31.137753
431.036111	31.371361
431.469759	31.578623
431.903392	31.812709
432.337013	32.079785
432.770620	32.305144
433.204213	32.511363
433.637794	32.734880
434.071360	32.933560
434.504914	33.136736
434.938453	33.354853
435.371979	33.601454
435.805492	33.860390
436.238991	34.125099
436.672477	34.378786
437.105949	34.622692
437.539407	34.853800
437.972852	35.087350
438.406283	35.331633
438.839700	35.583664
439.273104	35.824634
439.706494	36.019966
440.139871	36.259509
440.573233	36.453298
441.006582	36.661002
441.439917	36.832278
441.873238	36.996172
442.306546	37.148007
442.739839	37.284931
443.173119	37.414964
443.606385	37.561643
444.039636	37.728622
444.472874	37.874610
444.906099	38.037892
445.339309	38.222657
445.772505	38.354386
446.205687	38.530700
446.638855	38.689666
447.072009	38.829794
447.505149	39.006573
447.938275	39.153836
448.371387	39.288642
448.804485	39.394085
449.237569	39.492582
449.670638	39.596512
450.103694	39.696657
450.536735	39.782040
450.969762	39.870958
451.402774	39.929644
451.835773	39.975215
452.268757	39.999267
452.701727	40.029230
453.134683	40.094445
453.567624	40.126843
454.000551	40.169156
454.433464	40.188972
454.866362	40.208157
455.299246	40.254258
455.732116	40.300678
456.164971	40.352850
456.597811	40.378736
457.030638	40.400145
457.463449	40.423617
457.896246	40.441274
458.329029	40.437553
458.761797	40.392799
459.194551	40.368843
459.627290	40.312166
460.060014	40.237966
460.492724	40.167117
460.925419	40.087446
461.358099	40.016409
461.790765	39.899758
462.223416	39.793822
462.656052	39.667515
463.088674	39.534619
463.521281	39.390394
463.953873	39.246404
464.386450	39.057931
464.819012	38.892026
465.251560	38.707608
465.684093	38.548607
466.116611	38.386422
466.549114	38.204765
466.981602	38.009646
467.414075	37.813773
467.846533	37.599463
468.278977	37.388034
468.711405	37.144589
469.143818	36.906990
469.576216	36.652125
470.008600	36.392056
470.440968	36.114974
470.873321	35.834594
471.305659	35.528828
471.737982	35.248098
472.170289	34.972344
472.602582	34.669799
473.034859	34.382351
473.467122	34.096832
473.899369	33.822869
474.331600	33.546998
474.763817	33.265321
475.196018	33.014777
475.628204	32.762476
476.060375	32.519310
476.492530	32.285253
476.924670	32.067917
477.356795	31.841657
477.788904	31.663739
478.220998	31.488946
478.653076	31.336229
479.085139	31.174844
479.517186	31.026707
479.949219	30.885114
480.381235	30.776883
480.813236	30.685667
481.245221	30.623073
481.677191	30.570942
482.109146	30.530864
482.541084	30.506727
482.973008	30.477343
483.404915	30.476817
483.836807	30.501842
484.268683	30.538415
484.700544	30.605424
485.132388	30.689008
485.564217	30.771830
485.996031	30.884219
486.427828	31.014275
486.859610	31.166682
487.291376	31.337253
487.723126	31.509511
488.154860	31.696250
488.586579	31.894670
489.018281	32.096775
489.449968	32.312731
489.881639	32.528592
490.313293	32.752829
490.744932	32.995515
491.176555	33.221610
491.608162	33.466184
492.039753	33.710058
492.471328	33.961166
492.902886	34.217970
493.334429	34.478708
493.765956	34.726952
494.197466	34.961699
494.628960	35.191832
495.060439	35.413168
495.491901	35.624984
495.923347	35.822832
496.354776	36.024294
496.786190	36.228397
497.217587	36.413331
497.648968	36.592389
498.080332	36.774755
498.511681	36.924501
498.943013	37.102007
499.374328	37.269628
499.805628	37.425868
500.236911	37.587547
500.668177	37.714591
501.099427	37.843243
501.530661	37.974699
501.961878	38.089185
502.393079	38.207152
502.824264	38.303265
503.255431	38.420092
503.686583	38.510174
504.117717	38.597850
504.548835	38.691713
504.979937	38.754869
505.411022	38.825573
505.842090	38.894770
506.273142	38.948236
506.704177	38.996315
507.135195	39.045336
507.566197	39.089527
507.997182	39.128573
508.428150	39.173549
508.859102	39.223543
509.290036	39.263025
509.720954	39.298313
510.151855	39.331626
510.582739	39.363374
511.013607	39.398886
511.444457	39.427344
511.875291	39.476119
512.306107	39.519575
512.736907	39.572902
513.167690	39.635744
513.598456	39.686284
514.029205	39.772282
514.459936	39.869939
514.890651	39.970603
515.321349	40.077754
515.752030	40.195768
516.182693	40.325283
516.613340	40.439911
517.043969	40.573214
517.474582	40.714713
517.905177	40.870952
518.335755	41.054148
518.766315	41.243361
519.196859	41.463445
519.627385	41.708077
520.057894	41.981651
520.488386	42.275415
520.918860	42.592537
521.349318	42.936585
521.779757	43.288478
522.210180	43.650278
522.640585	44.041416
523.070973	44.437222
523.501343	44.840684
523.931696	45.268258
524.362031	45.703929
524.792349	46.157569
525.222650	46.634211
525.652933	47.126737
526.083198	47.637817
526.513446	48.159120
526.943677	48.722888
527.373890	49.278843
527.804085	49.858364
528.234262	50.455958
528.664422	51.076418
529.094565	51.682647
529.524689	52.310617
529.954796	52.949143
530.384885	53.582553
530.814957	54.231030
531.245011	54.879374
531.675047	55.532653
532.105065	56.204886
532.535065	56.875306
532.965048	57.552329
533.395013	58.233999
533.824959	58.927648
534.254888	59.612081
534.684799	60.324257
535.114693	61.049304
535.544568	61.785665
535.974425	62.524560
536.404264	63.260189
536.834086	63.994125
537.263889	64.708997
537.693674	65.417163
538.123441	66.120312
538.553190	66.788783
538.982921	67.438439
539.412634	68.066763
539.842329	68.668890
540.272006	69.257097
540.701664	69.840719
541.131304	70.384364
541.560926	70.909717
541.990530	71.424456
542.420116	71.957110
542.849683	72.458566
543.279232	72.958016
543.708763	73.464631
544.138275	73.949085
544.567769	74.424275
544.997245	74.871470
545.426702	75.289516
545.856141	75.675604
546.285562	76.056808
546.714964	76.399244
547.144347	76.722335
547.573713	77.037591
548.003059	77.326771
548.432387	77.603023
548.861697	77.880473
549.290988	78.125993
549.720260	78.394441
550.149514	78.646640
550.578750	78.909433
551.007966	79.185845
551.437164	79.453000
551.866344	79.746166
552.295504	80.033198
552.724646	80.309137
553.153769	80.597678
553.582874	80.877360
554.011960	81.129627
554.441027	81.382615
554.870075	81.629084
555.299104	81.855218
555.728115	82.045479
556.157106	82.236152
556.586079	82.397399
557.015033	82.550114
557.443968	82.689414
557.872884	82.826454
558.301781	82.986686
558.730659	83.118554
559.159518	83.277331
559.588358	83.421906
560.017180	83.583948
560.445982	83.741902
560.874765	83.896463
561.303528	84.043066
561.732273	84.196096
562.160999	84.337051
562.589705	84.481237
563.018393	84.608540
563.447061	84.740858
563.875710	84.863020
564.304340	84.975767
564.732950	85.070299
565.161542	85.153641
565.590114	85.250020
566.018666	85.349676
566.447200	85.441239
566.875714	85.536147
567.304208	85.632985
567.732684	85.729559
568.161140	85.828790
568.589576	85.932454
569.017993	86.052270
569.446391	86.186569
569.874769	86.306133
570.303128	86.432792
570.731467	86.556266
571.159787	86.666921
571.588087	86.753166
572.016368	86.855072
572.444629	86.938004
572.872870	87.005790
573.301092	87.071045
573.729294	87.111119
574.157476	87.143440
574.585639	87.184338
575.013782	87.193940
575.441906	87.202306
575.870009	87.217446
576.298093	87.236179
576.726157	87.243832
577.154202	87.260308
577.582226	87.285018
578.010231	87.321423
578.438216	87.367922
578.866181	87.405294
579.294126	87.456518
579.722051	87.516042
580.149957	87.573258
580.577842	87.650534
581.005707	87.727417
581.433553	87.825107
581.861378	87.901260
582.289184	87.991111
582.716969	88.059965
583.144734	88.142094
583.572479	88.242227
584.000205	88.335592
584.427910	88.433108
584.855594	88.545526
585.283259	88.633471
585.710904	88.730026
586.138528	88.841293
586.566132	88.933902
586.993716	89.045492
587.421280	89.148837
587.848823	89.253458
588.276346	89.347270
588.703849	89.447405
589.131332	89.530722
589.558794	89.598614
589.986236	89.650526
590.413657	89.694543
590.841058	89.711984
591.268438	89.728982
591.695799	89.701095
592.123138	89.688264
592.550458	89.655138
592.977756	89.598864
593.405034	89.530745
593.832292	89.444254
594.259529	89.350058
594.686746	89.229836
595.113942	89.129311
595.541117	88.985606
595.968272	88.857767
596.395406	88.721115
596.822519	88.550757
597.249612	88.390093
597.676684	88.223340
598.103735	88.035419
598.530766	87.869150
598.957775	87.686790
599.384764	87.500921
599.811733	87.326927
600.238680	87.125473
600.665606	86.936308
601.092512	86.731279
601.519397	86.545601
601.946261	86.340421
602.373104	86.131503
602.799926	85.937782
603.226727	85.755027
603.653507	85.554418
604.080266	85.346710
604.507004	85.133288
604.933721	84.937203
605.360417	84.713368
605.787092	84.486066
606.213746	84.272113
606.640379	84.042669
607.066991	83.795689
607.493581	83.550599
607.920150	83.298266
608.346699	83.024849
608.773226	82.753397
609.199731	82.450092
609.626216	82.139515
610.052679	81.808572
610.479121	81.453970
610.905542	81.077419
611.331941	80.695663
611.758319	80.294097
612.184676	79.870324
612.611011	79.426374
613.037325	78.951268
613.463617	78.481002
613.889888	77.970156
614.316138	77.443356
614.742366	76.897646
615.168573	76.330494
615.594758	75.747426
616.020921	75.132322
616.447063	74.497521
616.873184	73.855543
617.299283	73.206005
617.725360	72.533427
618.151416	71.854271
618.577450	71.154162
619.003462	70.453918
619.429453	69.733258
619.855422	69.008048
620.281369	68.294553
620.707295	67.553409
621.133199	66.807853
621.559081	66.057402
621.984941	65.303564
622.410779	64.551029
622.836596	63.791221
623.262391	63.021754
623.688163	62.254132
624.113914	61.481803
624.539644	60.696038
624.965351	59.907351
625.391036	59.119546
625.816699	58.321649
626.242340	57.517013
626.667960	56.697360
627.093557	55.894254
627.519132	55.099977
627.944685	54.296181
628.370216	53.493012
628.795725	52.709091
629.221212	51.929627
629.646677	51.165943
630.072119	50.428034
630.497540	49.696277
630.922938	48.989130
631.348314	48.294257
631.773668	47.639561
632.198999	46.997613
632.624308	46.380415
633.049595	45.792189
633.474860	45.233965
633.900102	44.709899
634.325322	44.214018
634.750520	43.752131
635.175695	43.327714
635.600848	42.932868
636.025978	42.577978
636.451086	42.277145
636.876171	41.996483
637.301234	41.756231
637.726275	41.561436
638.151293	41.412539
638.576288	41.302359
639.001261	41.220486
639.426211	41.187289
639.851139	41.192406
640.276044	41.233787
640.700927	41.305471
641.125787	41.420732
641.550624	41.574357
641.975438	41.762726
642.400230	41.985033
642.824999	42.240715
643.249745	42.510742
643.674469	42.820346
644.099169	43.154011
644.523847	43.522700
644.948502	43.906643
645.373135	44.315852
645.797744	44.753372
646.222330	45.208623
646.646894	45.667136
647.071435	46.151872
647.495953	46.644022
647.920447	47.143798
648.344919	47.647146
648.769368	48.150383
649.193794	48.652888
649.618197	49.141957
650.042576	49.632731
650.466933	50.127778
650.891267	50.603680
651.315577	51.060742
651.739864	51.500617
652.164129	51.933596
652.588370	52.342730
653.012587	52.744461
653.436782	53.127864
653.860953	53.489940
654.285102	53.826350
654.709226	54.151685
655.133328	54.440532
655.557406	54.716333
655.981461	54.972168
656.405493	55.212558
656.829501	55.428780
657.253486	55.635697
657.677448	55.811105
658.101386	55.969403
658.525301	56.112368
658.949192	56.232110
659.373060	56.333233
659.796904	56.426341
660.220725	56.494646
660.644522	56.549918
661.068296	56.593368
661.492046	56.625492
661.915772	56.656501
662.339475	56.671768
662.763154	56.684525
663.186810	56.698977
663.610442	56.694172
664.034050	56.698081
664.457635	56.697714
664.881196	56.707131
665.304733	56.721609
665.728247	56.741107
666.151736	56.764736
666.575202	56.793677
666.998644	56.835483
667.422062	56.890112
667.845457	56.946596
668.268827	57.015455
668.692174	57.100594
669.115496	57.180959
669.538795	57.281495
669.962070	57.392386
670.385321	57.513271
670.808547	57.648827
671.231750	57.793578
671.654929	57.942434
672.078084	58.117765
672.501214	58.292481
672.924321	58.489269
673.347404	58.697681
673.770462	58.922657
674.193496	59.150448
674.616506	59.397514
675.039492	59.653366
675.462454	59.925713
675.885391	60.206522
676.308305	60.483522
676.731194	60.768693
677.154058	61.049378
677.576899	61.340083
677.999715	61.625556
678.422507	61.905118
678.845274	62.184672
679.268017	62.458604
679.690736	62.729031
680.113430	62.993786
680.536100	63.262022
680.958746	63.520534
681.381367	63.788563
681.803963	64.036494
682.226535	64.300583
682.649083	64.552177
683.071605	64.812987
683.494104	65.062602
683.916578	65.312900
684.339027	65.569641
684.761451	65.835151
685.183851	66.086366
685.606227	66.357629
686.028577	66.623207
686.450903	66.903038
686.873204	67.183152
687.295481	67.467206
687.717733	67.756320
688.139959	68.041027
688.562162	68.333263
688.984339	68.631329
689.406492	68.949334
689.828619	69.268041
690.250722	69.603635
690.672800	69.929506
691.094853	70.269490
691.516881	70.629090
691.938884	70.993272
692.360863	71.369650
692.782816	71.742036
693.204744	72.112292
693.626647	72.484222
694.048526	72.879658
694.470379	73.256849
694.892207	73.650899
695.314010	74.036006
695.735788	74.435000
696.157540	74.818629
696.579268	75.217519
697.000970	75.607961
697.422648	76.000488
697.844300	76.376373
698.265926	76.761075
698.687528	77.142301
699.109104	77.516415
699.530655	77.872046
699.952181	78.226020
700.373681	78.582286
700.795156	78.926047
701.216606	79.273513
701.638030	79.606372
702.059429	79.917906
702.480803	80.223243
702.902151	80.523474
703.323473	80.807356
703.744770	81.086897
704.166042	81.351740
704.587288	81.597018
705.008509	81.833846
705.429704	82.062781
705.850873	82.289749
706.272017	82.506844
706.693135	82.720822
707.114228	82.913402
707.535295	83.111142
707.956336	83.302608
708.377352	83.491684
708.798342	83.670055
709.219306	83.842655
709.640245	84.007090
710.061157	84.176258
710.482044	84.324953
710.902905	84.494040
711.323741	84.650280
711.744550	84.802985
712.165334	84.964351
712.586092	85.135801
713.006823	85.312166
713.427529	85.500630
713.848209	85.688559
714.268863	85.884899
714.689492	86.079832
715.110094	86.294390
715.530670	86.515297
715.951220	86.749098
716.371744	86.988514
716.792242	87.244898
717.212714	87.503237
717.633159	87.777018
718.053579	88.062619
718.473973	88.348323
718.894340	88.648136
719.314681	88.967643
719.734996	89.278493
720.155285	89.598189
720.575547	89.926168
720.995784	90.252206
721.415994	90.584992
721.836177	90.909725
722.256335	91.241379
722.676466	91.565973
723.096570	91.887138
723.516649	92.217052
723.936701	92.535221
724.356726	92.835444
724.776725	93.128911
725.196698	93.412238
725.616644	93.680973
726.036564	93.930086
726.456457	94.159391
726.876324	94.372923
727.296164	94.573363
727.715977	94.771492
728.135764	94.945160
728.555525	95.103959
728.975258	95.244217
729.394966	95.370650
729.814646	95.472893
730.234300	95.578997
730.653927	95.666160
731.073527	95.726142
731.493101	95.768896
731.912648	95.805956
732.332168	95.826089
732.751661	95.848444
733.171128	95.853699
733.590568	95.843757
734.009980	95.824547
734.429366	95.799229
734.848726	95.770771
735.268058	95.751806
735.687363	95.726747
736.106641	95.701106
736.525893	95.663926
736.945117	95.623877
737.364314	95.609074
737.783485	95.592455
738.202628	95.567222
738.621744	95.552893
739.040834	95.537432
739.459896	95.532661
739.878931	95.545065
740.297939	95.543392
740.716919	95.560026
741.135873	95.594224
741.554799	95.627737
741.973698	95.681822
742.392570	95.737975
742.811415	95.818883
743.230232	95.891275
743.649022	95.991077
744.067785	96.108468
744.486521	96.245145
744.905229	96.389285
745.323909	96.525504
745.742563	96.679194
746.161189	96.839835
746.579787	97.023683
746.998358	97.220434
747.416902	97.423365
747.835418	97.633230
748.253907	97.851913
748.672368	98.074624
749.090802	98.297949
749.509208	98.527538
749.927586	98.769009
750.345937	99.009618
750.764261	99.257739
751.182556	99.520092
751.600824	99.770826
752.019065	100.040705
752.437277	100.304390
752.855462	100.566908
753.273620	100.845638
753.691749	101.118458
754.109851	101.392795
754.527925	101.661466
754.945971	101.917861
755.363989	102.183901
755.781980	102.449714
756.199943	102.705291
756.617877	102.939617
757.035784	103.179327
757.453663	103.416178
757.871514	103.635163
758.289337	103.874316
758.707132	104.076242
759.124899	104.277538
759.542639	104.460113
759.960350	104.616458
760.378033	104.774621
760.795688	104.908692
761.213314	105.022940
761.630913	105.116265
762.048484	105.207898
762.466026	105.287074
762.883541	105.336281
763.301027	105.354361
763.718485	105.351095
764.135914	105.330529
764.553316	105.313789
764.970689	105.280317
765.388034	105.224671
765.805351	105.162300
766.222639	105.073157
766.639899	104.956934
767.057131	104.839502
767.474334	104.714977
767.891509	104.592833
768.308655	104.450237
768.725773	104.286365
769.142863	104.148125
769.559924	104.010069
769.976957	103.853255
770.393961	103.692442
770.810936	103.529124
771.227883	103.349745
771.644802	103.197188
772.061692	103.029033
772.478553	102.856851
772.895386	102.710744
773.312190	102.536075
773.728965	102.386316
774.145712	102.232250
774.562430	102.093505
774.979119	101.955665
775.395780	101.811044
775.812411	101.684730
776.229014	101.568921
776.645589	101.463528
777.062134	101.383259
777.478651	101.286331
777.895138	101.191588
778.311597	101.120173
778.728027	101.047040
779.144428	101.014056
779.560800	100.981122
779.977143	100.947343
780.393458	100.930714
780.809743	100.917947
781.225999	100.925216
781.642226	100.954643
782.058425	100.969883
782.474594	100.990834
782.890734	101.036106
783.306845	101.086674
783.722926	101.145744
784.138979	101.209715
784.555003	101.267738
784.970997	101.351225
785.386962	101.443323
785.802898	101.508650
786.218805	101.602276
786.634682	101.686552
787.050531	101.768595
787.466349	101.844502
787.882139	101.905266
788.297899	101.987423
788.713630	102.050516
789.129332	102.095162
789.545004	102.157905
789.960647	102.191023
790.376260	102.247380
790.791844	102.285625
791.207399	102.298913
791.622924	102.329690
792.038419	102.330287
792.453885	102.335832
792.869321	102.334972
793.284728	102.314717
793.700106	102.290834
794.115453	102.276168
794.530771	102.236330
794.946060	102.201476
795.361319	102.129127
795.776548	102.066605
796.191747	101.983664
796.606917	101.886192
797.022057	101.794013
797.437167	101.684622
797.852248	101.565786
798.267298	101.438028
798.682319	101.323905
799.097310	101.198295
799.512271	101.066819
799.927203	100.928302
800.342104	100.789882
800.756976	100.643809
801.171818	100.480067
801.586629	100.330534
802.001411	100.197538
802.416163	100.039354
802.830885	99.907160
803.245577	99.752137
803.660238	99.607950
804.074870	99.477068
804.489472	99.325438
804.904043	99.184364
805.318585	99.045177
805.733096	98.913961
806.147577	98.786212
806.562028	98.654929
806.976449	98.516969
807.390840	98.392807
807.805200	98.264688
808.219530	98.172962
808.633830	98.065437
809.048100	97.973929
809.462339	97.882592
809.876548	97.801716
810.290727	97.736286
810.704875	97.679192
811.118993	97.607135
811.533080	97.531382
811.947137	97.460078
812.361164	97.390442
812.775160	97.313725
813.189126	97.235447
813.603061	97.162267
814.016966	97.104829
814.430840	97.023496
814.844684	96.948295
815.258497	96.863388
815.672280	96.756490
816.086032	96.655548
816.499753	96.548245
816.913444	96.429722
817.327104	96.316586
817.740733	96.190491
818.154331	96.064841
818.567899	95.921466
818.981436	95.776002
819.394943	95.621896
819.808418	95.465613
820.221863	95.290779
820.635277	95.118608
821.048660	94.914949
821.462013	94.682440
821.875334	94.431615
822.288625	94.177008
822.701884	93.910547
823.115113	93.640190
823.528311	93.323854
823.941478	93.012774
824.354614	92.687014
824.767718	92.333001
825.180792	91.943713
825.593835	91.536717
826.006847	91.136765
826.419827	90.704886
826.832777	90.243582
827.245695	89.782273
827.658582	89.284723
828.071438	88.789266
828.484263	88.249186
828.897057	87.706645
829.309819	87.153878
829.722551	86.601379
830.135251	86.024928
830.547919	85.422962
830.960557	84.814927
831.373163	84.214567
831.785738	83.588208
832.198281	82.956797
832.610793	82.319845
833.023274	81.685466
833.435723	81.026902
833.848141	80.401700
834.260528	79.796367
834.672883	79.189038
835.085206	78.588881
835.497498	77.966608
835.909758	77.358773
836.321987	76.777971
836.734185	76.203319
837.146350	75.633868
837.558485	75.076875
837.970587	74.537955
838.382658	74.020805
838.794697	73.497347
839.206705	72.998406
839.618681	72.516517
840.030625	72.057894
840.442538	71.607057
840.854418	71.173629
841.266267	70.780111
841.678084	70.402509
842.089870	70.026290
842.501623	69.672671
842.913345	69.336873
843.325035	69.032471
843.736693	68.748989
844.148319	68.462987
844.559913	68.231101
844.971475	68.015722
845.383005	67.807989
845.794504	67.621234
846.205970	67.485598
846.617404	67.344649
847.028806	67.224241
847.440176	67.137569
847.851514	67.065217
848.262820	67.029894
848.674094	66.986738
849.085336	66.964551
849.496546	66.963025
849.907723	66.987529
850.318868	67.011906
850.729981	67.042899
851.141062	67.104041
851.552110	67.163649
851.963127	67.231865
852.374111	67.300081
852.785062	67.357267
853.195982	67.448365
853.606869	67.520894
854.017723	67.618654
854.428546	67.686706
854.839336	67.780367
855.250093	67.860153
855.660818	67.928563
856.071511	68.011642
856.482171	68.066050
856.892799	68.140111
857.303394	68.211717
857.713956	68.256218
858.124486	68.322626
858.534984	68.349842
858.945449	68.371936
859.355881	68.392977
859.766280	68.398592
860.176647	68.372520
860.586982	68.362669
860.997283	68.322982
861.407552	68.287885
861.817789	68.232970
862.227992	68.158756
862.638163	68.064372
863.048301	67.991288
863.458406	67.890547
863.868478	67.764892
864.278518	67.645270
864.688524	67.514204
865.098498	67.368903
865.508439	67.208761
865.918347	67.024694
866.328222	66.859789
866.738064	66.663208
867.147873	66.473498
867.557649	66.270184
867.967392	66.069701
868.377102	65.868393
868.786779	65.665419
869.196423	65.480699
869.606034	65.256788
870.015612	65.033685
870.425156	64.828752
870.834668	64.591357
871.244146	64.419102
871.653591	64.209037
872.063003	63.994876
872.472382	63.803123
872.881728	63.636827
873.291040	63.449902
873.700319	63.278141
874.109564	63.101013
874.518777	62.951223
874.927956	62.805812
875.337102	62.671143
875.746214	62.513964
876.155293	62.404994
876.564338	62.301846
876.973350	62.184729
877.382329	62.109833
877.791274	62.060001
878.200186	62.008863
878.609064	61.967946
879.017909	61.906061
879.426720	61.868001
879.835497	61.842914
880.244241	61.816819
880.652952	61.781863
881.061629	61.759368
881.470272	61.726694
881.878881	61.710809
882.287457	61.694777
882.695999	61.642682
883.104507	61.633713
883.512982	61.606373
883.921423	61.575681
884.329830	61.548331
884.738203	61.521764
885.146543	61.483460
885.554849	61.422725
885.963120	61.367554
886.371358	61.322095
886.779563	61.262562
887.187733	61.167324
887.595869	61.088422
888.003971	60.994354
888.412040	60.917474
888.820074	60.819347
889.228074	60.718817
889.636041	60.613777
890.043973	60.480571
890.451871	60.334971
890.859736	60.199737
891.267566	60.071593
891.675362	59.948273
892.083124	59.794221
892.490851	59.632846
892.898545	59.473801
893.306204	59.322982
893.713829	59.172102
894.121420	59.031922
894.528977	58.858496
894.936499	58.701568
895.343987	58.550466
895.751441	58.335973
896.158860	58.168501
896.566246	57.975488
896.973596	57.793472
897.380913	57.597682
897.788195	57.379511
898.195442	57.186272
898.602655	56.990202
899.009834	56.793024
899.416978	56.588773
899.824088	56.410972
900.231163	56.217882
900.638204	56.036609
901.045210	55.819669
901.452181	55.612743
901.859118	55.397770
902.266021	55.204394
902.672888	54.993790
903.079721	54.792484
903.486520	54.592029
903.893283	54.365371
904.300012	54.150287
904.706707	53.960247
905.113366	53.774059
905.519991	53.581085
905.926581	53.389838
906.333136	53.179440
906.739656	52.941340
907.146142	52.719035
907.552592	52.486210
907.959008	52.278079
908.365389	52.088832
908.771735	51.902253
909.178046	51.705244
909.584322	51.505106
909.990563	51.313048
910.396769	51.145477
910.802940	50.964071
911.209076	50.792020
911.615177	50.600183
912.021243	50.406029
912.427274	50.206913
912.833270	50.028854
913.239231	49.810028
913.645156	49.614720
914.051046	49.425086
914.456902	49.251330
914.862721	49.079992
915.268506	48.915540
915.674256	48.721591
916.079970	48.529701
916.485649	48.366638
916.891292	48.175628
917.296901	47.971995
917.702474	47.767789
918.108011	47.576630
918.513514	47.362698
918.918980	47.169456
919.324412	46.994655
919.729808	46.810305
920.135169	46.662970
920.540494	46.508188
920.945783	46.342438
921.351037	46.172596
921.756256	46.010097
922.161439	45.855024
922.566586	45.705159
922.971698	45.544342
923.376775	45.427381
923.781815	45.285849
924.186820	45.159950
924.591790	45.040114
924.996723	44.944939
925.401621	44.814928
925.806484	44.759027
926.211310	44.692729
926.616101	44.630305
927.020856	44.551966
927.425575	44.482837
927.830259	44.401697
928.234906	44.357857
928.639518	44.325285
929.044094	44.278161
929.448634	44.264609
929.853138	44.250483
930.257606	44.228690
930.662038	44.201719
931.066434	44.179878
931.470795	44.157275
931.875119	44.134787
932.279407	44.157185
932.683659	44.126592
933.087875	44.084105
933.492055	44.083386
933.896199	44.024201
934.300307	43.980812
934.704379	43.932909
935.108414	43.900669
935.512414	43.872886
935.916377	43.776867
936.320304	43.700830
936.724195	43.638694
937.128049	43.590180
937.531867	43.518907
937.935649	43.489909
938.339395	43.412411
938.743104	43.328332
939.146777	43.269630
939.550414	43.199110
939.954014	43.116383
940.357578	43.031435
940.761105	42.962096
941.164596	42.881775
941.568050	42.795817
941.971468	42.689816
942.374850	42.622906
942.778195	42.544297
943.181503	42.464626
943.584775	42.436492
943.988010	42.358516
944.391209	42.308954
944.794371	42.236003
945.197496	42.215226
945.600585	42.220578
946.003637	42.182855
946.406653	42.178627
946.809632	42.184252
947.212574	42.190792
947.615479	42.158415
948.018347	42.152594
948.421179	42.163280
948.823974	42.203455
949.226732	42.213985
949.629453	42.218355
950.032138	42.230946
950.434785	42.249043
950.837396	42.237663
951.239969	42.249524
951.642506	42.211995
952.045006	42.200165
952.447469	42.158922
952.849895	42.160268
953.252283	42.128360
953.654635	42.100980
954.056950	42.061940
954.459227	42.028610
954.861468	41.956153
955.263671	41.910507
955.665838	41.858765
956.067967	41.772119
956.470059	41.718899
956.872114	41.610714
957.274131	41.483229
957.676112	41.345021
958.078055	41.206195
958.479961	41.067513
958.881829	40.947562
959.283661	40.801444
959.685455	40.595647
960.087211	40.457937
960.488931	40.259387
960.890613	40.082954
961.292257	39.895292
961.693864	39.706394
962.095434	39.489228
962.496966	39.274803
962.898461	39.022858
963.299918	38.787406
963.701338	38.557462
964.102720	38.330067
964.504065	38.120077
964.905372	37.888920
965.306641	37.652203
965.707873	37.391012
966.109068	37.177874
966.510224	36.960988
966.911343	36.763863
967.312425	36.516173
967.713468	36.276600
968.114474	36.077078
968.515442	35.814313
968.916373	35.623476
969.317265	35.456277
969.718120	35.286361
970.118937	35.066795
970.519716	34.855359
970.920458	34.651797
971.321161	34.486878
971.721827	34.272243
972.122454	34.147382
972.523044	33.963685
972.923596	33.819998
973.324110	33.686756
973.724585	33.496497
974.125023	33.367376
974.525423	33.255578
974.925785	33.116677
975.326108	33.019143
975.726394	32.942293
976.126642	32.847718
976.526851	32.729036
976.927022	32.574371
977.327155	32.490378
977.727250	32.377111
978.127307	32.288695
978.527325	32.203933
978.927306	32.077614
979.327248	32.009628
979.727151	31.979954
980.127017	31.947713
980.526844	31.856989
980.926633	31.819402
981.326383	31.813747
981.726095	31.746945
982.125769	31.692812
982.525404	31.695081
982.925001	31.660863
983.324560	31.681834
983.724079	31.581358
984.123561	31.592936
984.523004	31.629299
984.922408	31.653970
985.321774	31.678913
985.721102	31.592153
986.120390	31.607106
986.519641	31.549092
986.918852	31.493200
987.318025	31.516526
987.717159	31.414504
988.116255	31.380463
988.515312	31.382432
988.914330	31.345568
989.313310	31.388796
989.712250	31.371620
990.111152	31.513663
990.510015	31.615983
990.908840	31.630651
991.307625	31.734365
991.706372	31.659288
992.105080	31.685841
992.503749	31.644346
992.902379	31.696460
993.300970	31.813833
993.699522	31.801467
994.098035	31.799535
994.496510	31.861089
994.894945	31.892383
995.293341	31.836462
995.691698	31.928620
996.090016	32.025881
996.488296	32.037386
996.886535	31.955569
997.284736	31.946967
997.682898	32.041272
998.081021	32.187708
998.479104	32.266310
998.877148	32.328317
999.275153	32.540430
999.673119	32.598212
1000.071046	32.810374
1000.468933	32.949082
1000.866781	33.042213
1001.264590	33.217785
1001.662359	33.238511
1002.060089	33.420405
1002.457780	33.271940
1002.855431	33.258886
1003.253043	33.197727
1003.650615	33.423599
1004.048148	33.672397
1004.445642	33.742694
1004.843096	33.852943
1005.240511	34.007165
1005.637886	33.821211
1006.035221	33.894777
1006.432517	34.058716
1006.829774	34.179584
1007.226991	34.334334
1007.624168	34.616536
1008.021306	34.495445
1008.418404	34.659936
1008.815462	34.939033
1009.212481	35.070773
1009.609460	35.571919
1010.006399	35.958575
1010.403298	36.294059
1010.800158	36.773917
1011.196978	36.958317
1011.593758	37.039773
1011.990498	37.464146
1012.387199	37.594622
1012.783860	37.872447
1013.180480	37.991492
1013.577061	38.256335
1013.973602	38.782273
1014.370103	38.984141
1014.766564	39.407830
1015.162985	39.781282
1015.559366	40.100376
1015.955708	39.966363
1016.352009	40.058232
1016.748270	40.260645
1017.144491	40.673108
1017.540671	40.879937
1017.936812	41.764706
1018.332913	42.113343
1018.728973	42.477026
1019.124994	42.840358
1019.520974	43.279314
1019.916914	43.859649
1020.312814	44.557248
