Time1=100ms:Average1=5:Objective=10X:Aperture=1: (11/21/2018 2:23:49 PM)
11/21/2018 2:23:49 PM
Reflectance
10X
Ap#: 1
Avg1: 5.000000
Avg2: 0.000000
Int.Time1:100.000000

350.166136	88.191539
350.601937	88.329806
351.037728	88.167827
351.473509	88.196078
351.909281	87.855881
352.345042	87.518515
352.780794	87.730727
353.216536	87.713918
353.652267	87.700535
354.087989	87.298287
354.523701	87.327143
354.959403	87.079262
355.395095	86.949639
355.830777	87.084323
356.266449	86.652835
356.702110	86.414649
357.137762	86.270472
357.573404	86.331570
358.009035	85.877863
358.444656	86.028042
358.880268	85.885798
359.315869	86.051963
359.751459	86.018772
360.187040	86.041972
360.622610	86.133464
361.058170	85.856299
361.493720	85.314410
361.929260	85.659524
362.364789	85.806006
362.800308	85.630876
363.235816	85.259318
363.671314	85.204132
364.106802	85.008853
364.542279	84.704839
364.977746	84.536590
365.413203	84.810377
365.848649	84.909019
366.284084	84.723598
366.719509	84.815875
367.154924	85.079490
367.590328	85.166946
368.025721	85.353834
368.461104	85.714286
368.896477	85.967343
369.331838	85.353834
369.767189	85.903388
370.202530	85.925265
370.637859	86.055777
371.073178	86.101425
371.508486	86.450971
371.943784	86.154152
372.379071	86.233611
372.814347	86.152628
373.249612	86.411322
373.684866	86.609178
374.120110	86.745679
374.555343	87.429476
374.990565	87.950852
375.425776	87.756315
375.860976	87.945855
376.296165	88.288111
376.731343	88.644001
377.166511	88.783100
377.601667	89.216363
378.036812	89.588258
378.471946	89.791092
378.907070	89.132778
379.342182	88.945362
379.777283	89.115313
380.212373	89.192900
380.647452	88.929166
381.082520	88.895417
381.517576	88.687916
381.952622	87.597873
382.387656	87.099559
382.822679	87.334738
383.257691	86.982249
383.692692	86.997523
384.127681	87.394319
384.562659	87.290304
384.997626	86.924894
385.432581	87.182885
385.867525	87.690114
386.302458	87.081476
386.737379	87.470269
387.172289	87.495253
387.607188	87.054249
388.042075	86.438757
388.476951	86.501273
388.911815	86.258465
389.346668	85.858870
389.781509	85.975610
390.216338	86.059358
390.651157	85.847909
391.085963	85.134882
391.520758	85.146659
391.955541	85.402888
392.390313	85.715619
392.825073	85.991058
393.259821	85.678508
393.694558	85.402001
394.129283	85.790934
394.563996	85.757912
394.998698	85.977757
395.433388	86.887312
395.868066	87.351316
396.302732	87.207132
396.737386	86.871742
397.172029	86.552397
397.606659	85.514407
398.041278	85.043167
398.475885	84.905058
398.910480	84.275339
399.345063	83.288074
399.779634	83.186035
400.214194	81.549593
400.648741	80.076500
401.083276	78.648593
401.517799	76.935065
401.952310	74.925419
402.386809	73.113968
402.821296	70.788137
403.255771	67.954240
403.690234	65.331849
404.124684	62.816254
404.559123	60.182611
404.993549	57.415283
405.427963	54.294801
405.862365	51.648825
406.296754	48.869131
406.731131	46.553689
407.165496	44.500396
407.599849	42.340986
408.034190	40.366866
408.468518	38.702157
408.902833	37.027402
409.337137	35.572242
409.771428	34.299642
410.205706	33.147833
410.639973	32.138196
411.074226	31.233858
411.508467	30.345019
411.942696	29.627954
412.376912	28.967670
412.811116	28.424889
413.245307	27.944291
413.679486	27.578685
414.113652	27.147552
414.547805	26.836416
414.981946	26.577150
415.416074	26.407978
415.850190	26.330624
416.284293	26.220702
416.718383	26.179515
417.152460	26.070860
417.586525	26.061292
418.020577	26.127872
418.454616	26.111225
418.888643	26.189762
419.322656	26.297325
419.756657	26.448522
420.190645	26.582818
420.624620	26.757508
421.058582	26.907737
421.492531	27.119059
421.926468	27.268856
422.360391	27.460502
422.794301	27.701086
423.228199	27.925823
423.662083	28.118484
424.095955	28.372488
424.529813	28.628086
424.963658	28.926424
425.397491	29.198864
425.831310	29.442467
426.265116	29.686952
426.698909	29.925265
427.132689	30.186134
427.566455	30.460322
428.000209	30.733501
428.433949	31.013676
428.867676	31.269093
429.301389	31.519999
429.735090	31.808939
430.168777	32.068836
430.602451	32.356151
431.036111	32.611821
431.469759	32.826450
431.903392	33.104385
432.337013	33.376669
432.770620	33.611494
433.204213	33.881871
433.637794	34.114902
434.071360	34.318864
434.504914	34.589874
434.938453	34.787632
435.371979	35.050177
435.805492	35.287572
436.238991	35.506606
436.672477	35.709947
437.105949	35.948870
437.539407	36.177179
437.972852	36.357219
438.406283	36.556888
438.839700	36.742027
439.273104	36.928766
439.706494	37.122318
440.139871	37.302351
440.573233	37.474016
441.006582	37.663457
441.439917	37.821130
441.873238	37.969386
442.306546	38.133092
442.739839	38.262465
443.173119	38.375095
443.606385	38.526280
444.039636	38.644247
444.472874	38.757846
444.906099	38.908126
445.339309	39.027096
445.772505	39.109798
446.205687	39.238004
446.638855	39.325980
447.072009	39.445747
447.505149	39.524944
447.938275	39.594025
448.371387	39.697204
448.804485	39.744934
449.237569	39.829912
449.670638	39.910342
450.103694	39.969987
450.536735	40.024191
450.969762	40.040625
451.402774	40.097214
451.835773	40.120916
452.268757	40.137191
452.701727	40.153400
453.134683	40.174047
453.567624	40.187181
454.000551	40.181446
454.433464	40.179424
454.866362	40.168234
455.299246	40.160238
455.732116	40.135523
456.164971	40.103245
456.597811	40.065209
457.030638	40.013314
457.463449	39.986383
457.896246	39.929407
458.329029	39.877102
458.761797	39.811357
459.194551	39.771993
459.627290	39.694802
460.060014	39.601607
460.492724	39.521176
460.925419	39.439258
461.358099	39.387084
461.790765	39.289699
462.223416	39.181546
462.656052	39.056356
463.088674	38.912479
463.521281	38.790342
463.953873	38.648801
464.386450	38.502348
464.819012	38.354342
465.251560	38.203687
465.684093	38.041151
466.116611	37.894433
466.549114	37.728957
466.981602	37.563992
467.414075	37.390753
467.846533	37.178078
468.278977	36.956512
468.711405	36.743490
469.143818	36.520482
469.576216	36.300984
470.008600	36.076609
470.440968	35.818493
470.873321	35.564752
471.305659	35.308187
471.737982	35.030964
472.170289	34.766681
472.602582	34.471520
473.034859	34.185191
473.467122	33.906232
473.899369	33.607001
474.331600	33.329874
474.763817	33.011643
475.196018	32.736855
475.628204	32.450003
476.060375	32.165078
476.492530	31.863444
476.924670	31.563615
477.356795	31.266428
477.788904	30.988690
478.220998	30.684548
478.653076	30.382846
479.085139	30.099267
479.517186	29.822081
479.949219	29.544658
480.381235	29.278067
480.813236	29.032802
481.245221	28.791868
481.677191	28.586385
482.109146	28.348433
482.541084	28.132372
482.973008	27.908076
483.404915	27.706731
483.836807	27.526350
484.268683	27.341747
484.700544	27.169810
485.132388	27.034071
485.564217	26.907068
485.996031	26.801175
486.427828	26.722592
486.859610	26.659972
487.291376	26.621889
487.723126	26.590028
488.154860	26.573730
488.586579	26.563208
489.018281	26.593820
489.449968	26.633279
489.881639	26.701447
490.313293	26.782410
490.744932	26.882118
491.176555	26.985080
491.608162	27.128217
492.039753	27.294660
492.471328	27.465290
492.902886	27.653652
493.334429	27.848832
493.765956	28.062094
494.197466	28.281638
494.628960	28.516913
495.060439	28.751273
495.491901	29.008555
495.923347	29.257293
496.354776	29.521140
496.786190	29.779235
497.217587	30.052233
497.648968	30.326714
498.080332	30.613353
498.511681	30.873983
498.943013	31.165493
499.374328	31.454164
499.805628	31.729921
500.236911	32.020323
500.668177	32.307444
501.099427	32.595759
501.530661	32.886142
501.961878	33.161154
502.393079	33.430830
502.824264	33.698373
503.255431	33.948526
503.686583	34.181748
504.117717	34.416402
504.548835	34.648200
504.979937	34.860745
505.411022	35.067523
505.842090	35.278408
506.273142	35.484570
506.704177	35.682758
507.135195	35.878182
507.566197	36.058369
507.997182	36.251009
508.428150	36.426302
508.859102	36.602561
509.290036	36.772810
509.720954	36.930722
510.151855	37.110598
510.582739	37.269615
511.013607	37.448542
511.444457	37.616404
511.875291	37.808010
512.306107	37.969513
512.736907	38.143436
513.167690	38.326554
513.598456	38.501979
514.029205	38.689833
514.459936	38.891115
514.890651	39.102233
515.321349	39.304862
515.752030	39.539946
516.182693	39.768608
516.613340	40.003949
517.043969	40.275651
517.474582	40.548825
517.905177	40.835633
518.335755	41.128103
518.766315	41.426336
519.196859	41.738536
519.627385	42.033884
520.057894	42.347367
520.488386	42.669427
520.918860	43.013912
521.349318	43.353416
521.779757	43.711393
522.210180	44.087425
522.640585	44.487034
523.070973	44.907630
523.501343	45.320035
523.931696	45.758945
524.362031	46.194430
524.792349	46.651860
525.222650	47.097544
525.652933	47.562263
526.083198	48.039217
526.513446	48.512731
526.943677	48.992308
527.373890	49.479750
527.804085	49.976033
528.234262	50.470801
528.664422	50.995059
529.094565	51.501254
529.524689	52.027547
529.954796	52.575373
530.384885	53.099062
530.814957	53.621253
531.245011	54.146044
531.675047	54.687908
532.105065	55.239781
532.535065	55.794086
532.965048	56.360922
533.395013	56.943732
533.824959	57.526716
534.254888	58.094188
534.684799	58.696974
535.114693	59.305617
535.544568	59.909635
535.974425	60.527272
536.404264	61.140450
536.834086	61.766274
537.263889	62.385164
537.693674	63.007673
538.123441	63.631651
538.553190	64.259323
538.982921	64.902276
539.412634	65.513058
539.842329	66.133543
540.272006	66.745925
540.701664	67.361193
541.131304	67.949954
541.560926	68.542466
541.990530	69.120131
542.420116	69.690307
542.849683	70.227748
543.279232	70.761330
543.708763	71.303512
544.138275	71.851625
544.567769	72.392411
544.997245	72.902529
545.426702	73.399951
545.856141	73.892534
546.285562	74.383578
546.714964	74.847741
547.144347	75.309752
547.573713	75.781446
548.003059	76.223242
548.432387	76.658054
548.861697	77.095922
549.290988	77.497791
549.720260	77.907992
550.149514	78.288983
550.578750	78.663606
551.007966	79.039554
551.437164	79.415076
551.866344	79.795078
552.295504	80.163082
552.724646	80.543089
553.153769	80.936032
553.582874	81.337991
554.011960	81.717228
554.441027	82.109280
554.870075	82.492175
555.299104	82.867641
555.728115	83.248300
556.157106	83.656431
556.586079	84.045985
557.015033	84.407056
557.443968	84.756164
557.872884	85.079000
558.301781	85.427447
558.730659	85.749764
559.159518	86.087036
559.588358	86.426585
560.017180	86.746563
560.445982	87.053782
560.874765	87.363876
561.303528	87.689440
561.732273	88.010819
562.160999	88.316226
562.589705	88.626198
563.018393	88.931546
563.447061	89.228971
563.875710	89.526074
564.304340	89.804189
564.732950	90.071318
565.161542	90.314364
565.590114	90.562349
566.018666	90.811451
566.447200	91.034400
566.875714	91.248563
567.304208	91.466114
567.732684	91.679187
568.161140	91.877168
568.589576	92.059248
569.017993	92.229277
569.446391	92.381289
569.874769	92.517740
570.303128	92.674304
570.731467	92.818475
571.159787	92.965694
571.588087	93.080706
572.016368	93.221503
572.444629	93.339839
572.872870	93.438213
573.301092	93.571168
573.729294	93.676830
574.157476	93.769557
574.585639	93.850785
575.013782	93.933060
575.441906	94.005589
575.870009	94.073922
576.298093	94.130033
576.726157	94.193756
577.154202	94.254240
577.582226	94.309466
578.010231	94.350367
578.438216	94.404399
578.866181	94.450384
579.294126	94.476094
579.722051	94.512254
580.149957	94.531788
580.577842	94.553126
581.005707	94.562601
581.433553	94.605827
581.861378	94.636739
582.289184	94.676375
582.716969	94.701654
583.144734	94.732535
583.572479	94.768964
584.000205	94.789486
584.427910	94.802853
584.855594	94.833826
585.283259	94.829244
585.710904	94.832627
586.138528	94.831594
586.566132	94.804104
586.993716	94.791362
587.421280	94.769629
587.848823	94.752389
588.276346	94.705376
588.703849	94.650654
589.131332	94.585875
589.558794	94.503844
589.986236	94.407023
590.413657	94.304090
590.841058	94.187943
591.268438	94.069574
591.695799	93.927173
592.123138	93.779648
592.550458	93.630229
592.977756	93.472874
593.405034	93.329173
593.832292	93.155208
594.259529	92.983632
594.686746	92.786794
595.113942	92.605731
595.541117	92.402376
595.968272	92.195839
596.395406	91.986076
596.822519	91.752414
597.249612	91.525226
597.676684	91.301576
598.103735	91.045813
598.530766	90.807908
598.957775	90.547414
599.384764	90.291247
599.811733	90.034200
600.238680	89.755740
600.665606	89.466796
601.092512	89.159792
601.519397	88.853987
601.946261	88.546493
602.373104	88.234492
602.799926	87.926411
603.226727	87.608279
603.653507	87.280781
604.080266	86.956346
604.507004	86.632671
604.933721	86.319122
605.360417	85.994440
605.787092	85.688019
606.213746	85.373055
606.640379	85.051805
607.066991	84.752316
607.493581	84.440574
607.920150	84.137831
608.346699	83.826312
608.773226	83.527958
609.199731	83.221477
609.626216	82.909617
610.052679	82.593172
610.479121	82.271013
610.905542	81.943858
611.331941	81.626162
611.758319	81.289266
612.184676	80.954500
612.611011	80.606576
613.037325	80.239842
613.463617	79.884167
613.889888	79.514775
614.316138	79.140061
614.742366	78.762044
615.168573	78.368692
615.594758	77.958066
616.020921	77.540690
616.447063	77.115757
616.873184	76.681992
617.299283	76.233625
617.725360	75.780896
618.151416	75.316626
618.577450	74.822379
619.003462	74.316213
619.429453	73.802442
619.855422	73.286948
620.281369	72.759734
620.707295	72.219796
621.133199	71.657704
621.559081	71.095826
621.984941	70.520591
622.410779	69.952796
622.836596	69.374314
623.262391	68.776387
623.688163	68.182703
624.113914	67.574672
624.539644	66.964659
624.965351	66.352454
625.391036	65.730995
625.816699	65.107003
626.242340	64.482128
626.667960	63.850335
627.093557	63.228892
627.519132	62.608747
627.944685	61.981777
628.370216	61.364701
628.795725	60.768247
629.221212	60.166243
629.646677	59.586055
630.072119	59.020165
630.497540	58.465844
630.922938	57.929503
631.348314	57.410082
631.773668	56.924466
632.198999	56.464788
632.624308	56.027822
633.049595	55.601678
633.474860	55.207467
633.900102	54.849950
634.325322	54.526556
634.750520	54.219246
635.175695	53.936146
635.600848	53.684278
636.025978	53.460658
636.451086	53.282230
636.876171	53.117101
637.301234	52.983967
637.726275	52.866050
638.151293	52.779835
638.576288	52.706698
639.001261	52.670379
639.426211	52.656198
639.851139	52.658192
640.276044	52.677438
640.700927	52.717934
641.125787	52.786569
641.550624	52.862376
641.975438	52.957559
642.400230	53.076869
642.824999	53.203546
643.249745	53.341170
643.674469	53.497455
644.099169	53.648984
644.523847	53.822451
644.948502	54.007583
645.373135	54.191966
645.797744	54.389736
646.222330	54.603420
646.646894	54.819014
647.071435	55.042641
647.495953	55.267848
647.920447	55.506653
648.344919	55.749108
648.769368	55.984855
649.193794	56.235869
649.618197	56.465430
650.042576	56.705331
650.466933	56.953005
650.891267	57.204874
651.315577	57.449427
651.739864	57.701582
652.164129	57.940287
652.588370	58.179749
653.012587	58.419425
653.436782	58.666184
653.860953	58.895183
654.285102	59.120108
654.709226	59.345294
655.133328	59.549615
655.557406	59.756237
655.981461	59.957414
656.405493	60.148221
656.829501	60.328825
657.253486	60.500971
657.677448	60.650137
658.101386	60.800661
658.525301	60.944076
658.949192	61.072825
659.373060	61.182005
659.796904	61.278351
660.220725	61.367573
660.644522	61.439085
661.068296	61.499766
661.492046	61.554309
661.915772	61.606036
662.339475	61.635223
662.763154	61.676215
663.186810	61.700386
663.610442	61.709602
664.034050	61.715980
664.457635	61.714909
664.881196	61.719814
665.304733	61.716408
665.728247	61.714213
666.151736	61.721592
666.575202	61.714145
666.998644	61.723869
667.422062	61.737014
667.845457	61.744321
668.268827	61.768599
668.692174	61.787666
669.115496	61.821301
669.538795	61.865253
669.962070	61.922709
670.385321	61.997189
670.808547	62.089658
671.231750	62.182306
671.654929	62.282250
672.078084	62.398312
672.501214	62.521688
672.924321	62.673965
673.347404	62.831284
673.770462	63.009091
674.193496	63.196187
674.616506	63.394444
675.039492	63.602923
675.462454	63.835416
675.885391	64.076292
676.308305	64.339958
676.731194	64.614787
677.154058	64.885521
677.576899	65.192090
677.999715	65.501276
678.422507	65.814033
678.845274	66.137271
679.268017	66.466550
679.690736	66.801786
680.113430	67.147970
680.536100	67.503976
680.958746	67.873470
681.381367	68.250753
681.803963	68.631407
682.226535	69.012077
682.649083	69.409814
683.071605	69.817066
683.494104	70.221417
683.916578	70.628433
684.339027	71.046289
684.761451	71.464698
685.183851	71.884506
685.606227	72.318949
686.028577	72.741936
686.450903	73.172199
686.873204	73.596788
687.295481	74.027604
687.717733	74.447572
688.139959	74.864161
688.562162	75.280685
688.984339	75.685296
689.406492	76.075194
689.828619	76.456245
690.250722	76.837583
690.672800	77.186423
691.094853	77.533115
691.516881	77.886731
691.938884	78.221599
692.360863	78.532635
692.782816	78.844114
693.204744	79.128979
693.626647	79.396833
694.048526	79.672514
694.470379	79.915998
694.892207	80.159052
695.314010	80.395013
695.735788	80.619726
696.157540	80.828563
696.579268	81.042810
697.000970	81.244028
697.422648	81.442306
697.844300	81.629458
698.265926	81.816630
698.687528	82.012579
699.109104	82.196078
699.530655	82.372516
699.952181	82.559348
700.373681	82.742235
700.795156	82.926028
701.216606	83.117618
701.638030	83.292150
702.059429	83.470080
702.480803	83.662231
702.902151	83.847673
703.323473	84.036742
703.744770	84.222230
704.166042	84.393167
704.587288	84.565137
705.008509	84.757823
705.429704	84.952657
705.850873	85.133446
706.272017	85.329063
706.693135	85.545334
707.114228	85.744632
707.535295	85.957427
707.956336	86.160904
708.377352	86.369798
708.798342	86.581854
709.219306	86.781135
709.640245	86.989209
710.061157	87.200238
710.482044	87.399782
710.902905	87.604007
711.323741	87.802666
711.744550	87.980391
712.165334	88.188560
712.586092	88.382031
713.006823	88.571479
713.427529	88.764851
713.848209	88.955328
714.268863	89.133229
714.689492	89.328409
715.110094	89.517987
715.530670	89.698524
715.951220	89.900782
716.371744	90.101423
716.792242	90.309173
717.212714	90.527399
717.633159	90.744391
718.053579	90.955760
718.473973	91.168567
718.894340	91.410104
719.314681	91.633259
719.734996	91.852748
720.155285	92.082314
720.575547	92.310325
720.995784	92.554082
721.415994	92.804223
721.836177	93.032739
722.256335	93.277332
722.676466	93.511764
723.096570	93.744503
723.516649	93.987759
723.936701	94.245712
724.356726	94.484251
724.776725	94.729652
725.196698	94.953436
725.616644	95.199751
726.036564	95.432179
726.456457	95.656049
726.876324	95.884769
727.296164	96.112898
727.715977	96.338064
728.135764	96.566160
728.555525	96.785236
728.975258	96.984523
729.394966	97.183339
729.814646	97.376481
730.234300	97.566545
730.653927	97.762953
731.073527	97.936285
731.493101	98.116181
731.912648	98.276916
732.332168	98.448690
732.751661	98.604877
733.171128	98.754222
733.590568	98.904022
734.009980	99.037514
734.429366	99.178511
734.848726	99.329748
735.268058	99.477753
735.687363	99.615319
736.106641	99.763800
736.525893	99.894222
736.945117	100.010319
737.364314	100.152543
737.783485	100.285602
738.202628	100.416371
738.621744	100.546677
739.040834	100.670381
739.459896	100.806751
739.878931	100.935353
740.297939	101.048224
740.716919	101.161576
741.135873	101.287746
741.554799	101.406443
741.973698	101.533421
742.392570	101.667114
742.811415	101.805443
743.230232	101.936442
743.649022	102.062041
744.067785	102.199225
744.486521	102.337232
744.905229	102.484793
745.323909	102.624909
745.742563	102.774080
746.161189	102.927491
746.579787	103.094421
746.998358	103.270068
747.416902	103.424383
747.835418	103.583182
748.253907	103.753727
748.672368	103.919767
749.090802	104.083165
749.509208	104.253508
749.927586	104.432430
750.345937	104.607446
750.764261	104.786853
751.182556	104.965460
751.600824	105.133287
752.019065	105.319089
752.437277	105.493129
752.855462	105.693784
753.273620	105.888479
753.691749	106.083097
754.109851	106.256665
754.527925	106.441529
754.945971	106.632072
755.363989	106.812459
755.781980	106.997925
756.199943	107.184488
756.617877	107.364974
757.035784	107.548325
757.453663	107.728380
757.871514	107.901206
758.289337	108.088868
758.707132	108.255261
759.124899	108.418897
759.542639	108.583893
759.960350	108.740440
760.378033	108.897243
760.795688	109.027033
761.213314	109.149638
761.630913	109.282466
762.048484	109.406961
762.466026	109.530329
762.883541	109.621512
763.301027	109.700239
763.718485	109.784139
764.135914	109.864298
764.553316	109.937356
764.970689	110.002103
765.388034	110.045941
765.805351	110.061728
766.222639	110.099684
766.639899	110.112492
767.057131	110.130861
767.474334	110.159910
767.891509	110.159395
768.308655	110.168384
768.725773	110.163646
769.142863	110.163412
769.559924	110.151702
769.976957	110.148025
770.393961	110.138846
770.810936	110.127622
771.227883	110.085780
771.644802	110.071067
772.061692	110.039889
772.478553	109.979228
772.895386	109.939074
773.312190	109.888348
773.728965	109.849496
774.145712	109.815682
774.562430	109.760277
774.979119	109.698576
775.395780	109.627481
775.812411	109.578464
776.229014	109.520497
776.645589	109.462945
777.062134	109.398063
777.478651	109.323115
777.895138	109.239605
778.311597	109.169263
778.728027	109.091054
779.144428	109.022975
779.560800	108.945643
779.977143	108.869091
780.393458	108.774320
780.809743	108.695167
781.225999	108.610056
781.642226	108.525327
782.058425	108.445599
782.474594	108.365525
782.890734	108.276119
783.306845	108.180427
783.722926	108.085128
784.138979	108.007199
784.555003	107.906961
784.970997	107.819955
785.386962	107.751219
785.802898	107.653773
786.218805	107.551878
786.634682	107.457799
787.050531	107.344795
787.466349	107.251072
787.882139	107.150928
788.297899	107.050769
788.713630	106.946516
789.129332	106.840595
789.545004	106.731649
789.960647	106.623236
790.376260	106.532411
790.791844	106.450589
791.207399	106.350424
791.622924	106.267282
792.038419	106.172489
792.453885	106.081190
792.869321	105.994516
793.284728	105.926333
793.700106	105.852353
794.115453	105.779524
794.530771	105.717803
794.946060	105.666267
795.361319	105.611553
795.776548	105.556646
796.191747	105.505462
796.606917	105.444120
797.022057	105.398887
797.437167	105.349912
797.852248	105.311383
798.267298	105.262865
798.682319	105.241663
799.097310	105.238632
799.512271	105.227599
799.927203	105.211909
800.342104	105.195832
800.756976	105.196917
801.171818	105.193955
801.586629	105.196227
802.001411	105.205833
802.416163	105.211579
802.830885	105.251464
803.245577	105.254622
803.660238	105.263390
804.074870	105.290387
804.489472	105.301002
804.904043	105.316173
805.318585	105.327703
805.733096	105.333408
806.147577	105.323272
806.562028	105.311968
806.976449	105.298936
807.390840	105.289023
807.805200	105.250699
808.219530	105.209608
808.633830	105.172683
809.048100	105.131293
809.462339	105.087459
809.876548	105.039612
810.290727	105.000824
810.704875	104.947813
811.118993	104.877091
811.533080	104.794770
811.947137	104.688735
812.361164	104.573561
812.775160	104.456506
813.189126	104.342085
813.603061	104.209402
814.016966	104.069343
814.430840	103.908128
814.844684	103.748000
815.258497	103.564158
815.672280	103.354089
816.086032	103.166362
816.499753	102.953461
816.913444	102.720214
817.327104	102.493744
817.740733	102.254755
818.154331	102.017002
818.567899	101.761509
818.981436	101.478411
819.394943	101.205846
819.808418	100.927569
820.221863	100.613803
820.635277	100.308976
821.048660	99.993264
821.462013	99.649796
821.875334	99.308639
822.288625	98.952472
822.701884	98.581124
823.115113	98.191444
823.528311	97.779521
823.941478	97.389617
824.354614	96.960561
824.767718	96.534573
825.180792	96.107257
825.593835	95.668970
826.006847	95.216992
826.419827	94.755339
826.832777	94.306357
827.245695	93.870348
827.658582	93.420917
828.071438	92.980766
828.484263	92.513470
828.897057	92.054804
829.309819	91.600398
829.722551	91.160611
830.135251	90.720149
830.547919	90.283674
830.960557	89.845007
831.373163	89.437224
831.785738	89.054183
832.198281	88.642412
832.610793	88.236079
833.023274	87.854549
833.435723	87.462184
833.848141	87.106738
834.260528	86.764558
834.672883	86.421090
835.085206	86.088261
835.497498	85.746381
835.909758	85.415659
836.321987	85.116876
836.734185	84.817710
837.146350	84.533997
837.558485	84.260765
837.970587	83.989053
838.382658	83.724396
838.794697	83.462913
839.206705	83.205406
839.618681	82.952281
840.030625	82.706896
840.442538	82.445244
840.854418	82.192832
841.266267	81.970344
841.678084	81.725154
842.089870	81.499521
842.501623	81.279103
842.913345	81.051298
843.325035	80.824675
843.736693	80.601117
844.148319	80.361642
844.559913	80.113096
844.971475	79.901412
845.383005	79.678626
845.794504	79.443965
846.205970	79.211513
846.617404	78.961790
847.028806	78.686907
847.440176	78.437820
847.851514	78.189989
848.262820	77.944288
848.674094	77.704654
849.085336	77.441148
849.496546	77.164842
849.907723	76.917461
850.318868	76.639499
850.729981	76.345909
851.141062	76.053864
851.552110	75.754264
851.963127	75.466179
852.374111	75.149854
852.785062	74.808439
853.195982	74.498470
853.606869	74.159734
854.017723	73.823618
854.428546	73.485493
854.839336	73.132943
855.250093	72.757413
855.660818	72.384525
856.071511	71.984610
856.482171	71.580119
856.892799	71.180889
857.303394	70.796140
857.713956	70.378542
858.124486	69.952213
858.534984	69.519247
858.945449	69.102739
859.355881	68.658419
859.766280	68.243585
860.176647	67.793213
860.586982	67.354231
860.997283	66.915080
861.407552	66.460114
861.817789	66.004466
862.227992	65.548324
862.638163	65.058669
863.048301	64.590646
863.458406	64.136584
863.868478	63.683766
864.278518	63.228962
864.688524	62.761121
865.098498	62.320480
865.508439	61.876520
865.918347	61.415251
866.328222	60.986158
866.738064	60.548399
867.147873	60.146030
867.557649	59.715205
867.967392	59.317369
868.377102	58.928725
868.786779	58.557594
869.196423	58.199467
869.606034	57.853643
870.015612	57.489476
870.425156	57.153080
870.834668	56.820984
871.244146	56.538322
871.653591	56.229652
872.063003	55.949246
872.472382	55.672130
872.881728	55.409513
873.291040	55.149360
873.700319	54.910518
874.109564	54.688117
874.518777	54.467404
874.927956	54.270936
875.337102	54.099406
875.746214	53.916530
876.155293	53.745465
876.564338	53.604869
876.973350	53.456534
877.382329	53.323206
877.791274	53.203932
878.200186	53.100322
878.609064	53.010288
879.017909	52.919816
879.426720	52.833897
879.835497	52.752865
880.244241	52.680956
880.652952	52.626494
881.061629	52.569313
881.470272	52.518553
881.878881	52.486368
882.287457	52.443929
882.695999	52.399728
883.104507	52.360948
883.512982	52.345083
883.921423	52.311576
884.329830	52.296884
884.738203	52.282778
885.146543	52.283427
885.554849	52.280754
885.963120	52.278978
886.371358	52.295433
886.779563	52.295601
887.187733	52.309616
887.595869	52.329799
888.003971	52.326647
888.412040	52.341519
888.820074	52.362573
889.228074	52.379538
889.636041	52.403592
890.043973	52.432573
890.451871	52.458110
890.859736	52.487400
891.267566	52.507301
891.675362	52.522806
892.083124	52.530088
892.490851	52.538509
892.898545	52.566886
893.306204	52.573921
893.713829	52.609054
894.121420	52.628615
894.528977	52.651579
894.936499	52.654503
895.343987	52.678151
895.751441	52.668967
896.158860	52.664419
896.566246	52.660316
896.973596	52.642586
897.380913	52.612219
897.788195	52.561103
898.195442	52.537393
898.602655	52.501839
899.009834	52.440992
899.416978	52.396247
899.824088	52.318207
900.231163	52.244899
900.638204	52.186368
901.045210	52.108300
901.452181	52.018994
901.859118	51.892498
902.266021	51.801863
902.672888	51.674050
903.079721	51.532159
903.486520	51.398762
903.893283	51.258817
904.300012	51.132614
904.706707	50.989766
905.113366	50.811043
905.519991	50.642724
905.926581	50.468642
906.333136	50.257806
906.739656	50.047908
907.146142	49.813363
907.552592	49.597182
907.959008	49.376736
908.365389	49.162823
908.771735	48.939802
909.178046	48.697948
909.584322	48.449909
909.990563	48.223671
910.396769	47.980582
910.802940	47.696341
911.209076	47.417350
911.615177	47.141226
912.021243	46.838982
912.427274	46.578333
912.833270	46.299778
913.239231	45.989501
913.645156	45.698607
914.051046	45.399871
914.456902	45.122741
914.862721	44.845216
915.268506	44.582093
915.674256	44.311818
916.079970	44.030597
916.485649	43.766738
916.891292	43.485174
917.296901	43.251676
917.702474	43.017406
918.108011	42.780140
918.513514	42.552242
918.918980	42.325375
919.324412	42.121178
919.729808	41.921783
920.135169	41.725947
920.540494	41.535167
920.945783	41.375973
921.351037	41.210974
921.756256	41.077233
922.161439	40.955449
922.566586	40.832246
922.971698	40.741651
923.376775	40.678593
923.781815	40.619572
924.186820	40.579605
924.591790	40.539630
924.996723	40.525290
925.401621	40.486336
925.806484	40.532390
926.211310	40.553884
926.616101	40.605292
927.020856	40.663381
927.425575	40.702827
927.830259	40.776223
928.234906	40.856473
928.639518	40.967863
929.044094	41.073587
929.448634	41.189643
929.853138	41.269740
930.257606	41.387272
930.662038	41.496109
931.066434	41.605051
931.470795	41.741260
931.875119	41.871470
932.279407	42.003985
932.683659	42.134158
933.087875	42.271429
933.492055	42.400232
933.896199	42.525525
934.300307	42.604138
934.704379	42.694092
935.108414	42.798755
935.512414	42.871959
935.916377	42.911967
936.320304	42.960977
936.724195	43.013746
937.128049	43.068754
937.531867	43.063041
937.935649	43.101235
938.339395	43.095973
938.743104	43.063822
939.146777	43.046333
939.550414	42.970861
939.954014	42.923808
940.357578	42.836796
940.761105	42.755121
941.164596	42.641504
941.568050	42.507536
941.971468	42.387695
942.374850	42.267056
942.778195	42.085209
943.181503	41.933744
943.584775	41.798178
943.988010	41.633514
944.391209	41.457251
944.794371	41.272203
945.197496	41.112143
945.600585	40.941428
946.003637	40.750497
946.406653	40.535638
946.809632	40.376805
947.212574	40.192035
947.615479	39.994209
948.018347	39.803445
948.421179	39.640438
948.823974	39.486812
949.226732	39.262974
949.629453	39.094170
950.032138	38.950274
950.434785	38.771845
950.837396	38.579449
951.239969	38.445041
951.642506	38.249092
952.045006	38.085472
952.447469	37.905169
952.849895	37.745467
953.252283	37.575331
953.654635	37.386923
954.056950	37.225224
954.459227	37.058010
954.861468	36.890155
955.263671	36.788573
955.665838	36.655451
956.067967	36.515775
956.470059	36.364923
956.872114	36.244200
957.274131	36.120147
957.676112	35.978177
958.078055	35.861891
958.479961	35.723417
958.881829	35.640008
959.283661	35.530595
959.685455	35.417663
960.087211	35.355253
960.488931	35.296443
960.890613	35.194643
961.292257	35.101550
961.693864	35.039563
962.095434	34.913778
962.496966	34.815306
962.898461	34.755187
963.299918	34.650410
963.701338	34.531939
964.102720	34.474571
964.504065	34.449431
964.905372	34.393525
965.306641	34.306833
965.707873	34.240619
966.109068	34.170408
966.510224	34.115635
966.911343	34.080077
967.312425	34.039326
967.713468	33.955289
968.114474	33.957125
968.515442	33.918522
968.916373	33.853366
969.317265	33.821361
969.718120	33.820470
970.118937	33.764593
970.519716	33.690891
970.920458	33.665271
971.321161	33.631116
971.721827	33.525599
972.122454	33.493666
972.523044	33.360750
972.923596	33.269057
973.324110	33.236035
973.724585	33.131735
974.125023	33.031601
974.525423	32.950023
974.925785	32.847620
975.326108	32.767586
975.726394	32.701134
976.126642	32.650420
976.526851	32.578362
976.927022	32.488144
977.327155	32.416875
977.727250	32.340215
978.127307	32.248669
978.527325	32.282688
978.927306	32.221049
979.327248	32.148322
979.727151	32.107517
980.127017	32.046840
980.526844	31.915415
980.926633	31.841454
981.326383	31.805943
981.726095	31.681439
982.125769	31.565373
982.525404	31.496266
982.925001	31.382934
983.324560	31.354600
983.724079	31.241070
984.123561	31.202598
984.523004	31.175897
984.922408	31.144968
985.321774	31.057181
985.721102	31.006291
986.120390	31.009660
986.519641	30.940600
986.918852	30.913985
987.318025	30.971744
987.717159	30.887558
988.116255	30.972766
988.515312	30.956150
988.914330	30.890668
989.313310	30.916545
989.712250	30.887362
990.111152	30.931368
990.510015	31.003751
990.908840	30.986807
991.307625	31.022034
991.706372	31.028216
992.105080	31.009413
992.503749	31.093815
992.902379	31.120610
993.300970	31.162102
993.699522	31.276678
994.098035	31.393085
994.496510	31.426751
994.894945	31.491680
995.293341	31.545442
995.691698	31.606046
996.090016	31.723511
996.488296	31.950845
996.886535	31.995398
997.284736	32.001453
997.682898	32.234151
998.081021	32.354200
998.479104	32.470789
998.877148	32.560052
999.275153	32.863874
999.673119	32.942311
1000.071046	33.149230
1000.468933	33.189467
1000.866781	33.336133
1001.264590	33.598808
1001.662359	33.666676
1002.060089	33.825737
1002.457780	33.898149
1002.855431	33.903743
1003.253043	33.830557
1003.650615	33.895842
1004.048148	34.170820
1004.445642	34.309769
1004.843096	34.511353
1005.240511	34.613979
1005.637886	34.583052
1006.035221	34.623241
1006.432517	34.671995
1006.829774	34.846820
1007.226991	35.030864
1007.624168	35.412122
1008.021306	35.463385
1008.418404	35.574886
1008.815462	35.564931
1009.212481	35.635042
1009.609460	36.210113
1010.006399	36.266734
1010.403298	36.330505
1010.800158	36.602602
1011.196978	37.035406
1011.593758	37.142045
1011.990498	37.551952
1012.387199	37.552232
1012.783860	37.685052
1013.180480	37.978600
1013.577061	38.176105
1013.973602	38.602789
1014.370103	39.134162
1014.766564	39.340197
1015.162985	39.686188
1015.559366	40.167294
1015.955708	40.550589
1016.352009	40.556025
1016.748270	40.887386
1017.144491	41.055314
1017.540671	41.431304
1017.936812	41.992797
1018.332913	42.228476
1018.728973	42.586751
1019.124994	43.148774
1019.520974	43.708294
1019.916914	43.911249
1020.312814	44.331641
