Time1=100ms:Average1=5:Objective=10X:Aperture=1: (11/21/2018 2:24:40 PM)
11/21/2018 2:24:40 PM
Reflectance
10X
Ap#: 1
Avg1: 5.000000
Avg2: 0.000000
Int.Time1:100.000000

350.166136	87.131567
350.601937	87.165672
351.037728	86.893442
351.473509	87.019608
351.909281	86.628706
352.345042	86.511306
352.780794	85.865166
353.216536	86.012464
353.652267	85.878392
354.087989	85.318285
354.523701	84.867641
354.959403	84.581976
355.395095	84.555259
355.830777	84.026128
356.266449	83.926102
356.702110	83.933845
357.137762	83.887418
357.573404	84.126984
358.009035	83.685653
358.444656	83.498382
358.880268	83.484627
359.315869	83.512405
359.751459	83.349628
360.187040	83.748170
360.622610	84.062807
361.058170	84.143701
361.493720	83.816282
361.929260	83.959111
362.364789	84.344133
362.800308	84.176150
363.235816	83.908499
363.671314	83.374324
364.106802	83.572693
364.542279	83.699616
364.977746	84.014577
365.413203	84.127141
365.848649	84.216772
366.284084	84.347137
366.719509	84.124790
367.154924	84.210526
367.590328	84.595686
368.025721	84.309087
368.461104	84.864651
368.896477	84.987630
369.331838	84.703331
369.767189	85.202015
370.202530	85.201705
370.637859	85.388446
371.073178	85.015443
371.508486	85.266302
371.943784	85.190703
372.379071	84.574891
372.814347	84.430367
373.249612	84.481394
373.684866	84.200615
374.120110	84.167901
374.555343	84.549144
374.990565	84.780024
375.425776	84.933135
375.860976	84.793993
376.296165	85.219536
376.731343	85.441787
377.166511	86.244173
377.601667	86.328241
378.036812	86.160362
378.471946	85.819866
378.907070	85.712886
379.342182	85.387548
379.777283	85.882238
380.212373	85.927234
380.647452	85.999804
381.082520	85.810811
381.517576	86.507626
381.952622	85.664572
382.387656	85.018224
382.822679	85.370761
383.257691	85.216644
383.692692	85.397219
384.127681	85.351952
384.562659	85.148327
384.997626	85.092111
385.432581	85.346460
385.867525	85.988593
386.302458	85.886370
386.737379	86.033679
387.172289	85.919104
387.607188	86.229135
388.042075	85.721031
388.476951	85.840958
388.911815	85.515425
389.346668	84.893637
389.781509	84.737336
390.216338	85.066941
390.651157	85.071556
391.085963	84.582241
391.520758	84.584388
391.955541	84.564509
392.390313	84.754618
392.825073	84.631148
393.259821	84.435581
393.694558	84.392368
394.129283	84.218316
394.563996	84.601148
394.998698	84.652456
395.433388	84.875362
395.868066	84.836565
396.302732	84.719500
396.737386	84.409903
397.172029	84.030100
397.606659	83.875139
398.041278	83.587436
398.475885	83.394194
398.910480	82.858947
399.345063	82.139518
399.779634	81.462428
400.214194	80.180025
400.648741	79.084528
401.083276	77.695625
401.517799	75.880120
401.952310	73.995583
402.386809	71.982161
402.821296	70.132257
403.255771	67.899108
403.690234	65.246718
404.124684	62.574116
404.559123	59.901671
404.993549	57.453697
405.427963	54.715433
405.862365	52.094260
406.296754	49.689150
406.731131	47.365804
407.165496	45.152515
407.599849	43.190494
408.034190	41.271557
408.468518	39.662493
408.902833	38.132335
409.337137	36.825906
409.771428	35.531839
410.205706	34.259693
410.639973	33.185489
411.074226	32.238242
411.508467	31.437040
411.942696	30.705730
412.376912	30.066032
412.811116	29.446051
413.245307	28.971420
413.679486	28.580249
414.113652	28.175052
414.547805	27.880519
414.981946	27.650184
415.416074	27.455157
415.850190	27.322918
416.284293	27.131073
416.718383	27.010870
417.152460	26.926442
417.586525	26.884875
418.020577	26.886163
418.454616	26.841265
418.888643	26.899279
419.322656	27.017237
419.756657	27.170119
420.190645	27.255692
420.624620	27.411704
421.058582	27.564478
421.492531	27.721419
421.926468	27.851296
422.360391	28.010699
422.794301	28.208143
423.228199	28.408702
423.662083	28.616513
424.095955	28.836683
424.529813	29.081189
424.963658	29.301484
425.397491	29.495349
425.831310	29.709053
426.265116	29.944821
426.698909	30.148193
427.132689	30.375978
427.566455	30.613211
428.000209	30.863818
428.433949	31.113555
428.867676	31.340839
429.301389	31.585804
429.735090	31.843999
430.168777	32.085234
430.602451	32.302642
431.036111	32.539099
431.469759	32.752082
431.903392	33.007014
432.337013	33.224398
432.770620	33.416873
433.204213	33.577442
433.637794	33.785600
434.071360	33.932617
434.504914	34.116630
434.938453	34.299769
435.371979	34.462779
435.805492	34.645053
436.238991	34.812834
436.672477	34.947628
437.105949	35.094392
437.539407	35.256104
437.972852	35.382250
438.406283	35.525341
438.839700	35.662411
439.273104	35.785072
439.706494	35.920457
440.139871	36.058225
440.573233	36.196776
441.006582	36.308628
441.439917	36.403281
441.873238	36.492648
442.306546	36.592279
442.739839	36.663025
443.173119	36.705404
443.606385	36.773996
444.039636	36.839197
444.472874	36.900857
444.906099	36.953015
445.339309	36.955322
445.772505	36.988020
446.205687	37.033087
446.638855	37.057266
447.072009	37.097492
447.505149	37.154615
447.938275	37.175825
448.371387	37.177906
448.804485	37.209931
449.237569	37.194942
449.670638	37.187774
450.103694	37.165798
450.536735	37.158536
450.969762	37.113086
451.402774	37.078849
451.835773	37.041267
452.268757	37.002289
452.701727	36.960778
453.134683	36.918910
453.567624	36.851948
454.000551	36.758158
454.433464	36.674059
454.866362	36.591486
455.299246	36.517430
455.732116	36.421957
456.164971	36.338625
456.597811	36.252406
457.030638	36.137490
457.463449	36.031990
457.896246	35.899819
458.329029	35.778264
458.761797	35.667783
459.194551	35.544994
459.627290	35.406760
460.060014	35.273872
460.492724	35.113711
460.925419	34.946790
461.358099	34.804926
461.790765	34.632165
462.223416	34.434441
462.656052	34.253050
463.088674	34.054149
463.521281	33.860982
463.953873	33.660616
464.386450	33.439618
464.819012	33.224646
465.251560	32.995894
465.684093	32.777259
466.116611	32.541666
466.549114	32.315713
466.981602	32.104452
467.414075	31.872071
467.846533	31.635961
468.278977	31.396903
468.711405	31.146676
469.143818	30.894823
469.576216	30.653505
470.008600	30.412588
470.440968	30.150029
470.873321	29.896453
471.305659	29.632951
471.737982	29.377454
472.170289	29.134867
472.602582	28.878697
473.034859	28.626926
473.467122	28.389846
473.899369	28.174110
474.331600	27.968344
474.763817	27.761268
475.196018	27.574544
475.628204	27.384769
476.060375	27.197382
476.492530	27.014704
476.924670	26.841300
477.356795	26.679165
477.788904	26.542889
478.220998	26.389112
478.653076	26.257570
479.085139	26.135433
479.517186	26.032390
479.949219	25.920168
480.381235	25.835647
480.813236	25.777343
481.245221	25.731469
481.677191	25.691992
482.109146	25.654672
482.541084	25.649505
482.973008	25.635075
483.404915	25.637395
483.836807	25.662348
484.268683	25.697888
484.700544	25.750005
485.132388	25.814015
485.564217	25.884316
485.996031	25.970665
486.427828	26.072709
486.859610	26.174554
487.291376	26.289428
487.723126	26.413737
488.154860	26.537722
488.586579	26.671516
489.018281	26.838562
489.449968	26.999207
489.881639	27.172930
490.313293	27.356213
490.744932	27.538167
491.176555	27.715151
491.608162	27.921109
492.039753	28.137319
492.471328	28.338653
492.902886	28.554394
493.334429	28.771970
493.765956	28.982037
494.197466	29.182549
494.628960	29.386247
495.060439	29.580878
495.491901	29.780652
495.923347	29.955422
496.354776	30.126202
496.786190	30.309098
497.217587	30.491867
497.648968	30.662034
498.080332	30.840951
498.511681	31.019154
498.943013	31.190336
499.374328	31.363884
499.805628	31.535990
500.236911	31.719285
500.668177	31.890111
501.099427	32.045312
501.530661	32.202156
501.961878	32.356517
502.393079	32.477826
502.824264	32.607356
503.255431	32.730260
503.686583	32.831362
504.117717	32.923264
504.548835	33.019623
504.979937	33.099679
505.411022	33.170446
505.842090	33.237919
506.273142	33.298959
506.704177	33.375823
507.135195	33.441797
507.566197	33.514497
507.997182	33.586994
508.428150	33.650497
508.859102	33.718942
509.290036	33.791017
509.720954	33.866146
510.151855	33.941828
510.582739	34.003253
511.013607	34.092657
511.444457	34.176696
511.875291	34.266805
512.306107	34.373226
512.736907	34.473835
513.167690	34.590484
513.598456	34.711495
514.029205	34.833026
514.459936	34.978527
514.890651	35.129723
515.321349	35.288651
515.752030	35.471450
516.182693	35.650326
516.613340	35.822239
517.043969	36.030684
517.474582	36.253778
517.905177	36.479669
518.335755	36.724907
518.766315	36.989539
519.196859	37.280001
519.627385	37.577796
520.057894	37.889455
520.488386	38.224928
520.918860	38.572849
521.349318	38.926386
521.779757	39.306468
522.210180	39.680572
522.640585	40.065915
523.070973	40.457350
523.501343	40.843750
523.931696	41.251597
524.362031	41.659536
524.792349	42.067493
525.222650	42.504442
525.652933	42.953257
526.083198	43.428295
526.513446	43.905108
526.943677	44.397555
527.373890	44.915743
527.804085	45.435607
528.234262	45.944307
528.664422	46.477020
529.094565	46.997195
529.524689	47.532838
529.954796	48.086167
530.384885	48.621056
530.814957	49.145416
531.245011	49.686512
531.675047	50.235486
532.105065	50.789111
532.535065	51.354090
532.965048	51.932809
533.395013	52.521982
533.824959	53.106137
534.254888	53.709242
534.684799	54.346209
535.114693	54.985472
535.544568	55.642415
535.974425	56.319358
536.404264	56.991543
536.834086	57.673033
537.263889	58.341846
537.693674	59.003959
538.123441	59.678035
538.553190	60.313666
538.982921	60.925671
539.412634	61.529711
539.842329	62.115972
540.272006	62.709412
540.701664	63.286207
541.131304	63.857195
541.560926	64.444766
541.990530	65.036383
542.420116	65.643513
542.849683	66.236534
543.279232	66.827566
543.708763	67.436243
544.138275	68.037825
544.567769	68.634768
544.997245	69.192713
545.426702	69.746438
545.856141	70.265316
546.285562	70.761748
546.714964	71.224848
547.144347	71.690009
547.573713	72.139174
548.003059	72.567913
548.432387	72.989331
548.861697	73.417438
549.290988	73.831232
549.720260	74.258244
550.149514	74.686020
550.578750	75.128637
551.007966	75.583830
551.437164	76.041891
551.866344	76.520533
552.295504	77.019709
552.724646	77.509597
553.153769	78.022677
553.582874	78.520614
554.011960	79.006665
554.441027	79.496208
554.870075	79.968462
555.299104	80.401021
555.728115	80.818323
556.157106	81.244348
556.586079	81.643663
557.015033	82.013485
557.443968	82.379511
557.872884	82.748532
558.301781	83.145854
558.730659	83.517036
559.159518	83.906393
559.588358	84.306810
560.017180	84.703781
560.445982	85.108125
560.874765	85.503484
561.303528	85.896580
561.732273	86.282941
562.160999	86.649168
562.589705	86.999651
563.018393	87.333550
563.447061	87.646564
563.875710	87.948896
564.304340	88.221021
564.732950	88.480057
565.161542	88.706863
565.590114	88.914574
566.018666	89.122594
566.447200	89.312067
566.875714	89.499459
567.304208	89.679314
567.732684	89.845780
568.161140	90.023521
568.589576	90.205737
569.017993	90.399601
569.446391	90.575743
569.874769	90.764855
570.303128	90.954476
570.731467	91.160135
571.159787	91.322789
571.588087	91.479540
572.016368	91.640244
572.444629	91.792266
572.872870	91.930171
573.301092	92.078340
573.729294	92.176138
574.157476	92.267693
574.585639	92.351855
575.013782	92.416611
575.441906	92.474522
575.870009	92.518802
576.298093	92.571858
576.726157	92.623741
577.154202	92.680868
577.582226	92.721461
578.010231	92.764553
578.438216	92.824284
578.866181	92.896990
579.294126	92.956216
579.722051	93.016780
580.149957	93.068209
580.577842	93.136163
581.005707	93.191720
581.433553	93.262529
581.861378	93.318603
582.289184	93.362600
582.716969	93.401486
583.144734	93.432500
583.572479	93.474886
584.000205	93.469882
584.427910	93.484956
584.855594	93.491926
585.283259	93.466095
585.710904	93.428274
586.138528	93.393951
586.566132	93.326387
586.993716	93.291897
587.421280	93.234602
587.848823	93.166087
588.276346	93.101842
588.703849	93.042386
589.131332	92.972489
589.558794	92.897933
589.986236	92.797987
590.413657	92.694451
590.841058	92.597614
591.268438	92.485073
591.695799	92.361124
592.123138	92.224473
592.550458	92.091878
592.977756	91.945244
593.405034	91.787073
593.832292	91.618127
594.259529	91.441666
594.686746	91.239201
595.113942	91.044473
595.541117	90.822551
595.968272	90.606379
596.395406	90.372770
596.822519	90.122918
597.249612	89.884632
597.676684	89.641143
598.103735	89.378538
598.530766	89.139135
598.957775	88.890772
599.384764	88.631533
599.811733	88.373690
600.238680	88.113578
600.665606	87.864622
601.092512	87.608448
601.519397	87.358916
601.946261	87.105860
602.373104	86.847291
602.799926	86.586386
603.226727	86.354753
603.653507	86.108119
604.080266	85.860992
604.507004	85.620964
604.933721	85.389992
605.360417	85.151193
605.787092	84.902384
606.213746	84.658980
606.640379	84.425735
607.066991	84.178891
607.493581	83.933971
607.920150	83.692629
608.346699	83.442162
608.773226	83.210678
609.199731	82.950555
609.626216	82.682187
610.052679	82.410769
610.479121	82.140897
610.905542	81.846977
611.331941	81.546755
611.758319	81.225289
612.184676	80.895101
612.611011	80.561574
613.037325	80.213776
613.463617	79.846374
613.889888	79.459981
614.316138	79.064144
614.742366	78.646451
615.168573	78.208984
615.594758	77.766463
616.020921	77.315018
616.447063	76.837282
616.873184	76.359982
617.299283	75.862603
617.725360	75.362611
618.151416	74.846495
618.577450	74.311294
619.003462	73.779783
619.429453	73.229510
619.855422	72.667475
620.281369	72.123611
620.707295	71.556970
621.133199	70.975952
621.559081	70.390779
621.984941	69.795404
622.410779	69.205777
622.836596	68.628082
623.262391	68.030836
623.688163	67.418870
624.113914	66.816174
624.539644	66.208261
624.965351	65.618796
625.391036	65.038255
625.816699	64.450913
626.242340	63.870268
626.667960	63.288254
627.093557	62.716589
627.519132	62.153873
627.944685	61.592221
628.370216	61.039385
628.795725	60.514125
629.221212	59.977364
629.646677	59.465001
630.072119	58.966428
630.497540	58.480080
630.922938	58.001695
631.348314	57.542805
631.773668	57.107441
632.198999	56.694199
632.624308	56.312099
633.049595	55.945787
633.474860	55.590091
633.900102	55.273473
634.325322	54.991170
634.750520	54.720028
635.175695	54.477085
635.600848	54.267375
636.025978	54.069955
636.451086	53.908837
636.876171	53.771961
637.301234	53.648866
637.726275	53.559205
638.151293	53.476117
638.576288	53.409094
639.001261	53.349451
639.426211	53.311656
639.851139	53.290701
640.276044	53.277857
640.700927	53.279888
641.125787	53.297646
641.550624	53.311350
641.975438	53.337927
642.400230	53.381278
642.824999	53.430421
643.249745	53.479697
643.674469	53.544848
644.099169	53.611890
644.523847	53.694784
644.948502	53.781685
645.373135	53.875116
645.797744	53.977081
646.222330	54.095071
646.646894	54.225349
647.071435	54.367498
647.495953	54.504584
647.920447	54.663877
648.344919	54.823306
648.769368	54.977789
649.193794	55.149495
649.618197	55.312355
650.042576	55.488121
650.466933	55.675845
650.891267	55.858008
651.315577	56.049329
651.739864	56.242705
652.164129	56.445212
652.588370	56.643900
653.012587	56.826101
653.436782	57.010308
653.860953	57.199041
654.285102	57.369533
654.709226	57.555123
655.133328	57.715194
655.557406	57.869694
655.981461	58.011976
656.405493	58.142142
656.829501	58.262880
657.253486	58.385609
657.677448	58.477642
658.101386	58.575341
658.525301	58.658822
658.949192	58.732757
659.373060	58.796694
659.796904	58.850141
660.220725	58.901968
660.644522	58.946920
661.068296	58.988358
661.492046	59.028018
661.915772	59.081820
662.339475	59.131083
662.763154	59.188018
663.186810	59.253455
663.610442	59.317686
664.034050	59.386633
664.457635	59.459299
664.881196	59.557218
665.304733	59.650226
665.728247	59.758942
666.151736	59.892113
666.575202	60.031677
666.998644	60.181278
667.422062	60.364510
667.845457	60.549852
668.268827	60.762569
668.692174	60.981298
669.115496	61.229333
669.538795	61.493409
669.962070	61.793519
670.385321	62.097914
670.808547	62.427188
671.231750	62.760075
671.654929	63.116527
672.078084	63.487967
672.501214	63.858411
672.924321	64.255023
673.347404	64.652613
673.770462	65.058279
674.193496	65.463765
674.616506	65.872683
675.039492	66.280183
675.462454	66.694553
675.885391	67.110599
676.308305	67.513491
676.731194	67.925394
677.154058	68.326643
677.576899	68.740697
677.999715	69.124771
678.422507	69.509423
678.845274	69.896151
679.268017	70.271744
679.690736	70.643830
680.113430	71.011278
680.536100	71.370896
680.958746	71.723501
681.381367	72.069042
681.803963	72.422398
682.226535	72.756293
682.649083	73.090043
683.071605	73.415858
683.494104	73.738492
683.916578	74.054369
684.339027	74.373040
684.761451	74.682626
685.183851	74.985153
685.606227	75.307747
686.028577	75.608242
686.450903	75.914223
686.873204	76.208090
687.295481	76.502783
687.717733	76.795263
688.139959	77.074340
688.562162	77.346282
688.984339	77.610926
689.406492	77.879485
689.828619	78.126897
690.250722	78.383977
690.672800	78.605259
691.094853	78.838882
691.516881	79.076304
691.938884	79.297446
692.360863	79.505699
692.782816	79.712927
693.204744	79.904590
693.626647	80.082687
694.048526	80.277493
694.470379	80.454768
694.892207	80.622146
695.314010	80.788497
695.735788	80.967895
696.157540	81.121527
696.579268	81.286171
697.000970	81.449280
697.422648	81.615376
697.844300	81.770119
698.265926	81.931376
698.687528	82.091060
699.109104	82.239150
699.530655	82.388389
699.952181	82.555576
700.373681	82.724106
700.795156	82.888154
701.216606	83.059325
701.638030	83.233640
702.059429	83.414189
702.480803	83.598693
702.902151	83.796807
703.323473	83.985212
703.744770	84.191402
704.166042	84.388765
704.587288	84.585960
705.008509	84.795692
705.429704	85.019651
705.850873	85.250188
706.272017	85.478066
706.693135	85.722540
707.114228	85.956482
707.535295	86.200845
707.956336	86.456963
708.377352	86.711856
708.798342	86.955043
709.219306	87.206620
709.640245	87.456879
710.061157	87.712180
710.482044	87.952625
710.902905	88.196396
711.323741	88.436772
711.744550	88.675266
712.165334	88.942252
712.586092	89.187840
713.006823	89.443500
713.427529	89.699175
713.848209	89.953064
714.268863	90.210227
714.689492	90.464561
715.110094	90.715060
715.530670	90.962271
715.951220	91.217983
716.371744	91.473588
716.792242	91.737498
717.212714	91.999898
717.633159	92.265215
718.053579	92.525647
718.473973	92.779615
718.894340	93.040063
719.314681	93.303822
719.734996	93.561799
720.155285	93.814846
720.575547	94.050967
720.995784	94.291743
721.415994	94.527212
721.836177	94.757345
722.256335	94.990996
722.676466	95.206874
723.096570	95.418496
723.516649	95.632491
723.936701	95.862897
724.356726	96.072306
724.776725	96.263710
725.196698	96.429881
725.616644	96.619994
726.036564	96.779804
726.456457	96.934858
726.876324	97.088851
727.296164	97.229913
727.715977	97.368326
728.135764	97.506045
728.555525	97.630790
728.975258	97.735038
729.394966	97.843863
729.814646	97.938831
730.234300	98.028479
730.653927	98.120831
731.073527	98.195229
731.493101	98.265250
731.912648	98.330921
732.332168	98.398365
732.751661	98.452540
733.171128	98.505971
733.590568	98.569238
734.009980	98.609131
734.429366	98.660116
734.848726	98.710383
735.268058	98.761822
735.687363	98.816955
736.106641	98.868789
736.525893	98.915953
736.945117	98.940930
737.364314	98.992519
737.783485	99.050765
738.202628	99.111976
738.621744	99.168443
739.040834	99.215783
739.459896	99.272787
739.878931	99.335123
740.297939	99.395689
740.716919	99.455867
741.135873	99.523343
741.554799	99.601510
741.973698	99.686596
742.392570	99.766213
742.811415	99.856171
743.230232	99.948829
743.649022	100.046471
744.067785	100.151953
744.486521	100.267332
744.905229	100.377062
745.323909	100.480466
745.742563	100.586146
746.161189	100.700495
746.579787	100.815577
746.998358	100.943664
747.416902	101.069287
747.835418	101.198297
748.253907	101.331369
748.672368	101.466576
749.090802	101.601092
749.509208	101.734086
749.927586	101.882328
750.345937	102.024309
750.764261	102.166865
751.182556	102.308015
751.600824	102.437164
752.019065	102.593961
752.437277	102.743953
752.855462	102.896255
753.273620	103.053183
753.691749	103.226814
754.109851	103.380084
754.527925	103.531338
754.945971	103.680694
755.363989	103.828613
755.781980	103.977867
756.199943	104.126978
756.617877	104.274735
757.035784	104.420112
757.453663	104.571143
757.871514	104.716170
758.289337	104.876800
758.707132	105.025998
759.124899	105.167086
759.542639	105.328756
759.960350	105.464668
760.378033	105.604309
760.795688	105.726051
761.213314	105.847640
761.630913	105.963818
762.048484	106.087388
762.466026	106.213292
762.883541	106.324697
763.301027	106.409365
763.718485	106.498619
764.135914	106.582550
764.553316	106.664422
764.970689	106.741026
765.388034	106.796938
765.805351	106.844696
766.222639	106.878706
766.639899	106.882206
767.057131	106.894138
767.474334	106.903310
767.891509	106.907016
768.308655	106.914883
768.725773	106.902397
769.142863	106.900320
769.559924	106.881898
769.976957	106.862296
770.393961	106.831916
770.810936	106.788984
771.227883	106.730942
771.644802	106.691444
772.061692	106.629576
772.478553	106.541666
772.895386	106.479237
773.312190	106.392037
773.728965	106.319803
774.145712	106.236353
774.562430	106.142869
774.979119	106.032970
775.395780	105.916513
775.812411	105.809074
776.229014	105.691698
776.645589	105.569364
777.062134	105.457625
777.478651	105.325645
777.895138	105.182474
778.311597	105.049680
778.728027	104.904484
779.144428	104.784052
779.560800	104.656400
779.977143	104.523830
780.393458	104.377729
780.809743	104.232061
781.225999	104.086907
781.642226	103.951518
782.058425	103.817848
782.474594	103.668079
782.890734	103.521085
783.306845	103.384814
783.722926	103.251407
784.138979	103.112299
784.555003	102.974472
784.970997	102.868935
785.386962	102.770882
785.802898	102.660475
786.218805	102.553039
786.634682	102.432549
787.050531	102.332518
787.466349	102.221621
787.882139	102.126986
788.297899	102.025441
788.713630	101.920729
789.129332	101.835737
789.545004	101.746705
789.960647	101.660152
790.376260	101.594300
790.791844	101.527495
791.207399	101.448568
791.622924	101.386041
792.038419	101.314070
792.453885	101.254796
792.869321	101.199157
793.284728	101.156354
793.700106	101.104515
794.115453	101.067966
794.530771	101.023891
794.946060	100.978377
795.361319	100.941565
795.776548	100.912634
796.191747	100.854014
796.606917	100.811623
797.022057	100.792776
797.437167	100.755300
797.852248	100.723769
798.267298	100.674336
798.682319	100.635427
799.097310	100.619230
799.512271	100.595953
799.927203	100.542469
800.342104	100.520013
800.756976	100.483851
801.171818	100.457826
801.586629	100.428159
802.001411	100.394907
802.416163	100.352872
802.830885	100.322356
803.245577	100.270430
803.660238	100.230201
804.074870	100.198933
804.489472	100.157023
804.904043	100.095915
805.318585	100.025122
805.733096	99.959037
806.147577	99.898840
806.562028	99.823955
806.976449	99.743652
807.390840	99.654915
807.805200	99.563271
808.219530	99.461704
808.633830	99.357482
809.048100	99.251083
809.462339	99.128676
809.876548	99.003270
810.290727	98.891231
810.704875	98.731643
811.118993	98.583251
811.533080	98.433137
811.947137	98.250535
812.361164	98.062524
812.775160	97.864681
813.189126	97.661282
813.603061	97.447094
814.016966	97.221678
814.430840	96.969717
814.844684	96.718793
815.258497	96.456742
815.672280	96.171471
816.086032	95.895012
816.499753	95.592666
816.913444	95.262137
817.327104	94.945689
817.740733	94.609089
818.154331	94.275190
818.567899	93.932015
818.981436	93.552041
819.394943	93.205770
819.808418	92.824144
820.221863	92.437588
820.635277	92.034225
821.048660	91.638852
821.462013	91.217782
821.875334	90.800104
822.288625	90.365643
822.701884	89.918249
823.115113	89.466411
823.528311	89.019271
823.941478	88.574517
824.354614	88.102866
824.767718	87.652015
825.180792	87.196164
825.593835	86.757406
826.006847	86.307478
826.419827	85.855241
826.832777	85.419958
827.245695	84.994397
827.658582	84.570184
828.071438	84.158668
828.484263	83.741520
828.897057	83.340896
829.309819	82.950101
829.722551	82.604708
830.135251	82.228711
830.547919	81.895710
830.960557	81.554475
831.373163	81.237033
831.785738	80.936678
832.198281	80.624386
832.610793	80.331138
833.023274	80.053459
833.435723	79.760578
833.848141	79.511477
834.260528	79.273738
834.672883	79.036726
835.085206	78.826426
835.497498	78.609947
835.909758	78.382746
836.321987	78.182689
836.734185	77.976131
837.146350	77.779489
837.558485	77.573230
837.970587	77.380060
838.382658	77.181804
838.794697	76.979860
839.206705	76.781113
839.618681	76.581708
840.030625	76.394352
840.442538	76.177305
840.854418	75.966854
841.266267	75.767890
841.678084	75.555261
842.089870	75.328897
842.501623	75.114707
842.913345	74.906532
843.325035	74.683180
843.736693	74.448811
844.148319	74.192597
844.559913	73.935503
844.971475	73.692505
845.383005	73.448567
845.794504	73.184863
846.205970	72.942243
846.617404	72.635942
847.028806	72.344712
847.440176	72.053441
847.851514	71.736860
848.262820	71.426051
848.674094	71.109333
849.085336	70.779805
849.496546	70.454449
849.907723	70.140561
850.318868	69.793394
850.729981	69.446393
851.141062	69.086053
851.552110	68.727713
851.963127	68.372705
852.374111	68.011039
852.785062	67.626188
853.195982	67.270334
853.606869	66.895582
854.017723	66.502114
854.428546	66.105146
854.839336	65.721945
855.250093	65.303094
855.660818	64.876200
856.071511	64.468197
856.482171	64.044431
856.892799	63.616601
857.303394	63.196637
857.713956	62.751280
858.124486	62.317365
858.534984	61.873714
858.945449	61.414596
859.355881	60.974794
859.766280	60.504953
860.176647	60.021726
860.586982	59.561240
860.997283	59.093382
861.407552	58.628111
861.817789	58.148946
862.227992	57.652546
862.638163	57.144244
863.048301	56.676391
863.458406	56.181265
863.868478	55.713538
864.278518	55.244322
864.688524	54.778263
865.098498	54.300962
865.508439	53.830353
865.918347	53.363777
866.328222	52.931190
866.738064	52.503594
867.147873	52.100883
867.557649	51.685614
867.967392	51.272332
868.377102	50.905365
868.786779	50.529639
869.196423	50.192080
869.606034	49.852865
870.015612	49.528389
870.425156	49.200225
870.834668	48.871539
871.244146	48.595126
871.653591	48.342341
872.063003	48.076465
872.472382	47.838976
872.881728	47.639032
873.291040	47.440859
873.700319	47.266210
874.109564	47.112794
874.518777	46.970854
874.927956	46.843381
875.337102	46.737420
875.746214	46.621391
876.155293	46.554970
876.564338	46.501848
876.973350	46.451742
877.382329	46.418684
877.791274	46.415305
878.200186	46.419752
878.609064	46.444565
879.017909	46.442640
879.426720	46.461109
879.835497	46.498616
880.244241	46.550480
880.652952	46.605168
881.061629	46.655783
881.470272	46.713886
881.878881	46.774780
882.287457	46.831112
882.695999	46.888238
883.104507	46.969758
883.512982	47.067772
883.921423	47.134192
884.329830	47.195021
884.738203	47.291662
885.146543	47.385793
885.554849	47.452590
885.963120	47.526571
886.371358	47.588953
886.779563	47.639013
887.187733	47.704664
887.595869	47.784240
888.003971	47.849051
888.412040	47.914396
888.820074	47.966617
889.228074	48.020117
889.636041	48.050695
890.043973	48.094832
890.451871	48.124196
890.859736	48.157953
891.267566	48.186026
891.675362	48.214638
892.083124	48.254932
892.490851	48.268775
892.898545	48.277351
893.306204	48.301238
893.713829	48.316278
894.121420	48.326645
894.528977	48.337098
894.936499	48.344405
895.343987	48.358899
895.751441	48.335383
896.158860	48.320279
896.566246	48.296317
896.973596	48.264878
897.380913	48.218691
897.788195	48.161247
898.195442	48.125647
898.602655	48.082303
899.009834	48.015215
899.416978	47.960234
899.824088	47.885928
900.231163	47.797296
900.638204	47.713117
901.045210	47.622662
901.452181	47.522010
901.859118	47.376730
902.266021	47.278298
902.672888	47.124565
903.079721	46.988833
903.486520	46.847053
903.893283	46.693052
904.300012	46.542519
904.706707	46.374241
905.113366	46.177948
905.519991	46.024223
905.926581	45.827859
906.333136	45.630618
906.739656	45.404053
907.146142	45.191886
907.552592	45.009860
907.959008	44.775134
908.365389	44.563521
908.771735	44.313289
909.178046	44.104228
909.584322	43.885232
909.990563	43.644025
910.396769	43.408011
910.802940	43.161535
911.209076	42.910941
911.615177	42.665046
912.021243	42.424051
912.427274	42.178452
912.833270	41.948977
913.239231	41.688002
913.645156	41.483003
914.051046	41.235459
914.456902	41.022797
914.862721	40.824225
915.268506	40.638286
915.674256	40.446073
916.079970	40.257144
916.485649	40.076224
916.891292	39.888386
917.296901	39.715223
917.702474	39.557368
918.108011	39.401384
918.513514	39.261377
918.918980	39.123134
919.324412	39.002205
919.729808	38.886254
920.135169	38.766026
920.540494	38.681232
920.945783	38.611943
921.351037	38.559236
921.756256	38.482254
922.161439	38.433279
922.566586	38.391841
922.971698	38.386868
923.376775	38.388585
923.781815	38.392855
924.186820	38.424750
924.591790	38.452894
924.996723	38.511606
925.401621	38.553481
925.806484	38.654806
926.211310	38.693614
926.616101	38.819020
927.020856	38.927235
927.425575	39.016659
927.830259	39.116642
928.234906	39.230255
928.639518	39.338570
929.044094	39.453172
929.448634	39.597048
929.853138	39.725057
930.257606	39.872427
930.662038	39.995383
931.066434	40.119723
931.470795	40.261745
931.875119	40.432375
932.279407	40.584480
932.683659	40.728497
933.087875	40.874695
933.492055	41.011195
933.896199	41.126874
934.300307	41.251881
934.704379	41.345849
935.108414	41.458215
935.512414	41.541041
935.916377	41.611784
936.320304	41.699425
936.724195	41.753589
937.128049	41.799772
937.531867	41.822118
937.935649	41.877822
938.339395	41.887408
938.743104	41.872690
939.146777	41.845866
939.550414	41.797256
939.954014	41.754009
940.357578	41.681726
940.761105	41.602390
941.164596	41.527545
941.568050	41.428054
941.971468	41.298063
942.374850	41.165600
942.778195	41.025111
943.181503	40.857641
943.584775	40.727917
943.988010	40.540601
944.391209	40.362802
944.794371	40.145658
945.197496	39.958503
945.600585	39.723996
946.003637	39.475986
946.406653	39.242567
946.809632	39.019938
947.212574	38.803233
947.615479	38.559777
948.018347	38.324703
948.421179	38.099255
948.823974	37.877976
949.226732	37.630470
949.629453	37.385596
950.032138	37.186385
950.434785	36.918514
950.837396	36.646537
951.239969	36.446290
951.642506	36.218869
952.045006	36.010317
952.447469	35.801238
952.849895	35.612487
953.252283	35.449479
953.654635	35.244802
954.056950	35.086965
954.459227	34.913305
954.861468	34.766713
955.263671	34.622225
955.665838	34.526724
956.067967	34.405714
956.470059	34.287736
956.872114	34.149896
957.274131	34.077930
957.676112	33.982559
958.078055	33.920479
958.479961	33.893062
958.881829	33.873655
959.283661	33.855786
959.685455	33.820611
960.087211	33.831728
960.488931	33.826581
960.890613	33.790915
961.292257	33.736097
961.693864	33.712609
962.095434	33.703510
962.496966	33.655910
962.898461	33.675338
963.299918	33.689026
963.701338	33.692501
964.102720	33.681964
964.504065	33.704814
964.905372	33.695227
965.306641	33.679964
965.707873	33.645462
966.109068	33.650506
966.510224	33.605514
966.911343	33.641835
967.312425	33.572380
967.713468	33.559042
968.114474	33.491113
968.515442	33.448436
968.916373	33.475842
969.317265	33.482863
969.718120	33.459438
970.118937	33.373285
970.519716	33.386661
970.920458	33.320949
971.321161	33.277401
971.721827	33.170281
972.122454	33.126897
972.523044	33.021991
972.923596	32.979460
973.324110	32.928400
973.724585	32.835864
974.125023	32.798689
974.525423	32.695891
974.925785	32.624666
975.326108	32.568181
975.726394	32.492649
976.126642	32.439706
976.526851	32.378800
976.927022	32.266881
977.327155	32.236005
977.727250	32.175021
978.127307	32.073238
978.527325	32.074982
978.927306	32.045055
979.327248	32.027524
979.727151	32.051936
980.127017	32.003298
980.526844	31.960648
980.926633	31.890353
981.326383	31.778628
981.726095	31.680446
982.125769	31.625047
982.525404	31.638424
982.925001	31.563326
983.324560	31.517148
983.724079	31.436300
984.123561	31.410556
984.523004	31.396930
984.922408	31.346953
985.321774	31.210259
985.721102	31.132347
986.120390	31.182282
986.519641	31.140515
986.918852	31.162767
987.318025	31.189396
987.717159	31.136394
988.116255	31.187486
988.515312	31.203310
988.914330	31.147169
989.313310	31.245383
989.712250	31.110979
990.111152	31.239196
990.510015	31.256394
990.908840	31.224096
991.307625	31.229257
991.706372	31.157074
992.105080	31.132553
992.503749	31.080008
992.902379	31.115311
993.300970	31.223484
993.699522	31.317331
994.098035	31.359056
994.496510	31.395865
994.894945	31.420619
995.293341	31.349407
995.691698	31.459234
996.090016	31.463430
996.488296	31.570066
996.886535	31.535160
997.284736	31.699510
997.682898	31.894869
998.081021	32.040244
998.479104	32.154333
998.877148	32.290940
999.275153	32.504775
999.673119	32.572144
1000.071046	32.794365
1000.468933	32.938156
1000.866781	33.089800
1001.264590	33.255028
1001.662359	33.203320
1002.060089	33.405392
1002.457780	33.413144
1002.855431	33.450771
1003.253043	33.446339
1003.650615	33.608533
1004.048148	33.841929
1004.445642	33.923601
1004.843096	34.123425
1005.240511	34.431203
1005.637886	34.331607
1006.035221	34.442089
1006.432517	34.616602
1006.829774	34.708491
1007.226991	34.834835
1007.624168	35.206810
1008.021306	35.148038
1008.418404	35.358543
1008.815462	35.509296
1009.212481	35.644606
1009.609460	35.787923
1010.006399	35.867643
1010.403298	36.018118
1010.800158	36.056534
1011.196978	36.380155
1011.593758	36.386364
1011.990498	36.808523
1012.387199	36.801308
1012.783860	37.016678
1013.180480	37.243780
1013.577061	37.534265
1013.973602	38.195499
1014.370103	38.555508
1014.766564	38.678891
1015.162985	39.091846
1015.559366	39.481389
1015.955708	39.647694
1016.352009	39.560440
1016.748270	39.902507
1017.144491	40.142266
1017.540671	40.002250
1017.936812	40.588235
1018.332913	40.744531
1018.728973	41.009464
1019.124994	41.312968
1019.520974	42.008262
1019.916914	42.088063
1020.312814	42.752397
