Time1=100ms:Average1=5:Objective=10X:Aperture=1: (11/28/2018 11:12:57 AM)
11/28/2018 11:12:57 AM
Reflectance
10X
Ap#: 1
Avg1: 5.000000
Avg2: 0.000000
Int.Time1:100.000000

350.166136	54.152334
350.601937	54.153019
351.037728	54.530591
351.473509	54.529094
351.909281	54.771355
352.345042	54.981679
352.780794	55.191066
353.216536	55.116524
353.652267	55.030621
354.087989	54.806174
354.523701	54.827374
354.959403	54.674743
355.395095	54.413191
355.830777	54.688189
356.266449	54.939908
356.702110	55.345801
357.137762	55.427763
357.573404	55.584208
358.009035	55.164737
358.444656	55.351245
358.880268	55.104046
359.315869	55.050280
359.751459	55.178874
360.187040	55.069618
360.622610	54.983033
361.058170	55.231361
361.493720	55.334877
361.929260	55.541663
362.364789	55.878149
362.800308	55.629729
363.235816	55.547666
363.671314	55.339375
364.106802	55.294013
364.542279	55.611792
364.977746	55.667998
365.413203	55.501417
365.848649	55.782855
366.284084	55.620464
366.719509	55.618525
367.154924	55.621670
367.590328	55.537792
368.025721	55.716058
368.461104	55.936114
368.896477	55.991881
369.331838	55.866561
369.767189	55.549711
370.202530	54.919828
370.637859	54.972764
371.073178	54.874627
371.508486	54.943712
371.943784	54.627618
372.379071	54.682884
372.814347	54.751131
373.249612	55.033966
373.684866	55.175118
374.120110	55.101331
374.555343	55.055691
374.990565	55.060304
375.425776	54.684496
375.860976	55.053632
376.296165	55.136507
376.731343	54.890971
377.166511	54.751488
377.601667	54.858495
378.036812	54.642141
378.471946	54.421236
378.907070	54.448709
379.342182	53.715776
379.777283	53.921739
380.212373	53.645653
380.647452	53.617683
381.082520	53.789962
381.517576	53.264516
381.952622	53.338503
382.387656	53.262467
382.822679	53.255512
383.257691	53.251364
383.692692	53.511967
384.127681	53.539632
384.562659	53.720508
384.997626	53.590540
385.432581	53.511879
385.867525	53.571121
386.302458	53.596068
386.737379	53.364847
387.172289	53.332191
387.607188	53.252764
388.042075	52.909418
388.476951	52.947207
388.911815	52.901256
389.346668	52.422907
389.781509	52.479932
390.216338	52.569304
390.651157	52.451270
391.085963	52.535105
391.520758	52.696326
391.955541	52.866992
392.390313	52.853785
392.825073	53.248172
393.259821	53.289198
393.694558	53.513695
394.129283	53.377871
394.563996	53.057824
394.998698	53.682203
395.433388	53.535312
395.868066	53.263600
396.302732	53.231565
396.737386	53.424377
397.172029	53.145486
397.606659	52.828663
398.041278	52.415836
398.475885	52.445857
398.910480	52.218551
399.345063	51.663809
399.779634	51.248463
400.214194	50.565483
400.648741	49.575081
401.083276	48.852731
401.517799	48.076789
401.952310	46.814339
402.386809	45.361799
402.821296	43.819136
403.255771	42.018036
403.690234	40.317361
404.124684	38.674196
404.559123	36.835877
404.993549	34.925830
405.427963	33.245889
405.862365	31.568032
406.296754	30.064321
406.731131	28.423621
407.165496	27.039330
407.599849	25.843233
408.034190	24.489650
408.468518	23.249192
408.902833	22.180557
409.337137	21.249187
409.771428	20.288764
410.205706	19.392715
410.639973	18.607408
411.074226	17.900531
411.508467	17.277579
411.942696	16.686132
412.376912	16.251666
412.811116	15.844704
413.245307	15.497643
413.679486	15.178284
414.113652	14.881390
414.547805	14.636687
414.981946	14.413964
415.416074	14.223614
415.850190	14.060457
416.284293	13.876943
416.718383	13.737751
417.152460	13.644839
417.586525	13.555129
418.020577	13.496692
418.454616	13.467084
418.888643	13.426828
419.322656	13.394968
419.756657	13.334511
420.190645	13.268936
420.624620	13.197966
421.058582	13.138578
421.492531	13.127426
421.926468	13.088501
422.360391	13.085112
422.794301	13.114676
423.228199	13.167633
423.662083	13.234023
424.095955	13.336754
424.529813	13.432325
424.963658	13.561994
425.397491	13.662224
425.831310	13.746130
426.265116	13.841264
426.698909	13.913503
427.132689	14.006421
427.566455	14.114919
428.000209	14.196995
428.433949	14.278242
428.867676	14.401198
429.301389	14.524478
429.735090	14.667329
430.168777	14.789835
430.602451	14.886599
431.036111	14.958901
431.469759	15.014615
431.903392	15.049205
432.337013	15.083032
432.770620	15.144875
433.204213	15.214075
433.637794	15.325674
434.071360	15.436647
434.504914	15.571434
434.938453	15.737283
435.371979	15.902063
435.805492	16.072561
436.238991	16.224514
436.672477	16.376048
437.105949	16.525421
437.539407	16.622883
437.972852	16.718620
438.406283	16.781243
438.839700	16.865164
439.273104	16.958811
439.706494	17.045663
440.139871	17.177242
440.573233	17.301184
441.006582	17.414606
441.439917	17.544424
441.873238	17.647764
442.306546	17.719618
442.739839	17.782912
443.173119	17.817383
443.606385	17.833549
444.039636	17.850329
444.472874	17.871040
444.906099	17.908350
445.339309	17.958698
445.772505	18.038086
446.205687	18.130769
446.638855	18.252323
447.072009	18.371349
447.505149	18.511581
447.938275	18.649204
448.371387	18.782155
448.804485	18.882349
449.237569	18.989803
449.670638	19.078786
450.103694	19.145860
450.536735	19.179807
450.969762	19.246958
451.402774	19.298783
451.835773	19.372376
452.268757	19.450846
452.701727	19.545964
453.134683	19.651220
453.567624	19.732375
454.000551	19.819217
454.433464	19.908369
454.866362	19.954345
455.299246	20.003835
455.732116	20.032627
456.164971	20.059681
456.597811	20.074326
457.030638	20.104620
457.463449	20.137400
457.896246	20.179028
458.329029	20.218547
458.761797	20.271033
459.194551	20.326868
459.627290	20.389382
460.060014	20.442674
460.492724	20.518618
460.925419	20.577845
461.358099	20.646402
461.790765	20.712123
462.223416	20.777511
462.656052	20.819895
463.088674	20.849753
463.521281	20.873340
463.953873	20.887900
464.386450	20.902368
464.819012	20.925961
465.251560	20.954320
465.684093	20.996952
466.116611	21.041615
466.549114	21.091525
466.981602	21.153146
467.414075	21.213028
467.846533	21.262017
468.278977	21.332803
468.711405	21.380980
469.143818	21.429844
469.576216	21.461657
470.008600	21.493013
470.440968	21.495702
470.873321	21.487080
471.305659	21.469742
471.737982	21.435337
472.170289	21.391714
472.602582	21.336482
473.034859	21.269053
473.467122	21.218622
473.899369	21.153659
474.331600	21.104857
474.763817	21.062559
475.196018	21.017967
475.628204	21.007294
476.060375	21.003790
476.492530	20.991517
476.924670	20.978733
477.356795	20.960188
477.788904	20.910281
478.220998	20.845118
478.653076	20.754817
479.085139	20.642418
479.517186	20.516279
479.949219	20.390865
480.381235	20.263789
480.813236	20.148493
481.245221	20.060049
481.677191	19.979679
482.109146	19.914607
482.541084	19.858888
482.973008	19.814488
483.404915	19.775871
483.836807	19.720336
484.268683	19.656299
484.700544	19.582348
485.132388	19.504356
485.564217	19.391351
485.996031	19.266426
486.427828	19.131138
486.859610	18.972676
487.291376	18.810076
487.723126	18.645639
488.154860	18.480093
488.586579	18.338262
489.018281	18.209270
489.449968	18.108856
489.881639	18.067236
490.313293	18.060369
490.744932	18.096597
491.176555	18.163864
491.608162	18.261370
492.039753	18.365326
492.471328	18.482168
492.902886	18.589466
493.334429	18.683829
493.765956	18.765057
494.197466	18.840409
494.628960	18.913021
495.060439	18.989374
495.491901	19.098908
495.923347	19.234936
496.354776	19.399818
496.786190	19.603891
497.217587	19.868126
497.648968	20.166487
498.080332	20.480563
498.511681	20.804759
498.943013	21.165066
499.374328	21.516145
499.805628	21.850713
500.236911	22.181893
500.668177	22.502097
501.099427	22.807129
501.530661	23.080405
501.961878	23.326413
502.393079	23.544651
502.824264	23.739106
503.255431	23.906931
503.686583	24.059940
504.117717	24.202594
504.548835	24.347064
504.979937	24.508808
505.411022	24.706916
505.842090	24.933927
506.273142	25.192788
506.704177	25.488681
507.135195	25.795926
507.566197	26.118437
507.997182	26.435107
508.428150	26.731473
508.859102	27.002937
509.290036	27.221777
509.720954	27.395107
510.151855	27.530431
510.582739	27.622627
511.013607	27.699701
511.444457	27.775600
511.875291	27.864542
512.306107	27.969211
512.736907	28.111486
513.167690	28.279784
513.598456	28.484595
514.029205	28.705252
514.459936	28.941155
514.890651	29.180856
515.321349	29.417045
515.752030	29.635268
516.182693	29.810557
516.613340	29.954921
517.043969	30.048712
517.474582	30.097306
517.905177	30.088796
518.335755	30.020389
518.766315	29.899200
519.196859	29.725110
519.627385	29.493155
520.057894	29.224725
520.488386	28.941738
520.918860	28.636901
521.349318	28.331386
521.779757	28.047365
522.210180	27.793619
522.640585	27.578662
523.070973	27.421416
523.501343	27.302360
523.931696	27.226433
524.362031	27.177109
524.792349	27.154426
525.222650	27.143004
525.652933	27.115541
526.083198	27.074432
526.513446	27.017868
526.943677	26.928587
527.373890	26.807517
527.804085	26.659936
528.234262	26.508544
528.664422	26.343750
529.094565	26.185459
529.524689	26.051754
529.954796	25.927429
530.384885	25.824337
530.814957	25.746199
531.245011	25.698281
531.675047	25.656647
532.105065	25.629870
532.535065	25.606768
532.965048	25.591903
533.395013	25.556643
533.824959	25.508836
534.254888	25.449236
534.684799	25.358887
535.114693	25.246558
535.544568	25.097628
535.974425	24.926621
536.404264	24.722407
536.834086	24.492748
537.263889	24.233900
537.693674	23.964067
538.123441	23.680858
538.553190	23.398402
538.982921	23.128758
539.412634	22.877898
539.842329	22.656229
540.272006	22.471472
540.701664	22.340447
541.131304	22.254431
541.560926	22.210858
541.990530	22.216071
542.420116	22.273926
542.849683	22.354405
543.279232	22.483022
543.708763	22.648851
544.138275	22.831862
544.567769	23.035587
544.997245	23.258652
545.426702	23.485115
545.856141	23.713891
546.285562	23.950045
546.714964	24.190267
547.144347	24.435790
547.573713	24.681999
548.003059	24.940210
548.432387	25.193082
548.861697	25.450875
549.290988	25.699596
549.720260	25.945705
550.149514	26.185399
550.578750	26.419831
551.007966	26.627676
551.437164	26.809441
551.866344	26.962181
552.295504	27.076014
552.724646	27.140322
553.153769	27.166407
553.582874	27.141744
554.011960	27.058988
554.441027	26.919168
554.870075	26.733307
555.299104	26.497571
555.728115	26.214101
556.157106	25.912311
556.586079	25.570480
557.015033	25.208781
557.443968	24.841374
557.872884	24.483755
558.301781	24.142713
558.730659	23.820654
559.159518	23.530523
559.588358	23.275942
560.017180	23.072126
560.445982	22.914629
560.874765	22.801760
561.303528	22.744743
561.732273	22.731881
562.160999	22.766305
562.589705	22.855694
563.018393	22.977439
563.447061	23.140613
563.875710	23.335217
564.304340	23.572438
564.732950	23.841359
565.161542	24.124303
565.590114	24.428370
566.018666	24.748247
566.447200	25.067710
566.875714	25.393906
567.304208	25.714281
567.732684	26.034214
568.161140	26.349024
568.589576	26.659890
569.017993	26.960700
569.446391	27.241262
569.874769	27.518238
570.303128	27.784350
570.731467	28.036294
571.159787	28.264533
571.588087	28.479632
572.016368	28.677788
572.444629	28.849377
572.872870	28.991339
573.301092	29.098541
573.729294	29.162934
574.157476	29.184116
574.585639	29.144280
575.013782	29.053843
575.441906	28.909562
575.870009	28.704414
576.298093	28.451037
576.726157	28.154592
577.154202	27.826695
577.582226	27.472672
578.010231	27.099712
578.438216	26.725879
578.866181	26.363555
579.294126	26.017517
579.722051	25.695211
580.149957	25.398963
580.577842	25.141988
581.005707	24.922137
581.433553	24.741234
581.861378	24.603594
582.289184	24.496018
582.716969	24.434482
583.144734	24.405381
583.572479	24.410502
584.000205	24.455530
584.427910	24.537970
584.855594	24.645942
585.283259	24.783072
585.710904	24.956837
586.138528	25.168482
586.566132	25.409871
586.993716	25.684418
587.421280	25.994306
587.848823	26.324536
588.276346	26.690193
588.703849	27.068034
589.131332	27.469142
589.558794	27.886003
589.986236	28.311789
590.413657	28.739024
590.841058	29.158041
591.268438	29.582962
591.695799	30.001715
592.123138	30.410936
592.550458	30.806847
592.977756	31.197614
593.405034	31.576770
593.832292	31.945379
594.259529	32.305783
594.686746	32.638006
595.113942	32.948906
595.541117	33.231552
595.968272	33.482926
596.395406	33.692078
596.822519	33.861088
597.249612	33.974422
597.676684	34.030073
598.103735	34.026987
598.530766	33.970298
598.957775	33.850681
599.384764	33.674252
599.811733	33.448212
600.238680	33.179679
600.665606	32.868880
601.092512	32.545907
601.519397	32.197097
601.946261	31.858853
602.373104	31.523042
602.799926	31.200492
603.226727	30.899000
603.653507	30.629353
604.080266	30.391244
604.507004	30.183830
604.933721	30.012606
605.360417	29.881732
605.787092	29.791863
606.213746	29.741215
606.640379	29.725670
607.066991	29.749699
607.493581	29.811097
607.920150	29.917856
608.346699	30.059697
608.773226	30.245049
609.199731	30.472645
609.626216	30.741159
610.052679	31.043847
610.479121	31.392460
610.905542	31.769139
611.331941	32.178302
611.758319	32.608238
612.184676	33.062393
612.611011	33.523320
613.037325	33.989504
613.463617	34.451789
613.889888	34.894602
614.316138	35.308787
614.742366	35.703579
615.168573	36.057258
615.594758	36.375317
616.020921	36.660930
616.447063	36.908479
616.873184	37.122110
617.299283	37.306604
617.725360	37.463542
618.151416	37.590267
618.577450	37.693537
619.003462	37.777126
619.429453	37.837236
619.855422	37.879547
620.281369	37.904326
620.707295	37.901683
621.133199	37.881082
621.559081	37.834236
621.984941	37.775039
622.410779	37.682588
622.836596	37.562551
623.262391	37.424013
623.688163	37.250543
624.113914	37.064967
624.539644	36.868236
624.965351	36.659503
625.391036	36.437958
625.816699	36.215687
626.242340	35.995260
626.667960	35.779276
627.093557	35.578332
627.519132	35.391151
627.944685	35.215695
628.370216	35.059210
628.795725	34.912399
629.221212	34.769394
629.646677	34.631225
630.072119	34.487475
630.497540	34.344614
630.922938	34.183683
631.348314	34.015294
631.773668	33.825465
632.198999	33.609615
632.624308	33.376603
633.049595	33.130381
633.474860	32.861286
633.900102	32.588651
634.325322	32.304599
634.750520	32.027697
635.175695	31.743765
635.600848	31.474948
636.025978	31.221553
636.451086	30.991015
636.876171	30.791017
637.301234	30.621591
637.726275	30.476529
638.151293	30.369571
638.576288	30.304253
639.001261	30.285550
639.426211	30.299420
639.851139	30.344622
640.276044	30.437145
640.700927	30.561018
641.125787	30.719516
641.550624	30.903408
641.975438	31.118288
642.400230	31.356218
642.824999	31.609045
643.249745	31.888138
643.674469	32.189593
644.099169	32.512011
644.523847	32.841026
644.948502	33.197368
645.373135	33.584853
645.797744	33.983664
646.222330	34.403543
646.646894	34.834783
647.071435	35.272306
647.495953	35.716455
647.920447	36.155282
648.344919	36.591001
648.769368	37.009975
649.193794	37.406108
649.618197	37.765697
650.042576	38.092522
650.466933	38.382552
650.891267	38.627039
651.315577	38.825818
651.739864	38.978092
652.164129	39.070310
652.588370	39.123603
653.012587	39.130588
653.436782	39.078744
653.860953	38.999605
654.285102	38.878357
654.709226	38.725066
655.133328	38.543776
655.557406	38.351024
655.981461	38.153134
656.405493	37.945778
656.829501	37.721440
657.253486	37.493779
657.677448	37.275021
658.101386	37.050624
658.525301	36.822121
658.949192	36.602294
659.373060	36.384947
659.796904	36.180845
660.220725	35.980637
660.644522	35.798846
661.068296	35.636644
661.492046	35.490214
661.915772	35.378381
662.339475	35.312942
662.763154	35.294283
663.186810	35.322158
663.610442	35.406903
664.034050	35.559939
664.457635	35.768682
664.881196	36.041222
665.304733	36.378322
665.728247	36.775591
666.151736	37.234555
666.575202	37.751798
666.998644	38.307137
667.422062	38.911476
667.845457	39.549256
668.268827	40.206174
668.692174	40.879772
669.115496	41.549058
669.538795	42.210918
669.962070	42.861668
670.385321	43.487560
670.808547	44.079074
671.231750	44.623658
671.654929	45.119358
672.078084	45.572157
672.501214	45.953545
672.924321	46.273404
673.347404	46.543774
673.770462	46.756496
674.193496	46.909335
674.616506	47.013363
675.039492	47.059379
675.462454	47.048928
675.885391	46.981842
676.308305	46.868617
676.731194	46.703972
677.154058	46.497960
677.576899	46.259630
677.999715	45.987759
678.422507	45.675029
678.845274	45.333360
679.268017	44.980958
679.690736	44.600197
680.113430	44.209101
680.536100	43.799801
680.958746	43.384487
681.381367	42.964342
681.803963	42.554500
682.226535	42.152946
682.649083	41.759252
683.071605	41.381440
683.494104	41.022062
683.916578	40.689878
684.339027	40.377971
684.761451	40.102194
685.183851	39.846452
685.606227	39.621413
686.028577	39.421115
686.450903	39.247445
686.873204	39.085853
687.295481	38.944411
687.717733	38.822197
688.139959	38.717579
688.562162	38.616183
688.984339	38.528286
689.406492	38.452443
689.828619	38.380954
690.250722	38.299229
690.672800	38.211812
691.094853	38.112120
691.516881	38.017288
691.938884	37.910165
692.360863	37.782763
692.782816	37.657344
693.204744	37.512483
693.626647	37.368328
694.048526	37.219862
694.470379	37.075131
694.892207	36.929513
695.314010	36.793052
695.735788	36.672808
696.157540	36.564031
696.579268	36.470924
697.000970	36.399358
697.422648	36.357289
697.844300	36.335040
698.265926	36.334568
698.687528	36.367219
699.109104	36.429674
699.530655	36.506612
699.952181	36.612013
700.373681	36.748114
700.795156	36.902695
701.216606	37.072486
701.638030	37.266588
702.059429	37.464291
702.480803	37.663910
702.902151	37.862861
703.323473	38.064515
703.744770	38.259260
704.166042	38.451248
704.587288	38.628641
705.008509	38.791654
705.429704	38.949079
705.850873	39.086303
706.272017	39.225162
706.693135	39.344797
707.114228	39.460944
707.535295	39.575905
707.956336	39.676643
708.377352	39.777970
708.798342	39.864402
709.219306	39.954385
709.640245	40.054557
710.061157	40.146533
710.482044	40.239505
710.902905	40.337281
711.323741	40.437442
711.744550	40.536727
712.165334	40.637147
712.586092	40.740932
713.006823	40.848903
713.427529	40.952823
713.848209	41.059077
714.268863	41.167073
714.689492	41.262987
715.110094	41.365828
715.530670	41.469726
715.951220	41.579857
716.371744	41.696689
716.792242	41.823669
717.212714	41.939945
717.633159	42.069871
718.053579	42.207022
718.473973	42.333765
718.894340	42.465766
719.314681	42.588118
719.734996	42.710982
720.155285	42.820960
720.575547	42.914773
720.995784	42.999238
721.415994	43.060425
721.836177	43.103187
722.256335	43.116681
722.676466	43.091415
723.096570	43.044116
723.516649	42.970195
723.936701	42.863260
724.356726	42.723169
724.776725	42.556236
725.196698	42.363224
725.616644	42.149205
726.036564	41.915465
726.456457	41.668376
726.876324	41.414296
727.296164	41.151159
727.715977	40.896836
728.135764	40.646934
728.555525	40.397542
728.975258	40.159182
729.394966	39.936743
729.814646	39.722551
730.234300	39.542514
730.653927	39.374165
731.073527	39.228496
731.493101	39.124568
731.912648	39.046828
732.332168	39.009883
732.751661	39.004598
733.171128	39.035757
733.590568	39.107067
734.009980	39.210538
734.429366	39.347427
734.848726	39.517148
735.268058	39.717875
735.687363	39.948352
736.106641	40.202691
736.525893	40.469268
736.945117	40.740996
737.364314	41.022691
737.783485	41.307856
738.202628	41.587745
738.621744	41.856793
739.040834	42.111291
739.459896	42.347673
739.878931	42.555107
740.297939	42.730621
740.716919	42.881213
741.135873	42.993896
741.554799	43.071876
741.973698	43.110143
742.392570	43.101184
742.811415	43.054864
743.230232	42.966529
743.649022	42.848515
744.067785	42.693907
744.486521	42.489759
744.905229	42.254520
745.323909	41.984951
745.742563	41.690656
746.161189	41.362281
746.579787	41.012840
746.998358	40.638532
747.416902	40.235995
747.835418	39.827230
748.253907	39.404943
748.672368	38.969105
749.090802	38.527784
749.509208	38.084724
749.927586	37.656319
750.345937	37.238472
750.764261	36.825968
751.182556	36.441798
751.600824	36.072696
752.019065	35.730255
752.437277	35.408830
752.855462	35.120205
753.273620	34.874409
753.691749	34.653765
754.109851	34.470392
754.527925	34.326876
754.945971	34.221085
755.363989	34.160469
755.781980	34.131586
756.199943	34.137044
756.617877	34.167421
757.035784	34.228943
757.453663	34.325023
757.871514	34.440672
758.289337	34.577275
758.707132	34.724212
759.124899	34.887997
759.542639	35.058726
759.960350	35.244824
760.378033	35.441889
760.795688	35.635925
761.213314	35.833363
761.630913	36.036685
762.048484	36.234494
762.466026	36.434276
762.883541	36.631247
763.301027	36.833338
763.718485	37.036130
764.135914	37.229943
764.553316	37.435724
764.970689	37.630910
765.388034	37.818556
765.805351	38.002464
766.222639	38.179680
766.639899	38.360886
767.057131	38.553451
767.474334	38.747315
767.891509	38.950422
768.308655	39.152019
768.725773	39.370933
769.142863	39.607710
769.559924	39.854330
769.976957	40.110248
770.393961	40.377654
770.810936	40.668349
771.227883	40.967996
771.644802	41.284337
772.061692	41.632599
772.478553	41.988360
772.895386	42.349330
773.312190	42.739511
773.728965	43.150193
774.145712	43.574941
774.562430	44.003417
774.979119	44.455041
775.395780	44.909446
775.812411	45.363649
776.229014	45.803619
776.645589	46.243091
777.062134	46.665272
777.478651	47.056191
777.895138	47.439570
778.311597	47.808729
778.728027	48.150557
779.144428	48.469042
779.560800	48.747103
779.977143	48.983518
780.393458	49.185456
780.809743	49.336708
781.225999	49.435934
781.642226	49.483044
782.058425	49.461244
782.474594	49.386155
782.890734	49.256725
783.306845	49.073326
783.722926	48.815897
784.138979	48.508913
784.555003	48.141808
784.970997	47.711281
785.386962	47.233294
785.802898	46.712422
786.218805	46.146625
786.634682	45.541345
787.050531	44.899574
787.466349	44.258705
787.882139	43.583606
788.297899	42.914536
788.713630	42.252792
789.129332	41.618574
789.545004	40.997015
789.960647	40.406951
790.376260	39.875863
790.791844	39.384223
791.207399	38.934398
791.622924	38.539999
792.038419	38.192191
792.453885	37.918074
792.869321	37.698468
793.284728	37.551474
793.700106	37.475409
794.115453	37.479722
794.530771	37.548045
794.946060	37.692831
795.361319	37.900005
795.776548	38.168244
796.191747	38.481313
796.606917	38.861882
797.022057	39.272268
797.437167	39.729605
797.852248	40.217009
798.267298	40.743350
798.682319	41.297703
799.097310	41.859907
799.512271	42.434768
799.927203	43.027825
800.342104	43.605433
800.756976	44.186108
801.171818	44.745968
801.586629	45.287023
802.001411	45.796776
802.416163	46.281980
802.830885	46.746595
803.245577	47.168964
803.660238	47.550991
804.074870	47.895523
804.489472	48.207275
804.904043	48.472150
805.318585	48.704140
805.733096	48.891902
806.147577	49.029714
806.562028	49.136715
806.976449	49.204399
807.390840	49.230405
807.805200	49.210491
808.219530	49.165620
808.633830	49.082230
809.048100	48.986975
809.462339	48.867263
809.876548	48.733661
810.290727	48.588497
810.704875	48.428231
811.118993	48.258928
811.533080	48.078360
811.947137	47.908020
812.361164	47.735441
812.775160	47.554374
813.189126	47.378085
813.603061	47.201449
814.016966	47.037927
814.430840	46.894869
814.844684	46.760649
815.258497	46.646512
815.672280	46.541363
816.086032	46.461780
816.499753	46.379739
816.913444	46.324683
817.327104	46.279142
817.740733	46.258594
818.154331	46.241490
818.567899	46.256560
818.981436	46.282597
819.394943	46.311870
819.808418	46.355277
820.221863	46.418358
820.635277	46.486836
821.048660	46.560464
821.462013	46.655889
821.875334	46.745867
822.288625	46.833520
822.701884	46.925996
823.115113	47.015675
823.528311	47.115464
823.941478	47.189060
824.354614	47.267008
824.767718	47.325439
825.180792	47.362659
825.593835	47.389713
826.006847	47.392449
826.419827	47.379070
826.832777	47.341032
827.245695	47.251670
827.658582	47.140156
828.071438	46.987845
828.484263	46.799790
828.897057	46.568899
829.309819	46.339710
829.722551	46.080670
830.135251	45.778384
830.547919	45.460344
830.960557	45.120306
831.373163	44.749937
831.785738	44.379809
832.198281	44.016750
832.610793	43.640750
833.023274	43.273778
833.435723	42.908372
833.848141	42.551271
834.260528	42.218611
834.672883	41.893383
835.085206	41.598068
835.497498	41.333244
835.909758	41.103523
836.321987	40.895704
836.734185	40.740318
837.146350	40.605300
837.558485	40.528862
837.970587	40.491628
838.382658	40.486764
838.794697	40.535064
839.206705	40.617263
839.618681	40.730963
840.030625	40.910770
840.442538	41.118452
840.854418	41.363285
841.266267	41.646482
841.678084	41.983768
842.089870	42.341126
842.501623	42.703750
842.913345	43.119258
843.325035	43.552440
843.736693	44.006325
844.148319	44.488005
844.559913	44.985361
844.971475	45.470506
845.383005	45.966450
845.794504	46.455556
846.205970	46.967122
846.617404	47.466914
847.028806	47.945933
847.440176	48.423614
847.851514	48.884446
848.262820	49.313546
848.674094	49.715437
849.085336	50.087754
849.496546	50.425322
849.907723	50.732308
850.318868	50.980163
850.729981	51.203385
851.141062	51.400765
851.552110	51.546229
851.963127	51.654094
852.374111	51.739294
852.785062	51.751167
853.195982	51.739639
853.606869	51.692440
854.017723	51.598104
854.428546	51.451761
854.839336	51.259273
855.250093	51.070811
855.660818	50.808419
856.071511	50.523621
856.482171	50.212477
856.892799	49.855036
857.303394	49.453355
857.713956	49.025136
858.124486	48.590634
858.534984	48.111163
858.945449	47.591439
859.355881	47.054950
859.766280	46.501221
860.176647	45.934194
860.586982	45.345871
860.997283	44.764077
861.407552	44.166076
861.817789	43.577773
862.227992	42.997453
862.638163	42.424534
863.048301	41.854440
863.458406	41.294596
863.868478	40.750000
864.278518	40.222267
864.688524	39.705934
865.098498	39.227550
865.508439	38.770587
865.918347	38.339700
866.328222	37.939566
866.738064	37.592982
867.147873	37.274549
867.557649	37.001906
867.967392	36.753440
868.377102	36.548505
868.786779	36.377625
869.196423	36.253936
869.606034	36.171413
870.015612	36.142441
870.425156	36.148063
870.834668	36.188936
871.244146	36.279972
871.653591	36.394631
872.063003	36.553634
872.472382	36.731547
872.881728	36.934829
873.291040	37.166178
873.700319	37.403777
874.109564	37.651154
874.518777	37.900234
874.927956	38.161362
875.337102	38.430204
875.746214	38.706006
876.155293	38.962692
876.564338	39.206497
876.973350	39.442616
877.382329	39.660277
877.791274	39.844530
878.200186	40.030061
878.609064	40.171686
879.017909	40.300874
879.426720	40.393434
879.835497	40.441246
880.244241	40.473786
880.652952	40.473227
881.061629	40.471494
881.470272	40.426333
881.878881	40.337001
882.287457	40.243585
882.695999	40.125160
883.104507	39.993065
883.512982	39.842703
883.921423	39.684472
884.329830	39.548937
884.738203	39.386990
885.146543	39.231434
885.554849	39.084401
885.963120	38.921951
886.371358	38.799175
886.779563	38.696898
887.187733	38.610230
887.595869	38.530770
888.003971	38.473283
888.412040	38.440995
888.820074	38.446787
889.228074	38.471789
889.636041	38.535575
890.043973	38.621680
890.451871	38.739376
890.859736	38.870302
891.267566	39.037598
891.675362	39.233824
892.083124	39.446083
892.490851	39.697196
892.898545	39.959760
893.306204	40.217641
893.713829	40.477314
894.121420	40.773416
894.528977	41.073077
894.936499	41.368378
895.343987	41.655047
895.751441	41.951783
896.158860	42.224603
896.566246	42.477839
896.973596	42.681627
897.380913	42.913054
897.788195	43.089425
898.195442	43.239555
898.602655	43.404863
899.009834	43.509451
899.416978	43.588953
899.824088	43.632311
900.231163	43.655999
900.638204	43.631137
901.045210	43.570208
901.452181	43.463411
901.859118	43.314974
902.266021	43.134155
902.672888	42.931710
903.079721	42.701788
903.486520	42.443897
903.893283	42.162346
904.300012	41.845450
904.706707	41.514535
905.113366	41.141843
905.519991	40.777629
905.926581	40.429943
906.333136	40.055566
906.739656	39.670259
907.146142	39.290396
907.552592	38.911574
907.959008	38.535067
908.365389	38.168844
908.771735	37.798981
909.178046	37.461579
909.584322	37.146106
909.990563	36.809629
910.396769	36.509205
910.802940	36.222192
911.209076	35.927539
911.615177	35.655242
912.021243	35.398176
912.427274	35.149703
912.833270	34.897376
913.239231	34.667266
913.645156	34.435424
914.051046	34.224572
914.456902	34.046912
914.862721	33.867899
915.268506	33.696960
915.674256	33.541384
916.079970	33.405404
916.485649	33.272924
916.891292	33.144963
917.296901	33.006705
917.702474	32.892910
918.108011	32.787658
918.513514	32.686143
918.918980	32.595135
919.324412	32.511182
919.729808	32.421829
920.135169	32.362129
920.540494	32.287859
920.945783	32.223701
921.351037	32.197510
921.756256	32.164617
922.161439	32.116184
922.566586	32.076819
922.971698	32.070373
923.376775	32.054446
923.781815	32.046000
924.186820	32.036040
924.591790	32.028152
924.996723	32.029696
925.401621	32.056546
925.806484	32.063894
926.211310	32.087845
926.616101	32.102149
927.020856	32.118108
927.425575	32.115137
927.830259	32.137494
928.234906	32.139287
928.639518	32.148849
929.044094	32.156731
929.448634	32.175585
929.853138	32.182360
930.257606	32.183581
930.662038	32.181459
931.066434	32.152295
931.470795	32.140391
931.875119	32.124816
932.279407	32.133446
932.683659	32.120504
933.087875	32.110145
933.492055	32.083426
933.896199	32.028799
934.300307	31.958347
934.704379	31.923173
935.108414	31.877795
935.512414	31.802154
935.916377	31.722017
936.320304	31.652152
936.724195	31.558988
937.128049	31.486747
937.531867	31.404294
937.935649	31.291746
938.339395	31.181778
938.743104	31.071440
939.146777	30.997873
939.550414	30.891318
939.954014	30.786570
940.357578	30.670865
940.761105	30.553529
941.164596	30.405567
941.568050	30.287630
941.971468	30.132946
942.374850	30.032578
942.778195	29.909914
943.181503	29.785712
943.584775	29.684343
943.988010	29.553822
944.391209	29.423824
944.794371	29.290002
945.197496	29.150679
945.600585	29.021044
946.003637	28.905840
946.406653	28.776978
946.809632	28.657176
947.212574	28.536211
947.615479	28.412415
948.018347	28.292617
948.421179	28.177662
948.823974	28.061122
949.226732	27.996699
949.629453	27.866492
950.032138	27.767912
950.434785	27.660218
950.837396	27.580994
951.239969	27.478149
951.642506	27.345051
952.045006	27.227036
952.447469	27.140384
952.849895	27.030070
953.252283	26.919583
953.654635	26.819549
954.056950	26.714252
954.459227	26.634502
954.861468	26.516196
955.263671	26.402488
955.665838	26.295718
956.067967	26.165190
956.470059	26.070303
956.872114	25.976909
957.274131	25.868400
957.676112	25.761373
958.078055	25.679606
958.479961	25.564849
958.881829	25.460244
959.283661	25.368639
959.685455	25.283743
960.087211	25.161970
960.488931	25.057882
960.890613	24.989389
961.292257	24.874834
961.693864	24.766749
962.095434	24.648317
962.496966	24.548959
962.898461	24.469237
963.299918	24.398853
963.701338	24.314926
964.102720	24.230997
964.504065	24.165428
964.905372	24.062570
965.306641	23.966187
965.707873	23.918063
966.109068	23.872049
966.510224	23.823859
966.911343	23.754741
967.312425	23.690860
967.713468	23.674042
968.114474	23.594441
968.515442	23.574333
968.916373	23.523379
969.317265	23.476907
969.718120	23.405413
970.118937	23.402315
970.519716	23.375034
970.920458	23.338935
971.321161	23.323024
971.721827	23.297713
972.122454	23.257645
972.523044	23.244283
972.923596	23.236021
973.324110	23.188872
973.724585	23.197196
974.125023	23.113879
974.525423	23.121476
974.925785	23.097860
975.326108	23.064107
975.726394	22.952717
976.126642	22.864782
976.526851	22.822078
976.927022	22.794534
977.327155	22.773880
977.727250	22.748690
978.127307	22.652626
978.527325	22.627836
978.927306	22.562561
979.327248	22.490559
979.727151	22.446119
980.127017	22.375959
980.526844	22.332376
980.926633	22.238837
981.326383	22.199680
981.726095	22.140721
982.125769	22.096621
982.525404	21.985708
982.925001	21.848800
983.324560	21.748102
983.724079	21.611233
984.123561	21.547358
984.523004	21.473238
984.922408	21.423072
985.321774	21.314847
985.721102	21.191405
986.120390	21.068071
986.519641	21.092064
986.918852	20.947806
987.318025	20.829714
987.717159	20.743163
988.116255	20.810455
988.515312	20.847074
988.914330	20.872507
989.313310	20.810845
989.712250	20.741663
990.111152	20.741935
990.510015	20.747559
990.908840	20.693542
991.307625	20.702214
991.706372	20.784472
992.105080	20.785121
992.503749	20.785410
992.902379	20.871631
993.300970	20.931378
993.699522	20.947245
994.098035	20.947846
994.496510	21.012120
994.894945	21.048178
995.293341	21.210690
995.691698	21.310353
996.090016	21.490686
996.488296	21.571603
996.886535	21.732945
997.284736	21.873965
997.682898	21.959856
998.081021	22.132322
998.479104	22.250059
998.877148	22.376338
999.275153	22.676387
999.673119	22.827434
1000.071046	23.034551
1000.468933	23.198878
1000.866781	23.319944
1001.264590	23.601554
1001.662359	23.681145
1002.060089	23.990244
1002.457780	24.178759
1002.855431	24.399636
1003.253043	24.557206
1003.650615	24.859171
1004.048148	24.926591
1004.445642	25.131957
1004.843096	25.421123
1005.240511	25.615557
1005.637886	25.772419
1006.035221	26.234568
1006.432517	26.674961
1006.829774	27.026818
1007.226991	27.432959
1007.624168	27.784593
1008.021306	28.066868
1008.418404	28.470103
1008.815462	28.870477
1009.212481	29.156474
1009.609460	29.542283
1010.006399	30.224649
1010.403298	30.751809
1010.800158	31.494590
1011.196978	31.929312
1011.593758	32.450544
1011.990498	33.099989
1012.387199	33.647353
1012.783860	34.150899
1013.180480	34.671226
1013.577061	34.818666
1013.973602	35.627711
1014.370103	36.245976
1014.766564	36.671290
1015.162985	37.206581
1015.559366	37.783259
1015.955708	37.798031
1016.352009	38.410027
1016.748270	39.051426
1017.144491	39.450867
1017.540671	39.985687
1017.936812	40.763226
1018.332913	40.839518
1018.728973	41.145189
1019.124994	41.693038
1019.520974	42.049320
1019.916914	42.415002
1020.312814	43.066777
