Time1=100ms:Average1=5:Objective=10X:Aperture=1: (11/21/2018 2:12:12 PM)
11/21/2018 2:12:12 PM
Reflectance
10X
Ap#: 1
Avg1: 5.000000
Avg2: 0.000000
Int.Time1:100.000000

350.166136	71.287773
350.601937	70.559938
351.037728	70.238212
351.473509	70.833333
351.909281	71.058315
352.345042	70.968698
352.780794	70.378048
353.216536	70.333366
353.652267	70.251535
354.087989	70.092070
354.523701	70.209403
354.959403	70.081927
355.395095	70.218660
355.830777	70.170230
356.266449	69.818218
356.702110	69.570782
357.137762	69.373345
357.573404	69.459142
358.009035	69.005676
358.444656	69.271497
358.880268	69.136164
359.315869	69.105294
359.751459	68.859992
360.187040	68.970229
360.622610	69.097154
361.058170	68.425197
361.493720	68.085945
361.929260	67.957539
362.364789	68.224022
362.800308	67.966353
363.235816	68.043778
363.671314	67.476636
364.106802	67.853630
364.542279	67.468217
364.977746	67.132867
365.413203	67.155164
365.848649	66.801820
366.284084	66.663364
366.719509	66.709448
367.154924	66.456009
367.590328	66.482813
368.025721	66.410408
368.461104	66.202332
368.896477	66.442355
369.331838	65.700769
369.767189	66.156278
370.202530	66.290019
370.637859	66.235060
371.073178	66.254857
371.508486	66.759582
371.943784	66.209774
372.379071	66.319031
372.814347	66.237751
373.249612	66.409343
373.684866	66.270195
374.120110	66.261728
374.555343	66.653469
374.990565	66.934205
375.425776	66.894502
375.860976	66.446003
376.296165	66.867292
376.731343	67.246491
377.166511	67.479917
377.601667	67.028093
378.036812	67.464539
378.471946	67.727631
378.907070	67.153356
379.342182	67.285700
379.777283	67.453708
380.212373	67.372757
380.647452	67.443911
381.082520	67.117117
381.517576	67.149003
381.952622	66.911551
382.387656	66.660272
382.822679	67.187201
383.257691	67.341096
383.692692	67.365212
384.127681	67.417118
384.562659	67.045778
384.997626	67.028814
385.432581	67.275653
385.867525	67.576046
386.302458	67.163047
386.737379	67.557797
387.172289	67.698443
387.607188	67.630880
388.042075	67.466239
388.476951	67.606830
388.911815	67.917607
389.346668	68.119202
389.781509	68.264540
390.216338	68.195862
390.651157	68.459452
391.085963	68.836643
391.520758	69.009465
391.955541	69.156963
392.390313	69.518567
392.825073	69.774590
393.259821	69.826547
393.694558	69.692479
394.129283	69.833488
394.563996	70.220248
394.998698	70.583874
395.433388	70.852395
395.868066	70.900066
396.302732	70.540465
396.737386	70.113552
397.172029	70.271275
397.606659	70.105283
398.041278	69.893461
398.475885	69.353661
398.910480	68.798773
399.345063	67.818190
399.779634	67.317416
400.214194	65.980447
400.648741	64.814426
401.083276	63.643459
401.517799	62.249750
401.952310	60.516834
402.386809	58.629090
402.821296	56.744387
403.255771	54.643189
403.690234	52.565404
404.124684	50.402012
404.559123	47.947090
404.993549	45.597476
405.427963	42.965965
405.862365	40.802740
406.296754	38.393832
406.731131	36.375313
407.165496	34.489012
407.599849	32.646917
408.034190	31.185246
408.468518	29.628372
408.902833	28.256550
409.337137	26.967723
409.771428	25.737041
410.205706	24.575196
410.639973	23.558248
411.074226	22.678290
411.508467	21.947853
411.942696	21.284110
412.376912	20.713609
412.811116	20.235605
413.245307	19.808501
413.679486	19.422111
414.113652	19.034072
414.547805	18.654732
414.981946	18.341993
415.416074	18.107092
415.850190	17.925684
416.284293	17.795996
416.718383	17.645872
417.152460	17.485564
417.586525	17.429571
418.020577	17.438134
418.454616	17.380202
418.888643	17.409594
419.322656	17.413340
419.756657	17.512327
420.190645	17.609023
420.624620	17.730565
421.058582	17.848312
421.492531	17.903094
421.926468	18.063167
422.360391	18.201593
422.794301	18.363881
423.228199	18.567942
423.662083	18.757366
424.095955	18.964351
424.529813	19.199300
424.963658	19.441400
425.397491	19.650366
425.831310	19.876512
426.265116	20.081717
426.698909	20.315830
427.132689	20.551318
427.566455	20.802310
428.000209	21.106767
428.433949	21.359815
428.867676	21.624890
429.301389	21.885393
429.735090	22.137980
430.168777	22.382508
430.602451	22.637415
431.036111	22.874541
431.469759	23.091999
431.903392	23.336215
432.337013	23.576489
432.770620	23.816218
433.204213	24.042149
433.637794	24.262497
434.071360	24.458672
434.504914	24.666595
434.938453	24.912606
435.371979	25.117371
435.805492	25.342527
436.238991	25.562668
436.672477	25.750995
437.105949	25.969538
437.539407	26.141209
437.972852	26.327220
438.406283	26.513890
438.839700	26.705863
439.273104	26.870600
439.706494	27.030240
440.139871	27.182571
440.573233	27.323388
441.006582	27.469277
441.439917	27.577991
441.873238	27.683122
442.306546	27.796616
442.739839	27.890153
443.173119	27.971138
443.606385	28.102371
444.039636	28.210671
444.472874	28.336102
444.906099	28.443658
445.339309	28.562525
445.772505	28.673060
446.205687	28.793394
446.638855	28.893403
447.072009	29.000866
447.505149	29.083508
447.938275	29.178116
448.371387	29.244900
448.804485	29.324294
449.237569	29.388411
449.670638	29.452082
450.103694	29.506959
450.536735	29.554461
450.969762	29.615436
451.402774	29.645315
451.835773	29.666091
452.268757	29.691871
452.701727	29.712233
453.134683	29.740656
453.567624	29.777525
454.000551	29.802512
454.433464	29.795924
454.866362	29.828203
455.299246	29.878495
455.732116	29.913981
456.164971	29.962383
456.597811	30.024540
457.030638	30.038703
457.463449	30.081422
457.896246	30.077604
458.329029	30.100064
458.761797	30.100056
459.194551	30.109099
459.627290	30.092633
460.060014	30.080138
460.492724	30.064221
460.925419	30.058433
461.358099	30.046980
461.790765	30.025802
462.223416	29.987930
462.656052	29.960076
463.088674	29.917159
463.521281	29.882672
463.953873	29.850171
464.386450	29.795902
464.819012	29.750226
465.251560	29.695045
465.684093	29.649834
466.116611	29.608568
466.549114	29.570888
466.981602	29.521348
467.414075	29.463222
467.846533	29.412077
468.278977	29.346474
468.711405	29.285879
469.143818	29.210121
469.576216	29.139275
470.008600	29.035753
470.440968	28.924495
470.873321	28.805377
471.305659	28.698668
471.737982	28.578763
472.170289	28.445492
472.602582	28.286949
473.034859	28.131734
473.467122	27.986782
473.899369	27.820501
474.331600	27.667928
474.763817	27.507990
475.196018	27.345940
475.628204	27.181478
476.060375	26.999085
476.492530	26.811401
476.924670	26.632144
477.356795	26.435570
477.788904	26.260707
478.220998	26.069843
478.653076	25.896704
479.085139	25.708186
479.517186	25.528705
479.949219	25.333613
480.381235	25.143117
480.813236	24.971502
481.245221	24.806910
481.677191	24.633538
482.109146	24.443235
482.541084	24.270999
482.973008	24.083881
483.404915	23.933992
483.836807	23.783249
484.268683	23.641152
484.700544	23.495510
485.132388	23.357561
485.564217	23.228291
485.996031	23.121249
486.427828	23.029546
486.859610	22.944125
487.291376	22.875165
487.723126	22.823417
488.154860	22.768052
488.586579	22.743723
489.018281	22.727472
489.449968	22.729591
489.881639	22.745393
490.313293	22.761593
490.744932	22.787094
491.176555	22.810533
491.608162	22.857898
492.039753	22.899302
492.471328	22.940436
492.902886	22.993736
493.334429	23.069606
493.765956	23.134967
494.197466	23.197445
494.628960	23.254423
495.060439	23.313622
495.491901	23.378308
495.923347	23.435194
496.354776	23.499353
496.786190	23.537196
497.217587	23.600562
497.648968	23.652636
498.080332	23.716489
498.511681	23.774206
498.943013	23.835458
499.374328	23.892138
499.805628	23.949711
500.236911	24.004260
500.668177	24.050057
501.099427	24.079637
501.530661	24.116596
501.961878	24.141846
502.393079	24.162958
502.824264	24.182684
503.255431	24.199186
503.686583	24.215349
504.117717	24.233281
504.548835	24.250410
504.979937	24.263803
505.411022	24.279560
505.842090	24.301678
506.273142	24.311618
506.704177	24.310097
507.135195	24.311190
507.566197	24.314605
507.997182	24.321145
508.428150	24.324811
508.859102	24.330617
509.290036	24.346923
509.720954	24.359871
510.151855	24.394615
510.582739	24.425218
511.013607	24.468478
511.444457	24.505839
511.875291	24.554905
512.306107	24.616815
512.736907	24.677807
513.167690	24.746914
513.598456	24.832409
514.029205	24.931315
514.459936	25.039101
514.890651	25.168722
515.321349	25.291677
515.752030	25.448513
516.182693	25.619786
516.613340	25.811701
517.043969	26.029908
517.474582	26.261063
517.905177	26.517774
518.335755	26.783927
518.766315	27.065659
519.196859	27.355127
519.627385	27.654049
520.057894	27.952375
520.488386	28.264698
520.918860	28.578002
521.349318	28.899581
521.779757	29.224448
522.210180	29.554486
522.640585	29.888747
523.070973	30.238832
523.501343	30.595379
523.931696	30.964701
524.362031	31.323794
524.792349	31.708584
525.222650	32.099784
525.652933	32.508480
526.083198	32.933029
526.513446	33.358251
526.943677	33.779875
527.373890	34.213398
527.804085	34.667989
528.234262	35.105912
528.664422	35.559024
529.094565	35.999512
529.524689	36.439498
529.954796	36.888091
530.384885	37.335669
530.814957	37.785473
531.245011	38.233593
531.675047	38.694199
532.105065	39.179254
532.535065	39.684065
532.965048	40.203349
533.395013	40.759553
533.824959	41.320338
534.254888	41.889274
534.684799	42.496344
535.114693	43.122666
535.544568	43.763931
535.974425	44.396820
536.404264	45.020379
536.834086	45.633794
537.263889	46.237163
537.693674	46.844465
538.123441	47.431474
538.553190	48.015024
538.982921	48.573442
539.412634	49.126980
539.842329	49.679620
540.272006	50.228821
540.701664	50.774756
541.131304	51.302051
541.560926	51.839289
541.990530	52.378718
542.420116	52.924614
542.849683	53.463446
543.279232	53.998200
543.708763	54.511503
544.138275	55.024772
544.567769	55.526776
544.997245	55.993966
545.426702	56.448158
545.856141	56.890872
546.285562	57.322702
546.714964	57.734156
547.144347	58.138843
547.573713	58.553663
548.003059	58.944955
548.432387	59.339096
548.861697	59.727363
549.290988	60.133374
549.720260	60.551168
550.149514	60.969252
550.578750	61.400993
551.007966	61.845557
551.437164	62.303571
551.866344	62.772121
552.295504	63.255029
552.724646	63.733005
553.153769	64.218406
553.582874	64.702879
554.011960	65.176434
554.441027	65.646935
554.870075	66.108192
555.299104	66.551407
555.728115	66.972666
556.157106	67.400274
556.586079	67.791748
557.015033	68.179232
557.443968	68.556586
557.872884	68.925843
558.301781	69.308300
558.730659	69.638372
559.159518	69.974832
559.588358	70.317643
560.017180	70.641928
560.445982	70.977079
560.874765	71.290330
561.303528	71.612694
561.732273	71.913696
562.160999	72.212258
562.589705	72.491638
563.018393	72.766554
563.447061	73.030043
563.875710	73.280137
564.304340	73.510819
564.732950	73.733689
565.161542	73.930960
565.590114	74.138635
566.018666	74.339717
566.447200	74.519906
566.875714	74.703031
567.304208	74.889149
567.732684	75.073129
568.161140	75.245832
568.589576	75.417345
569.017993	75.598386
569.446391	75.764720
569.874769	75.934073
570.303128	76.094785
570.731467	76.261134
571.159787	76.412544
571.588087	76.562395
572.016368	76.737721
572.444629	76.890348
572.872870	77.035315
573.301092	77.185666
573.729294	77.317529
574.157476	77.457580
574.585639	77.564200
575.013782	77.673699
575.441906	77.777687
575.870009	77.883429
576.298093	77.989918
576.726157	78.087253
577.154202	78.175939
577.582226	78.266518
578.010231	78.353970
578.438216	78.453822
578.866181	78.540449
579.294126	78.628798
579.722051	78.736489
580.149957	78.816353
580.577842	78.901709
581.005707	78.987679
581.433553	79.093555
581.861378	79.185094
582.289184	79.266986
582.716969	79.350363
583.144734	79.430127
583.572479	79.528248
584.000205	79.589318
584.427910	79.649829
584.855594	79.707808
585.283259	79.749410
585.710904	79.796935
586.138528	79.836307
586.566132	79.843525
586.993716	79.855323
587.421280	79.846845
587.848823	79.839763
588.276346	79.821660
588.703849	79.777591
589.131332	79.716185
589.558794	79.623667
589.986236	79.525177
590.413657	79.418331
590.841058	79.289568
591.268438	79.139201
591.695799	78.973404
592.123138	78.786409
592.550458	78.600799
592.977756	78.391935
593.405034	78.204534
593.832292	77.993886
594.259529	77.778779
594.686746	77.544195
595.113942	77.336021
595.541117	77.122118
595.968272	76.908973
596.395406	76.702039
596.822519	76.492535
597.249612	76.302274
597.676684	76.125651
598.103735	75.944492
598.530766	75.781481
598.957775	75.606993
599.384764	75.436491
599.811733	75.303269
600.238680	75.158918
600.665606	75.027749
601.092512	74.890730
601.519397	74.764411
601.946261	74.643865
602.373104	74.527456
602.799926	74.428517
603.226727	74.320734
603.653507	74.207097
604.080266	74.098316
604.507004	73.993800
604.933721	73.880090
605.360417	73.760525
605.787092	73.620420
606.213746	73.485369
606.640379	73.322096
607.066991	73.156868
607.493581	72.965085
607.920150	72.776651
608.346699	72.549615
608.773226	72.315447
609.199731	72.044079
609.626216	71.758615
610.052679	71.444932
610.479121	71.105093
610.905542	70.733827
611.331941	70.341397
611.758319	69.920202
612.184676	69.488045
612.611011	69.022972
613.037325	68.513811
613.463617	67.981266
613.889888	67.418011
614.316138	66.846413
614.742366	66.246681
615.168573	65.619264
615.594758	64.963486
616.020921	64.285337
616.447063	63.594762
616.873184	62.886393
617.299283	62.164155
617.725360	61.420534
618.151416	60.675868
618.577450	59.917087
619.003462	59.169342
619.429453	58.407782
619.855422	57.659880
620.281369	56.917563
620.707295	56.183574
621.133199	55.450156
621.559081	54.730260
621.984941	54.025729
622.410779	53.331613
622.836596	52.655499
623.262391	51.990448
623.688163	51.344174
624.113914	50.718225
624.539644	50.114021
624.965351	49.523988
625.391036	48.951563
625.816699	48.398137
626.242340	47.862446
626.667960	47.340710
627.093557	46.837648
627.519132	46.347186
627.944685	45.867206
628.370216	45.411592
628.795725	44.975062
629.221212	44.540075
629.646677	44.132140
630.072119	43.746809
630.497540	43.371025
630.922938	43.028026
631.348314	42.689547
631.773668	42.377937
632.198999	42.080204
632.624308	41.797058
633.049595	41.528693
633.474860	41.277271
633.900102	41.040429
634.325322	40.808385
634.750520	40.591190
635.175695	40.378915
635.600848	40.185769
636.025978	39.991029
636.451086	39.811596
636.876171	39.637250
637.301234	39.462487
637.726275	39.286850
638.151293	39.124774
638.576288	38.958414
639.001261	38.794968
639.426211	38.632486
639.851139	38.487091
640.276044	38.336944
640.700927	38.188368
641.125787	38.042371
641.550624	37.898293
641.975438	37.762900
642.400230	37.638714
642.824999	37.513558
643.249745	37.392082
643.674469	37.280086
644.099169	37.159914
644.523847	37.057071
644.948502	36.955701
645.373135	36.845337
645.797744	36.742000
646.222330	36.644150
646.646894	36.550619
647.071435	36.457705
647.495953	36.368363
647.920447	36.275018
648.344919	36.178361
648.769368	36.080106
649.193794	35.995494
649.618197	35.899937
650.042576	35.807617
650.466933	35.721743
650.891267	35.639333
651.315577	35.552963
651.739864	35.472787
652.164129	35.395501
652.588370	35.327063
653.012587	35.258817
653.436782	35.201146
653.860953	35.156397
654.285102	35.118238
654.709226	35.096989
655.133328	35.081355
655.557406	35.085561
655.981461	35.099906
656.405493	35.137335
656.829501	35.188243
657.253486	35.272019
657.677448	35.372855
658.101386	35.495432
658.525301	35.648015
658.949192	35.826485
659.373060	36.021532
659.796904	36.237267
660.220725	36.476358
660.644522	36.737983
661.068296	37.031706
661.492046	37.348660
661.915772	37.694362
662.339475	38.049820
662.763154	38.431335
663.186810	38.837507
663.610442	39.254390
664.034050	39.687499
664.457635	40.137823
664.881196	40.607031
665.304733	41.094960
665.728247	41.591476
666.151736	42.098314
666.575202	42.616881
666.998644	43.141826
667.422062	43.666469
667.845457	44.193834
668.268827	44.723468
668.692174	45.251198
669.115496	45.774813
669.538795	46.285119
669.962070	46.797830
670.385321	47.294513
670.808547	47.782948
671.231750	48.246185
671.654929	48.695694
672.078084	49.122909
672.501214	49.524008
672.924321	49.912621
673.347404	50.280991
673.770462	50.627277
674.193496	50.936926
674.616506	51.233346
675.039492	51.507769
675.462454	51.763087
675.885391	52.000469
676.308305	52.206148
676.731194	52.409744
677.154058	52.596258
677.576899	52.767902
677.999715	52.927564
678.422507	53.071676
678.845274	53.209158
679.268017	53.343935
679.690736	53.470407
680.113430	53.594062
680.536100	53.732250
680.958746	53.873960
681.381367	54.026534
681.803963	54.189929
682.226535	54.374502
682.649083	54.582848
683.071605	54.811844
683.494104	55.065545
683.916578	55.341895
684.339027	55.652862
684.761451	55.992281
685.183851	56.359046
685.606227	56.770647
686.028577	57.201680
686.450903	57.678201
686.873204	58.189042
687.295481	58.741107
687.717733	59.321492
688.139959	59.926427
688.562162	60.576097
688.984339	61.251203
689.406492	61.968959
689.828619	62.699772
690.250722	63.467904
690.672800	64.262241
691.094853	65.080166
691.516881	65.920249
691.938884	66.784952
692.360863	67.656323
692.782816	68.544923
693.204744	69.448052
693.626647	70.346148
694.048526	71.262917
694.470379	72.175748
694.892207	73.089938
695.314010	74.004076
695.735788	74.916058
696.157540	75.810629
696.579268	76.699669
697.000970	77.572373
697.422648	78.445157
697.844300	79.293675
698.265926	80.144245
698.687528	80.980667
699.109104	81.788784
699.530655	82.569316
699.952181	83.357209
700.373681	84.126047
700.795156	84.866796
701.216606	85.598426
701.638030	86.292004
702.059429	86.965644
702.480803	87.619983
702.902151	88.258097
703.323473	88.869457
703.744770	89.438062
704.166042	89.977339
704.587288	90.496026
705.008509	90.987728
705.429704	91.455557
705.850873	91.892556
706.272017	92.291451
706.693135	92.681899
707.114228	93.020601
707.535295	93.342823
707.956336	93.647454
708.377352	93.920242
708.798342	94.178314
709.219306	94.410986
709.640245	94.617311
710.061157	94.817353
710.482044	94.993427
710.902905	95.158196
711.323741	95.302750
711.744550	95.423572
712.165334	95.556133
712.586092	95.674599
713.006823	95.774118
713.427529	95.872270
713.848209	95.976660
714.268863	96.066724
714.689492	96.157763
715.110094	96.243094
715.530670	96.317946
715.951220	96.404419
716.371744	96.483341
716.792242	96.572625
717.212714	96.667470
717.633159	96.760282
718.053579	96.856741
718.473973	96.946298
718.894340	97.046676
719.314681	97.148964
719.734996	97.250489
720.155285	97.361709
720.575547	97.467310
720.995784	97.567125
721.415994	97.677202
721.836177	97.771395
722.256335	97.877188
722.676466	97.980099
723.096570	98.085458
723.516649	98.186244
723.936701	98.278041
724.356726	98.355757
724.776725	98.436911
725.196698	98.512910
725.616644	98.584704
726.036564	98.630802
726.456457	98.665849
726.876324	98.689099
727.296164	98.715364
727.715977	98.738509
728.135764	98.749115
728.555525	98.758468
728.975258	98.740592
729.394966	98.703727
729.814646	98.669066
730.234300	98.622461
730.653927	98.553841
731.073527	98.467977
731.493101	98.378529
731.912648	98.281906
732.332168	98.180787
732.751661	98.059917
733.171128	97.935410
733.590568	97.810134
734.009980	97.666373
734.429366	97.517467
734.848726	97.372251
735.268058	97.221653
735.687363	97.066919
736.106641	96.902355
736.525893	96.729580
736.945117	96.562642
737.364314	96.415933
737.783485	96.259465
738.202628	96.099525
738.621744	95.946258
739.040834	95.801540
739.459896	95.660658
739.878931	95.530491
740.297939	95.389918
740.716919	95.255488
741.135873	95.160105
741.554799	95.054015
741.973698	94.966593
742.392570	94.908465
742.811415	94.859633
743.230232	94.813774
743.649022	94.800441
744.067785	94.804425
744.486521	94.828091
744.905229	94.856294
745.323909	94.894329
745.742563	94.951853
746.161189	95.026197
746.579787	95.116494
746.998358	95.227290
747.416902	95.352977
747.835418	95.479288
748.253907	95.624638
748.672368	95.782708
749.090802	95.951230
749.509208	96.118708
749.927586	96.300903
750.345937	96.480247
750.764261	96.671277
751.182556	96.879122
751.600824	97.074961
752.019065	97.284800
752.437277	97.499288
752.855462	97.712361
753.273620	97.929844
753.691749	98.160502
754.109851	98.357464
754.527925	98.564139
754.945971	98.767809
755.363989	98.958655
755.781980	99.146320
756.199943	99.338109
756.617877	99.514788
757.035784	99.683709
757.453663	99.848855
757.871514	99.995646
758.289337	100.151187
758.707132	100.291193
759.124899	100.414921
759.542639	100.530527
759.960350	100.626294
760.378033	100.693532
760.795688	100.739925
761.213314	100.780204
761.630913	100.799932
762.048484	100.804207
762.466026	100.822043
762.883541	100.812559
763.301027	100.777354
763.718485	100.736753
764.135914	100.667125
764.553316	100.607251
764.970689	100.537581
765.388034	100.456311
765.805351	100.358266
766.222639	100.252631
766.639899	100.121688
767.057131	100.002238
767.474334	99.883683
767.891509	99.766985
768.308655	99.635791
768.725773	99.500328
769.142863	99.368356
769.559924	99.235177
769.976957	99.105009
770.393961	98.958456
770.810936	98.825806
771.227883	98.669968
771.644802	98.545920
772.061692	98.407511
772.478553	98.256803
772.895386	98.131498
773.312190	98.010039
773.728965	97.907425
774.145712	97.783775
774.562430	97.672675
774.979119	97.554188
775.395780	97.432041
775.812411	97.325110
776.229014	97.217959
776.645589	97.112345
777.062134	97.026386
777.478651	96.926580
777.895138	96.811737
778.311597	96.712806
778.728027	96.616556
779.144428	96.546522
779.560800	96.458349
779.977143	96.357840
780.393458	96.257803
780.809743	96.141327
781.225999	96.042196
781.642226	95.940005
782.058425	95.836220
782.474594	95.719599
782.890734	95.590009
783.306845	95.469165
783.722926	95.339731
784.138979	95.210320
784.555003	95.047286
784.970997	94.896853
785.386962	94.740048
785.802898	94.550016
786.218805	94.374628
786.634682	94.170194
787.050531	93.966547
787.466349	93.740431
787.882139	93.508108
788.297899	93.257837
788.713630	92.987147
789.129332	92.710251
789.545004	92.417528
789.960647	92.108925
790.376260	91.791532
790.791844	91.467910
791.207399	91.129034
791.622924	90.780777
792.038419	90.394534
792.453885	90.001723
792.869321	89.606447
793.284728	89.189026
793.700106	88.765786
794.115453	88.346721
794.530771	87.900052
794.946060	87.429493
795.361319	86.954058
795.776548	86.470511
796.191747	85.959071
796.606917	85.440807
797.022057	84.920336
797.437167	84.378010
797.852248	83.830373
798.267298	83.265158
798.682319	82.705681
799.097310	82.114859
799.512271	81.526787
799.927203	80.926100
800.342104	80.335687
800.756976	79.730326
801.171818	79.117466
801.586629	78.502559
802.001411	77.880125
802.416163	77.260400
802.830885	76.647271
803.245577	76.039821
803.660238	75.428987
804.074870	74.806510
804.489472	74.192830
804.904043	73.588654
805.318585	73.001893
805.733096	72.412561
806.147577	71.825796
806.562028	71.233336
806.976449	70.632862
807.390840	70.057381
807.805200	69.476176
808.219530	68.901049
808.633830	68.328353
809.048100	67.769780
809.462339	67.196928
809.876548	66.633124
810.290727	66.088005
810.704875	65.522168
811.118993	64.963141
811.533080	64.409453
811.947137	63.855944
812.361164	63.294492
812.775160	62.742700
813.189126	62.171679
813.603061	61.616371
814.016966	61.062647
814.430840	60.516003
814.844684	59.974652
815.258497	59.425521
815.672280	58.868026
816.086032	58.315317
816.499753	57.780319
816.913444	57.237233
817.327104	56.697437
817.740733	56.163861
818.154331	55.628789
818.567899	55.089140
818.981436	54.558658
819.394943	54.055096
819.808418	53.546510
820.221863	53.036538
820.635277	52.538092
821.048660	52.044903
821.462013	51.561217
821.875334	51.086512
822.288625	50.624449
822.701884	50.182747
823.115113	49.739937
823.528311	49.325074
823.941478	48.932416
824.354614	48.527800
824.767718	48.151240
825.180792	47.785067
825.593835	47.446686
826.006847	47.141582
826.419827	46.842810
826.832777	46.565905
827.245695	46.304537
827.658582	46.072600
828.071438	45.864871
828.484263	45.676397
828.897057	45.506951
829.309819	45.351715
829.722551	45.226310
830.135251	45.126810
830.547919	45.033595
830.960557	44.963229
831.373163	44.923252
831.785738	44.893683
832.198281	44.846247
832.610793	44.813650
833.023274	44.796634
833.435723	44.779799
833.848141	44.778873
834.260528	44.780157
834.672883	44.781569
835.085206	44.790762
835.497498	44.777008
835.909758	44.758584
836.321987	44.752959
836.734185	44.742574
837.146350	44.747072
837.558485	44.732115
837.970587	44.739167
838.382658	44.732250
838.794697	44.717838
839.206705	44.708394
839.618681	44.684699
840.030625	44.659119
840.442538	44.620531
840.854418	44.592627
841.266267	44.562576
841.678084	44.531992
842.089870	44.489104
842.501623	44.452767
842.913345	44.404196
843.325035	44.358018
843.736693	44.293798
844.148319	44.224951
844.559913	44.146066
844.971475	44.085058
845.383005	44.020648
845.794504	43.936059
846.205970	43.850966
846.617404	43.752702
847.028806	43.651080
847.440176	43.535296
847.851514	43.415888
848.262820	43.290760
848.674094	43.169856
849.085336	43.019806
849.496546	42.869583
849.907723	42.723966
850.318868	42.552574
850.729981	42.365267
851.141062	42.180180
851.552110	41.980204
851.963127	41.776869
852.374111	41.573859
852.785062	41.357558
853.195982	41.147700
853.606869	40.923233
854.017723	40.692465
854.428546	40.458205
854.839336	40.226991
855.250093	39.987767
855.660818	39.747397
856.071511	39.519965
856.482171	39.282314
856.892799	39.050551
857.303394	38.831069
857.713956	38.611897
858.124486	38.383191
858.534984	38.155854
858.945449	37.953733
859.355881	37.740637
859.766280	37.539656
860.176647	37.345192
860.586982	37.164963
860.997283	36.997023
861.407552	36.831482
861.817789	36.678554
862.227992	36.520539
862.638163	36.370385
863.048301	36.259736
863.458406	36.135192
863.868478	36.014410
864.278518	35.907928
864.688524	35.810896
865.098498	35.707481
865.508439	35.612249
865.918347	35.523070
866.328222	35.452809
866.738064	35.378181
867.147873	35.319657
867.557649	35.260599
867.967392	35.218064
868.377102	35.153945
868.786779	35.100318
869.196423	35.055354
869.606034	35.006434
870.015612	34.952041
870.425156	34.906606
870.834668	34.868993
871.244146	34.836779
871.653591	34.799509
872.063003	34.765041
872.472382	34.732803
872.881728	34.721307
873.291040	34.699196
873.700319	34.685353
874.109564	34.678794
874.518777	34.677718
874.927956	34.681951
875.337102	34.684993
875.746214	34.680455
876.155293	34.723566
876.564338	34.751090
876.973350	34.782361
877.382329	34.800839
877.791274	34.841534
878.200186	34.899807
878.609064	34.962100
879.017909	35.013750
879.426720	35.054698
879.835497	35.118854
880.244241	35.173108
880.652952	35.222501
881.061629	35.302746
881.470272	35.355772
881.878881	35.418408
882.287457	35.471808
882.695999	35.514979
883.104507	35.569368
883.512982	35.630416
883.921423	35.695289
884.329830	35.757350
884.738203	35.818543
885.146543	35.866731
885.554849	35.914537
885.963120	35.958360
886.371358	36.017336
886.779563	36.049157
887.187733	36.097425
887.595869	36.155877
888.003971	36.185428
888.412040	36.213029
888.820074	36.224009
889.228074	36.243835
889.636041	36.265502
890.043973	36.295072
890.451871	36.329018
890.859736	36.363512
891.267566	36.368006
891.675362	36.393032
892.083124	36.439753
892.490851	36.438081
892.898545	36.444929
893.306204	36.450580
893.713829	36.463249
894.121420	36.475426
894.528977	36.499327
894.936499	36.520260
895.343987	36.552092
895.751441	36.560418
896.158860	36.578439
896.566246	36.582778
896.973596	36.590236
897.380913	36.612688
897.788195	36.633430
898.195442	36.645174
898.602655	36.679506
899.009834	36.680943
899.416978	36.721680
899.824088	36.721611
900.231163	36.729031
900.638204	36.764241
901.045210	36.786194
901.452181	36.813430
901.859118	36.833855
902.266021	36.881630
902.672888	36.897556
903.079721	36.913108
903.486520	36.920687
903.893283	36.953755
904.300012	36.958304
904.706707	36.959544
905.113366	36.992258
905.519991	37.038420
905.926581	37.072363
906.333136	37.081032
906.739656	37.105977
907.146142	37.100197
907.552592	37.103673
907.959008	37.108908
908.365389	37.109454
908.771735	37.102415
909.178046	37.091534
909.584322	37.086147
909.990563	37.065182
910.396769	37.045368
910.802940	37.009687
911.209076	36.973542
911.615177	36.935939
912.021243	36.884759
912.427274	36.851813
912.833270	36.798246
913.239231	36.734182
913.645156	36.692437
914.051046	36.627586
914.456902	36.575291
914.862721	36.498818
915.268506	36.448872
915.674256	36.381816
916.079970	36.327840
916.485649	36.280313
916.891292	36.214215
917.296901	36.171568
917.702474	36.115273
918.108011	36.047290
918.513514	35.966236
918.918980	35.912694
919.324412	35.854825
919.729808	35.803867
920.135169	35.769072
920.540494	35.739190
920.945783	35.721389
921.351037	35.683716
921.756256	35.676754
922.161439	35.653791
922.566586	35.650502
922.971698	35.654366
923.376775	35.688034
923.781815	35.706384
924.186820	35.744183
924.591790	35.766240
924.996723	35.818114
925.401621	35.856119
925.806484	35.927526
926.211310	35.971874
926.616101	36.029267
927.020856	36.076282
927.425575	36.117686
927.830259	36.159079
928.234906	36.210651
928.639518	36.246636
929.044094	36.266077
929.448634	36.330387
929.853138	36.355561
930.257606	36.364060
930.662038	36.382748
931.066434	36.420319
931.470795	36.453325
931.875119	36.498202
932.279407	36.528485
932.683659	36.536309
933.087875	36.542982
933.492055	36.551416
933.896199	36.566926
934.300307	36.542038
934.704379	36.531909
935.108414	36.497965
935.512414	36.469386
935.916377	36.395340
936.320304	36.322859
936.724195	36.253789
937.128049	36.177147
937.531867	36.083320
937.935649	36.012348
938.339395	35.902589
938.743104	35.801450
939.146777	35.714888
939.550414	35.596228
939.954014	35.509821
940.357578	35.392657
940.761105	35.295204
941.164596	35.191610
941.568050	35.086469
941.971468	34.963800
942.374850	34.845824
942.778195	34.743198
943.181503	34.643549
943.584775	34.548313
943.988010	34.402271
944.391209	34.239158
944.794371	34.141643
945.197496	34.034360
945.600585	33.926178
946.003637	33.785763
946.406653	33.665879
946.809632	33.583921
947.212574	33.477014
947.615479	33.392752
948.018347	33.283666
948.421179	33.205198
948.823974	33.153255
949.226732	33.059311
949.629453	33.003293
950.032138	32.941770
950.434785	32.843286
950.837396	32.750403
951.239969	32.685466
951.642506	32.606659
952.045006	32.543767
952.447469	32.459399
952.849895	32.399613
953.252283	32.320560
953.654635	32.260228
954.056950	32.179313
954.459227	32.063589
954.861468	31.985613
955.263671	31.924445
955.665838	31.859976
956.067967	31.784322
956.470059	31.738582
956.872114	31.699314
957.274131	31.604677
957.676112	31.553212
958.078055	31.464988
958.479961	31.416974
958.881829	31.364793
959.283661	31.338558
959.685455	31.267838
960.087211	31.198053
960.488931	31.155632
960.890613	31.111888
961.292257	31.055219
961.693864	31.017297
962.095434	30.939326
962.496966	30.830535
962.898461	30.801020
963.299918	30.718930
963.701338	30.643533
964.102720	30.554661
964.504065	30.481821
964.905372	30.392409
965.306641	30.310895
965.707873	30.193212
966.109068	30.124292
966.510224	30.056849
966.911343	29.996515
967.312425	29.884577
967.713468	29.814017
968.114474	29.725157
968.515442	29.661797
968.916373	29.595600
969.317265	29.519585
969.718120	29.470167
970.118937	29.357840
970.519716	29.320202
970.920458	29.247467
971.321161	29.189207
971.721827	29.060683
972.122454	29.029128
972.523044	28.936674
972.923596	28.902498
973.324110	28.816821
973.724585	28.692222
974.125023	28.595990
974.525423	28.528417
974.925785	28.496607
975.326108	28.394484
975.726394	28.399172
976.126642	28.365111
976.526851	28.294583
976.927022	28.247554
977.327155	28.272576
977.727250	28.211213
978.127307	28.177986
978.527325	28.194343
978.927306	28.169659
979.327248	28.189733
979.727151	28.282460
980.127017	28.259621
980.526844	28.279839
980.926633	28.221059
981.326383	28.220787
981.726095	28.222485
982.125769	28.187234
982.525404	28.195725
982.925001	28.191467
983.324560	28.172087
983.724079	28.113037
984.123561	28.152176
984.523004	28.101834
984.922408	28.094414
985.321774	28.030945
985.721102	28.001345
986.120390	27.973458
986.519641	27.969363
986.918852	27.950295
987.318025	27.884214
987.717159	27.858949
988.116255	27.784573
988.515312	27.781943
988.914330	27.751718
989.313310	27.806348
989.712250	27.663419
990.111152	27.789403
990.510015	27.861992
990.908840	27.797640
991.307625	27.837588
991.706372	27.735743
992.105080	27.672818
992.503749	27.623222
992.902379	27.584258
993.300970	27.542381
993.699522	27.529242
994.098035	27.527081
994.496510	27.556319
994.894945	27.569531
995.293341	27.471151
995.691698	27.544923
996.090016	27.543188
996.488296	27.567556
996.886535	27.563393
997.284736	27.558572
997.682898	27.612010
998.081021	27.594901
998.479104	27.699611
998.877148	27.698595
999.275153	27.823762
999.673119	27.937228
1000.071046	28.119747
1000.468933	28.316215
1000.866781	28.423469
1001.264590	28.605397
1001.662359	28.525763
1002.060089	28.595448
1002.457780	28.510913
1002.855431	28.505819
1003.253043	28.396616
1003.650615	28.423764
1004.048148	28.691554
1004.445642	28.639020
1004.843096	28.706670
1005.240511	28.732271
1005.637886	28.807326
1006.035221	28.876469
1006.432517	28.930917
1006.829774	29.065462
1007.226991	29.175008
1007.624168	29.415287
1008.021306	29.322880
1008.418404	29.400099
1008.815462	29.435764
1009.212481	29.547628
1009.609460	29.985272
1010.006399	30.073251
1010.403298	30.389962
1010.800158	30.740404
1011.196978	31.028027
1011.593758	31.187500
1011.990498	31.709887
1012.387199	31.581178
1012.783860	31.575989
1013.180480	31.461905
1013.577061	31.964966
1013.973602	32.348474
1014.370103	32.890413
1014.766564	33.035245
1015.162985	33.291069
1015.559366	33.676286
1015.955708	33.805435
1016.352009	33.765380
1016.748270	34.212097
1017.144491	34.632127
1017.540671	34.972432
1017.936812	35.426170
1018.332913	35.563515
1018.728973	35.687834
1019.124994	35.893670
1019.520974	36.272641
1019.916914	36.360509
1020.312814	36.924234
