Time1=100ms:Average1=5:Objective=10X:Aperture=1: (11/21/2018 2:15:00 PM)
11/21/2018 2:15:00 PM
Reflectance
10X
Ap#: 1
Avg1: 5.000000
Avg2: 0.000000
Int.Time1:100.000000

350.166136	70.395165
350.601937	70.819704
351.037728	70.542104
351.473509	70.745098
351.909281	70.518359
352.345042	70.386097
352.780794	70.387918
353.216536	70.363043
353.652267	70.449594
354.087989	70.577171
354.523701	70.673647
354.959403	70.516237
355.395095	70.851885
355.830777	70.526524
356.266449	70.519660
356.702110	70.328805
357.137762	69.824458
357.573404	69.988242
358.009035	70.238794
358.444656	70.693205
358.880268	70.697901
359.315869	71.029498
359.751459	71.147829
360.187040	71.127379
360.622610	71.354269
361.058170	71.377953
361.493720	71.269466
361.929260	71.299391
362.364789	71.621889
362.800308	71.390401
363.235816	71.031355
363.671314	70.939498
364.106802	71.552233
364.542279	71.489110
364.977746	71.634000
365.413203	72.116051
365.848649	71.855222
366.284084	71.844660
366.719509	71.892586
367.154924	71.659919
367.590328	71.417315
368.025721	71.230041
368.461104	71.329777
368.896477	71.113310
369.331838	70.747092
369.767189	71.342487
370.202530	71.771236
370.637859	72.390438
371.073178	72.312444
371.508486	71.707317
371.943784	71.185936
372.379071	70.947557
372.814347	71.176878
373.249612	70.803642
373.684866	70.918822
374.120110	71.170370
374.555343	71.196674
374.990565	71.234641
375.425776	71.134225
375.860976	70.911965
376.296165	71.297484
376.731343	71.170192
377.166511	71.516414
377.601667	71.296205
378.036812	71.463751
378.471946	71.413086
378.907070	70.994610
379.342182	71.107419
379.777283	71.274615
380.212373	71.158184
380.647452	71.382385
381.082520	71.455151
381.517576	71.558467
381.952622	71.039149
382.387656	71.273739
382.822679	71.469630
383.257691	70.872304
383.692692	70.537245
384.127681	70.504417
384.562659	70.277699
384.997626	70.118092
385.432581	70.077622
385.867525	70.019011
386.302458	69.297164
386.737379	69.907716
387.172289	69.758830
387.607188	69.432853
388.042075	69.317216
388.476951	69.304783
388.911815	68.980436
389.346668	68.559648
389.781509	68.536585
390.216338	68.523546
390.651157	68.216257
391.085963	67.834395
391.520758	67.847437
391.955541	67.871449
392.390313	67.671207
392.825073	67.483234
393.259821	67.377794
393.694558	67.395332
394.129283	67.465310
394.563996	67.712382
394.998698	67.924004
395.433388	68.317617
395.868066	68.132434
396.302732	67.950154
396.737386	67.847171
397.172029	67.600334
397.606659	67.357776
398.041278	66.922300
398.475885	66.783823
398.910480	66.236637
399.345063	65.583404
399.779634	65.154113
400.214194	63.930402
400.648741	62.628725
401.083276	61.523927
401.517799	59.940060
401.952310	58.145752
402.386809	56.455421
402.821296	54.711882
403.255771	52.623962
403.690234	50.496054
404.124684	48.235185
404.559123	45.752246
404.993549	43.418850
405.427963	41.088512
405.862365	38.896472
406.296754	36.499766
406.731131	34.597775
407.165496	32.578959
407.599849	30.718497
408.034190	28.757213
408.468518	27.124087
408.902833	25.499221
409.337137	24.002706
409.771428	22.697785
410.205706	21.374456
410.639973	20.359072
411.074226	19.362340
411.508467	18.508776
411.942696	17.718491
412.376912	17.003367
412.811116	16.475455
413.245307	15.900189
413.679486	15.418599
414.113652	14.911084
414.547805	14.410599
414.981946	14.017164
415.416074	13.636616
415.850190	13.315739
416.284293	13.032894
416.718383	12.751929
417.152460	12.470874
417.586525	12.313103
418.020577	12.148802
418.454616	11.949094
418.888643	11.747668
419.322656	11.574902
419.756657	11.438271
420.190645	11.261428
420.624620	11.122018
421.058582	10.971816
421.492531	10.876000
421.926468	10.763874
422.360391	10.681014
422.794301	10.633346
423.228199	10.594353
423.662083	10.594008
424.095955	10.581658
424.529813	10.602291
424.963658	10.616056
425.397491	10.606779
425.831310	10.602679
426.265116	10.561102
426.698909	10.525696
427.132689	10.494413
427.566455	10.503870
428.000209	10.563157
428.433949	10.581174
428.867676	10.638720
429.301389	10.669696
429.735090	10.693406
430.168777	10.722839
430.602451	10.763867
431.036111	10.732825
431.469759	10.711923
431.903392	10.703896
432.337013	10.698695
432.770620	10.699070
433.204213	10.727542
433.637794	10.758079
434.071360	10.813410
434.504914	10.895007
434.938453	10.969602
435.371979	11.055721
435.805492	11.170856
436.238991	11.263310
436.672477	11.336463
437.105949	11.414231
437.539407	11.456576
437.972852	11.484817
438.406283	11.534685
438.839700	11.581970
439.273104	11.643905
439.706494	11.726544
440.139871	11.834206
440.573233	11.945334
441.006582	12.037587
441.439917	12.114675
441.873238	12.197337
442.306546	12.247974
442.739839	12.301851
443.173119	12.331245
443.606385	12.372816
444.039636	12.411784
444.472874	12.484504
444.906099	12.553973
445.339309	12.657971
445.772505	12.763797
446.205687	12.892368
446.638855	13.011072
447.072009	13.145599
447.505149	13.268109
447.938275	13.392730
448.371387	13.514224
448.804485	13.628292
449.237569	13.707434
449.670638	13.781346
450.103694	13.861869
450.536735	13.930303
450.969762	14.017636
451.402774	14.109373
451.835773	14.193025
452.268757	14.330325
452.701727	14.456756
453.134683	14.590378
453.567624	14.704088
454.000551	14.827738
454.433464	14.935505
454.866362	15.035480
455.299246	15.139386
455.732116	15.228856
456.164971	15.310160
456.597811	15.410232
457.030638	15.482190
457.463449	15.574551
457.896246	15.645217
458.329029	15.729372
458.761797	15.802150
459.194551	15.882600
459.627290	15.969602
460.060014	16.053290
460.492724	16.139384
460.925419	16.228512
461.358099	16.329193
461.790765	16.414103
462.223416	16.479056
462.656052	16.551717
463.088674	16.614967
463.521281	16.659542
463.953873	16.701884
464.386450	16.745378
464.819012	16.768400
465.251560	16.819528
465.684093	16.836776
466.116611	16.884724
466.549114	16.923042
466.981602	16.973250
467.414075	16.999901
467.846533	17.031633
468.278977	17.042816
468.711405	17.048994
469.143818	17.060347
469.576216	17.067167
470.008600	17.050555
470.440968	17.041751
470.873321	17.019969
471.305659	16.998473
471.737982	16.973723
472.170289	16.950086
472.602582	16.919033
473.034859	16.902244
473.467122	16.894602
473.899369	16.896326
474.331600	16.911173
474.763817	16.942919
475.196018	16.999106
475.628204	17.070933
476.060375	17.150498
476.492530	17.257444
476.924670	17.374950
477.356795	17.490705
477.788904	17.612213
478.220998	17.731000
478.653076	17.839296
479.085139	17.968951
479.517186	18.089633
479.949219	18.237215
480.381235	18.414749
480.813236	18.618825
481.245221	18.862314
481.677191	19.135947
482.109146	19.426813
482.541084	19.723292
482.973008	20.028513
483.404915	20.340162
483.836807	20.652870
484.268683	20.953289
484.700544	21.253000
485.132388	21.563650
485.564217	21.848251
485.996031	22.142537
486.427828	22.422015
486.859610	22.708596
487.291376	22.995532
487.723126	23.306571
488.154860	23.599089
488.586579	23.910827
489.018281	24.267421
489.449968	24.634989
489.881639	25.021721
490.313293	25.442138
490.744932	25.865464
491.176555	26.300000
491.608162	26.742783
492.039753	27.165606
492.471328	27.540244
492.902886	27.878533
493.334429	28.177487
493.765956	28.448841
494.197466	28.682937
494.628960	28.894805
495.060439	29.112681
495.491901	29.341527
495.923347	29.585777
496.354776	29.876533
496.786190	30.181116
497.217587	30.499739
497.648968	30.834165
498.080332	31.173542
498.511681	31.488070
498.943013	31.801708
499.374328	32.072016
499.805628	32.316055
500.236911	32.523353
500.668177	32.685035
501.099427	32.797064
501.530661	32.889219
501.961878	32.943634
502.393079	32.970246
502.824264	32.974710
503.255431	32.976868
503.686583	32.962945
504.117717	32.981582
504.548835	33.022214
504.979937	33.093933
505.411022	33.200771
505.842090	33.374961
506.273142	33.589335
506.704177	33.825253
507.135195	34.089639
507.566197	34.356193
507.997182	34.608567
508.428150	34.836822
508.859102	35.032055
509.290036	35.200816
509.720954	35.311320
510.151855	35.422935
510.582739	35.518414
511.013607	35.631754
511.444457	35.765737
511.875291	35.937298
512.306107	36.153744
512.736907	36.445630
513.167690	36.792087
513.598456	37.188872
514.029205	37.630716
514.459936	38.100649
514.890651	38.585051
515.321349	39.071376
515.752030	39.525012
516.182693	39.958882
516.613340	40.326791
517.043969	40.673214
517.474582	40.972371
517.905177	41.219080
518.335755	41.431590
518.766315	41.607005
519.196859	41.751150
519.627385	41.884285
520.057894	42.016982
520.488386	42.143314
520.918860	42.298180
521.349318	42.497088
521.779757	42.725341
522.210180	43.010635
522.640585	43.342067
523.070973	43.737268
523.501343	44.155661
523.931696	44.610490
524.362031	45.059711
524.792349	45.507857
525.222650	45.940559
525.652933	46.323371
526.083198	46.655162
526.513446	46.911935
526.943677	47.115176
527.373890	47.279293
527.804085	47.424126
528.234262	47.536893
528.664422	47.650923
529.094565	47.793446
529.524689	47.995068
529.954796	48.252024
530.384885	48.532366
530.814957	48.862594
531.245011	49.239667
531.675047	49.651110
532.105065	50.095885
532.535065	50.540962
532.965048	50.968098
533.395013	51.357452
533.824959	51.707123
534.254888	52.010782
534.684799	52.239802
535.114693	52.425486
535.544568	52.550080
535.974425	52.617211
536.404264	52.622191
536.834086	52.573904
537.263889	52.486519
537.693674	52.386338
538.123441	52.272651
538.553190	52.163715
538.982921	52.077369
539.412634	52.005439
539.842329	51.982925
540.272006	52.009044
540.701664	52.081456
541.131304	52.182476
541.560926	52.346972
541.990530	52.547155
542.420116	52.781354
542.849683	53.022535
543.279232	53.259929
543.708763	53.507675
544.138275	53.730705
544.567769	53.926984
544.997245	54.076005
545.426702	54.194615
545.856141	54.282454
546.285562	54.350360
546.714964	54.400026
547.144347	54.460708
547.573713	54.516490
548.003059	54.617142
548.432387	54.738939
548.861697	54.891118
549.290988	55.088223
549.720260	55.334282
550.149514	55.632108
550.578750	55.962566
551.007966	56.339768
551.437164	56.744407
551.866344	57.165016
552.295504	57.588734
552.724646	58.000741
553.153769	58.392574
553.582874	58.744285
554.011960	59.028429
554.441027	59.269600
554.870075	59.438469
555.299104	59.540659
555.728115	59.572533
556.157106	59.540956
556.586079	59.477516
557.015033	59.368475
557.443968	59.242155
557.872884	59.121894
558.301781	59.020254
558.730659	58.912194
559.159518	58.837263
559.588358	58.808060
560.017180	58.819538
560.445982	58.865728
560.874765	58.965378
561.303528	59.094868
561.732273	59.256314
562.160999	59.437236
562.589705	59.630180
563.018393	59.835526
563.447061	60.046659
563.875710	60.268569
564.304340	60.484057
564.732950	60.678754
565.161542	60.847996
565.590114	61.007950
566.018666	61.160029
566.447200	61.293922
566.875714	61.410633
567.304208	61.522161
567.732684	61.609189
568.161140	61.704887
568.589576	61.816485
569.017993	61.937428
569.446391	62.075850
569.874769	62.231334
570.303128	62.429879
570.731467	62.672030
571.159787	62.943805
571.588087	63.241048
572.016368	63.603078
572.444629	63.986928
572.872870	64.384439
573.301092	64.808948
573.729294	65.213229
574.157476	65.591801
574.585639	65.936247
575.013782	66.230893
575.441906	66.480553
575.870009	66.674928
576.298093	66.805734
576.726157	66.862607
577.154202	66.855086
577.582226	66.788175
578.010231	66.703217
578.438216	66.600710
578.866181	66.489502
579.294126	66.368029
579.722051	66.265556
580.149957	66.171177
580.577842	66.108656
581.005707	66.076722
581.433553	66.069777
581.861378	66.065437
582.289184	66.090831
582.716969	66.118025
583.144734	66.150582
583.572479	66.193218
584.000205	66.208514
584.427910	66.220518
584.855594	66.231342
585.283259	66.222776
585.710904	66.199813
586.138528	66.162487
586.566132	66.097460
586.993716	66.039246
587.421280	65.967836
587.848823	65.875046
588.276346	65.784479
588.703849	65.692850
589.131332	65.568219
589.558794	65.433941
589.986236	65.299610
590.413657	65.184822
590.841058	65.063254
591.268438	64.940059
591.695799	64.827215
592.123138	64.740392
592.550458	64.693822
592.977756	64.677556
593.405034	64.712757
593.832292	64.798014
594.259529	64.933019
594.686746	65.103796
595.113942	65.338501
595.541117	65.587831
595.968272	65.876880
596.395406	66.175421
596.822519	66.461283
597.249612	66.744434
597.676684	66.989221
598.103735	67.197868
598.530766	67.354820
598.957775	67.457034
599.384764	67.493564
599.811733	67.487631
600.238680	67.407548
600.665606	67.292342
601.092512	67.135352
601.519397	66.947025
601.946261	66.733201
602.373104	66.517029
602.799926	66.311048
603.226727	66.106984
603.653507	65.888246
604.080266	65.675261
604.507004	65.473059
604.933721	65.272086
605.360417	65.054872
605.787092	64.828691
606.213746	64.582381
606.640379	64.325011
607.066991	64.042910
607.493581	63.759036
607.920150	63.469186
608.346699	63.171096
608.773226	62.898648
609.199731	62.625596
609.626216	62.387372
610.052679	62.183879
610.479121	62.016395
610.905542	61.898347
611.331941	61.822285
611.758319	61.792064
612.184676	61.815858
612.611011	61.892751
613.037325	62.004845
613.463617	62.158234
613.889888	62.328074
614.316138	62.535829
614.742366	62.764500
615.168573	62.999982
615.594758	63.247279
616.020921	63.492887
616.447063	63.747188
616.873184	64.014712
617.299283	64.287369
617.725360	64.567842
618.151416	64.850764
618.577450	65.139135
619.003462	65.433889
619.429453	65.744490
619.855422	66.055172
620.281369	66.376390
620.707295	66.654897
621.133199	66.923055
621.559081	67.161142
621.984941	67.346098
622.410779	67.504906
622.836596	67.597177
623.262391	67.619023
623.688163	67.591060
624.113914	67.503790
624.539644	67.360080
624.965351	67.165737
625.391036	66.920894
625.816699	66.646583
626.242340	66.341976
626.667960	66.029693
627.093557	65.729785
627.519132	65.436738
627.944685	65.149298
628.370216	64.882167
628.795725	64.659454
629.221212	64.449111
629.646677	64.266886
630.072119	64.118384
630.497540	63.976532
630.922938	63.853606
631.348314	63.745535
631.773668	63.658233
632.198999	63.587029
632.624308	63.512785
633.049595	63.448091
633.474860	63.385784
633.900102	63.356346
634.325322	63.343823
634.750520	63.346730
635.175695	63.387102
635.600848	63.458615
636.025978	63.575073
636.451086	63.734754
636.876171	63.916121
637.301234	64.122451
637.726275	64.352772
638.151293	64.611752
638.576288	64.887386
639.001261	65.166189
639.426211	65.442164
639.851139	65.705150
640.276044	65.947408
640.700927	66.160119
641.125787	66.344954
641.550624	66.499454
641.975438	66.602041
642.400230	66.672641
642.824999	66.705936
643.249745	66.683587
643.674469	66.659133
644.099169	66.597175
644.523847	66.528667
644.948502	66.443871
645.373135	66.347596
645.797744	66.257437
646.222330	66.175050
646.646894	66.104147
647.071435	66.056166
647.495953	66.019005
647.920447	66.011522
648.344919	66.017321
648.769368	66.023280
649.193794	66.038918
649.618197	66.056257
650.042576	66.094276
650.466933	66.153095
650.891267	66.225987
651.315577	66.302191
651.739864	66.392618
652.164129	66.482301
652.588370	66.581789
653.012587	66.702960
653.436782	66.827429
653.860953	66.961980
654.285102	67.103615
654.709226	67.250092
655.133328	67.393575
655.557406	67.538837
655.981461	67.683210
656.405493	67.815249
656.829501	67.923268
657.253486	68.026853
657.677448	68.088857
658.101386	68.128850
658.525301	68.142168
658.949192	68.106552
659.373060	68.029486
659.796904	67.914907
660.220725	67.757561
660.644522	67.551338
661.068296	67.302199
661.492046	67.012968
661.915772	66.706854
662.339475	66.395836
662.763154	66.084195
663.186810	65.788166
663.610442	65.500332
664.034050	65.236189
664.457635	65.010856
664.881196	64.843988
665.304733	64.740661
665.728247	64.702031
666.151736	64.728602
666.575202	64.820309
666.998644	64.983946
667.422062	65.217021
667.845457	65.504455
668.268827	65.853230
668.692174	66.252141
669.115496	66.688359
669.538795	67.161906
669.962070	67.666663
670.385321	68.177420
670.808547	68.695187
671.231750	69.200365
671.654929	69.679217
672.078084	70.160857
672.501214	70.608384
672.924321	71.037201
673.347404	71.436724
673.770462	71.819014
674.193496	72.182900
674.616506	72.528666
675.039492	72.842343
675.462454	73.126663
675.885391	73.395388
676.308305	73.619221
676.731194	73.828000
677.154058	74.012626
677.576899	74.183593
677.999715	74.325253
678.422507	74.434182
678.845274	74.510298
679.268017	74.557704
679.690736	74.578087
680.113430	74.568669
680.536100	74.532285
680.958746	74.476810
681.381367	74.399948
681.803963	74.297280
682.226535	74.183568
682.649083	74.066501
683.071605	73.940690
683.494104	73.820632
683.916578	73.704603
684.339027	73.607312
684.761451	73.524589
685.183851	73.443493
685.606227	73.395546
686.028577	73.346003
686.450903	73.313002
686.873204	73.280488
687.295481	73.252408
687.717733	73.219481
688.139959	73.182735
688.562162	73.154522
688.984339	73.106505
689.406492	73.047307
689.828619	72.963414
690.250722	72.864093
690.672800	72.738320
691.094853	72.586427
691.516881	72.409388
691.938884	72.230600
692.360863	72.024830
692.782816	71.815018
693.204744	71.591315
693.626647	71.357730
694.048526	71.151103
694.470379	70.955030
694.892207	70.777826
695.314010	70.623065
695.735788	70.498340
696.157540	70.392747
696.579268	70.316533
697.000970	70.291959
697.422648	70.300922
697.844300	70.338260
698.265926	70.416860
698.687528	70.527765
699.109104	70.662696
699.530655	70.815021
699.952181	70.999942
700.373681	71.191354
700.795156	71.396627
701.216606	71.618605
701.638030	71.821481
702.059429	72.012067
702.480803	72.196272
702.902151	72.367977
703.323473	72.511439
703.744770	72.618223
704.166042	72.680035
704.587288	72.724548
705.008509	72.729348
705.429704	72.699233
705.850873	72.634393
706.272017	72.530364
706.693135	72.415203
707.114228	72.243298
707.535295	72.053129
707.956336	71.850508
708.377352	71.634659
708.798342	71.414704
709.219306	71.190781
709.640245	70.966370
710.061157	70.743442
710.482044	70.525459
710.902905	70.330447
711.323741	70.152089
711.744550	69.985495
712.165334	69.854772
712.586092	69.751687
713.006823	69.669496
713.427529	69.625877
713.848209	69.603164
714.268863	69.612743
714.689492	69.649007
715.110094	69.725289
715.530670	69.824989
715.951220	69.951856
716.371744	70.104483
716.792242	70.281728
717.212714	70.494425
717.633159	70.724903
718.053579	70.969872
718.473973	71.216979
718.894340	71.475957
719.314681	71.748759
719.734996	71.993083
720.155285	72.233140
720.575547	72.440716
720.995784	72.618991
721.415994	72.753424
721.836177	72.840995
722.256335	72.892060
722.676466	72.890766
723.096570	72.838511
723.516649	72.733549
723.936701	72.581067
724.356726	72.363504
724.776725	72.094188
725.196698	71.770577
725.616644	71.409559
726.036564	71.008794
726.456457	70.567326
726.876324	70.117053
727.296164	69.649232
727.715977	69.193546
728.135764	68.736951
728.555525	68.304065
728.975258	67.886168
729.394966	67.506794
729.814646	67.172031
730.234300	66.877871
730.653927	66.637322
731.073527	66.445518
731.493101	66.325139
731.912648	66.258814
732.332168	66.270002
732.751661	66.348673
733.171128	66.504717
733.590568	66.737799
734.009980	67.042090
734.429366	67.423324
734.848726	67.864452
735.268058	68.369492
735.687363	68.937233
736.106641	69.545342
736.525893	70.184731
736.945117	70.839864
737.364314	71.532703
737.783485	72.242614
738.202628	72.949132
738.621744	73.656945
739.040834	74.352659
739.459896	75.040809
739.878931	75.694129
740.297939	76.293734
740.716919	76.842543
741.135873	77.361083
741.554799	77.812925
741.973698	78.215088
742.392570	78.546550
742.811415	78.812693
743.230232	79.012464
743.649022	79.146265
744.067785	79.216159
744.486521	79.249816
744.905229	79.234607
745.323909	79.154599
745.742563	79.046898
746.161189	78.897741
746.579787	78.726447
746.998358	78.527124
747.416902	78.310087
747.835418	78.088621
748.253907	77.866906
748.672368	77.649846
749.090802	77.441763
749.509208	77.258396
749.927586	77.103936
750.345937	76.975070
750.764261	76.874417
751.182556	76.823819
751.600824	76.798158
752.019065	76.815420
752.437277	76.887213
752.855462	77.008597
753.273620	77.176523
753.691749	77.378116
754.109851	77.596644
754.527925	77.850738
754.945971	78.124290
755.363989	78.418687
755.781980	78.735692
756.199943	79.059585
756.617877	79.373403
757.035784	79.689349
757.453663	79.979683
757.871514	80.239494
758.289337	80.479061
758.707132	80.667331
759.124899	80.793554
759.542639	80.877146
759.960350	80.878903
760.378033	80.818742
760.795688	80.681977
761.213314	80.473958
761.630913	80.189740
762.048484	79.842089
762.466026	79.429958
762.883541	78.965414
763.301027	78.430500
763.718485	77.854906
764.135914	77.233189
764.553316	76.580444
764.970689	75.919920
765.388034	75.220012
765.805351	74.516145
766.222639	73.816767
766.639899	73.120891
767.057131	72.456367
767.474334	71.826052
767.891509	71.237820
768.308655	70.704421
768.725773	70.216183
769.142863	69.795582
769.559924	69.434657
769.976957	69.150811
770.393961	68.927915
770.810936	68.781467
771.227883	68.691003
771.644802	68.693407
772.061692	68.763204
772.478553	68.893319
772.895386	69.130387
773.312190	69.427508
773.728965	69.810405
774.145712	70.260568
774.562430	70.780532
774.979119	71.350201
775.395780	71.983754
775.812411	72.665007
776.229014	73.389438
776.645589	74.152236
777.062134	74.950407
777.478651	75.754114
777.895138	76.550780
778.311597	77.356483
778.728027	78.140631
779.144428	78.922628
779.560800	79.675952
779.977143	80.386367
780.393458	81.055989
780.809743	81.674814
781.225999	82.229610
781.642226	82.725306
782.058425	83.144979
782.474594	83.493962
782.890734	83.752831
783.306845	83.926069
783.722926	84.013300
784.138979	84.026706
784.555003	83.937518
784.970997	83.787337
785.386962	83.551244
785.802898	83.221287
786.218805	82.837159
786.634682	82.375701
787.050531	81.861047
787.466349	81.281440
787.882139	80.666429
788.297899	80.019157
788.713630	79.342072
789.129332	78.672338
789.545004	78.010566
789.960647	77.357856
790.376260	76.740644
790.791844	76.156951
791.207399	75.593059
791.622924	75.094059
792.038419	74.642696
792.453885	74.256565
792.869321	73.928758
793.284728	73.674715
793.700106	73.480623
794.115453	73.375897
794.530771	73.307664
794.946060	73.302627
795.361319	73.347685
795.776548	73.444514
796.191747	73.569246
796.606917	73.737375
797.022057	73.937276
797.437167	74.134645
797.852248	74.363798
798.267298	74.596888
798.682319	74.831689
799.097310	75.036805
799.512271	75.227980
799.927203	75.380181
800.342104	75.498347
800.756976	75.593579
801.171818	75.636015
801.586629	75.653736
802.001411	75.614157
802.416163	75.522122
802.830885	75.390969
803.245577	75.210077
803.660238	74.986215
804.074870	74.717208
804.489472	74.392322
804.904043	74.028763
805.318585	73.618032
805.733096	73.191035
806.147577	72.724780
806.562028	72.241511
806.976449	71.709992
807.390840	71.177355
807.805200	70.618796
808.219530	70.062961
808.633830	69.504646
809.048100	68.946085
809.462339	68.386545
809.876548	67.834550
810.290727	67.323959
810.704875	66.811610
811.118993	66.320784
811.533080	65.868923
811.947137	65.451459
812.361164	65.050813
812.775160	64.697684
813.189126	64.392633
813.603061	64.122080
814.016966	63.884890
814.430840	63.692906
814.844684	63.546718
815.258497	63.436541
815.672280	63.353965
816.086032	63.338361
816.499753	63.355448
816.913444	63.419537
817.327104	63.540688
817.740733	63.690598
818.154331	63.900869
818.567899	64.140321
818.981436	64.407138
819.394943	64.709073
819.808418	65.051279
820.221863	65.426585
820.635277	65.839034
821.048660	66.272628
821.462013	66.714839
821.875334	67.193466
822.288625	67.668767
822.701884	68.166932
823.115113	68.673791
823.528311	69.176294
823.941478	69.680642
824.354614	70.149910
824.767718	70.633066
825.180792	71.083249
825.593835	71.517516
826.006847	71.913279
826.419827	72.269506
826.832777	72.607792
827.245695	72.861724
827.658582	73.062922
828.071438	73.210159
828.484263	73.306342
828.897057	73.308300
829.309819	73.254447
829.722551	73.143061
830.135251	72.931803
830.547919	72.677822
830.960557	72.358446
831.373163	72.005028
831.785738	71.599180
832.198281	71.136528
832.610793	70.644491
833.023274	70.138672
833.435723	69.599696
833.848141	69.075534
834.260528	68.566453
834.672883	68.049728
835.085206	67.571779
835.497498	67.085249
835.909758	66.633039
836.321987	66.224416
836.734185	65.854913
837.146350	65.543350
837.558485	65.242544
837.970587	65.018371
838.382658	64.847323
838.794697	64.722417
839.206705	64.655532
839.618681	64.628381
840.030625	64.685220
840.442538	64.784577
840.854418	64.947583
841.266267	65.158019
841.678084	65.436043
842.089870	65.765743
842.501623	66.140790
842.913345	66.567112
843.325035	67.026788
843.736693	67.529390
844.148319	68.041959
844.559913	68.591835
844.971475	69.180812
845.383005	69.778073
845.794504	70.360799
846.205970	70.963978
846.617404	71.532577
847.028806	72.087700
847.440176	72.656769
847.851514	73.179116
848.262820	73.682878
848.674094	74.126931
849.085336	74.494403
849.496546	74.834381
849.907723	75.129274
850.318868	75.355462
850.729981	75.518587
851.141062	75.603964
851.552110	75.628620
851.963127	75.582714
852.374111	75.469084
852.785062	75.263769
853.195982	75.025589
853.606869	74.687103
854.017723	74.312773
854.428546	73.866753
854.839336	73.362133
855.250093	72.800227
855.660818	72.188935
856.071511	71.525882
856.482171	70.812528
856.892799	70.054402
857.303394	69.280493
857.713956	68.460504
858.124486	67.597597
858.534984	66.715791
858.945449	65.838556
859.355881	64.945727
859.766280	64.031359
860.176647	63.086371
860.586982	62.173343
860.997283	61.272668
861.407552	60.380786
861.817789	59.526411
862.227992	58.672567
862.638163	57.815621
863.048301	57.033892
863.458406	56.253706
863.868478	55.523199
864.278518	54.854633
864.688524	54.228793
865.098498	53.649365
865.508439	53.123641
865.918347	52.644255
866.328222	52.245093
866.738064	51.888847
867.147873	51.601145
867.557649	51.379027
867.967392	51.230147
868.377102	51.130738
868.786779	51.085408
869.196423	51.091992
869.606034	51.157476
870.015612	51.267899
870.425156	51.416957
870.834668	51.625037
871.244146	51.881779
871.653591	52.157445
872.063003	52.463751
872.472382	52.807472
872.881728	53.179626
873.291040	53.541522
873.700319	53.931805
874.109564	54.327319
874.518777	54.715878
874.927956	55.095541
875.337102	55.469334
875.746214	55.807667
876.155293	56.160673
876.564338	56.450880
876.973350	56.709877
877.382329	56.943730
877.791274	57.132933
878.200186	57.282811
878.609064	57.381998
879.017909	57.405390
879.426720	57.411349
879.835497	57.363945
880.244241	57.258374
880.652952	57.098231
881.061629	56.886101
881.470272	56.653297
881.878881	56.403583
882.287457	56.096261
882.695999	55.733712
883.104507	55.377214
883.512982	54.996484
883.921423	54.587370
884.329830	54.150119
884.738203	53.749997
885.146543	53.313155
885.554849	52.879507
885.963120	52.477965
886.371358	52.065878
886.779563	51.660296
887.187733	51.285307
887.595869	50.935949
888.003971	50.602102
888.412040	50.283430
888.820074	49.980950
889.228074	49.735999
889.636041	49.483975
890.043973	49.272807
890.451871	49.098901
890.859736	48.963030
891.267566	48.860749
891.675362	48.789086
892.083124	48.719643
892.490851	48.654058
892.898545	48.619105
893.306204	48.601119
893.713829	48.610826
894.121420	48.623879
894.528977	48.617010
894.936499	48.644628
895.343987	48.679693
895.751441	48.685295
896.158860	48.702493
896.566246	48.711422
896.973596	48.725049
897.380913	48.689922
897.788195	48.674898
898.195442	48.656460
898.602655	48.594811
899.009834	48.520984
899.416978	48.436647
899.824088	48.328348
900.231163	48.190914
900.638204	48.058697
901.045210	47.889657
901.452181	47.704624
901.859118	47.505624
902.266021	47.297206
902.672888	47.039485
903.079721	46.780832
903.486520	46.490387
903.893283	46.179852
904.300012	45.869032
904.706707	45.530412
905.113366	45.213478
905.519991	44.876275
905.926581	44.522413
906.333136	44.186071
906.739656	43.816221
907.146142	43.456343
907.552592	43.113140
907.959008	42.762054
908.365389	42.430226
908.771735	42.098680
909.178046	41.792060
909.584322	41.477491
909.990563	41.171700
910.396769	40.866616
910.802940	40.533640
911.209076	40.251225
911.615177	39.937399
912.021243	39.650967
912.427274	39.374624
912.833270	39.099316
913.239231	38.804709
913.645156	38.545417
914.051046	38.279723
914.456902	38.025196
914.862721	37.800167
915.268506	37.563255
915.674256	37.334047
916.079970	37.125082
916.485649	36.930715
916.891292	36.714803
917.296901	36.506676
917.702474	36.308566
918.108011	36.143153
918.513514	35.971813
918.918980	35.790441
919.324412	35.649622
919.729808	35.521588
920.135169	35.373350
920.540494	35.253566
920.945783	35.150513
921.351037	35.058569
921.756256	34.958153
922.161439	34.901972
922.566586	34.835171
922.971698	34.809873
923.376775	34.803294
923.781815	34.792552
924.186820	34.829453
924.591790	34.869433
924.996723	34.935780
925.401621	34.994819
925.806484	35.108776
926.211310	35.216356
926.616101	35.362469
927.020856	35.499636
927.425575	35.616590
927.830259	35.798950
928.234906	35.975275
928.639518	36.137745
929.044094	36.325637
929.448634	36.546044
929.853138	36.760586
930.257606	36.959075
930.662038	37.157092
931.066434	37.362031
931.470795	37.592627
931.875119	37.807206
932.279407	38.016664
932.683659	38.206195
933.087875	38.389783
933.492055	38.566086
933.896199	38.692348
934.300307	38.833453
934.704379	38.937758
935.108414	39.045243
935.512414	39.117716
935.916377	39.168274
936.320304	39.190639
936.724195	39.195910
937.128049	39.159918
937.531867	39.091496
937.935649	39.010227
938.339395	38.895686
938.743104	38.751355
939.146777	38.595279
939.550414	38.399082
939.954014	38.233994
940.357578	37.985328
940.761105	37.735230
941.164596	37.478780
941.568050	37.170295
941.971468	36.837314
942.374850	36.522443
942.778195	36.199753
943.181503	35.842787
943.584775	35.512084
943.988010	35.122181
944.391209	34.741049
944.794371	34.351165
945.197496	34.001858
945.600585	33.646457
946.003637	33.254577
946.406653	32.921373
946.809632	32.579176
947.212574	32.244672
947.615479	31.899018
948.018347	31.548487
948.421179	31.251490
948.823974	30.955627
949.226732	30.639628
949.629453	30.368111
950.032138	30.113759
950.434785	29.895504
950.837396	29.649484
951.239969	29.444340
951.642506	29.219729
952.045006	29.002853
952.447469	28.816094
952.849895	28.654194
953.252283	28.503248
953.654635	28.369403
954.056950	28.242634
954.459227	28.161998
954.861468	28.038817
955.263671	27.985515
955.665838	27.936406
956.067967	27.890508
956.470059	27.871724
956.872114	27.821387
957.274131	27.801724
957.676112	27.803041
958.078055	27.818900
958.479961	27.826716
958.881829	27.868435
959.283661	27.881011
959.685455	27.898913
960.087211	27.966793
960.488931	28.041008
960.890613	28.076058
961.292257	28.130764
961.693864	28.238157
962.095434	28.279013
962.496966	28.311199
962.898461	28.367930
963.299918	28.440646
963.701338	28.522535
964.102720	28.651750
964.504065	28.764069
964.905372	28.815518
965.306641	28.882808
965.707873	28.944125
966.109068	28.988125
966.510224	29.034856
966.911343	29.068648
967.312425	29.151913
967.713468	29.159242
968.114474	29.172418
968.515442	29.181209
968.916373	29.214951
969.317265	29.291178
969.718120	29.340861
970.118937	29.338404
970.519716	29.308400
970.920458	29.316464
971.321161	29.318746
971.721827	29.317490
972.122454	29.343600
972.523044	29.271251
972.923596	29.235181
973.324110	29.240356
973.724585	29.186065
974.125023	29.088264
974.525423	29.064256
974.925785	29.070242
975.326108	29.003436
975.726394	28.904050
976.126642	28.803902
976.526851	28.654436
976.927022	28.529826
977.327155	28.485654
977.727250	28.395693
978.127307	28.275921
978.527325	28.230692
978.927306	28.176698
979.327248	28.127992
979.727151	28.041002
980.127017	27.956680
980.526844	27.930229
980.926633	27.841378
981.326383	27.752522
981.726095	27.656745
982.125769	27.524754
982.525404	27.411795
982.925001	27.325167
983.324560	27.255617
983.724079	27.129255
984.123561	27.033429
984.523004	26.951327
984.922408	26.898661
985.321774	26.805143
985.721102	26.687956
986.120390	26.658586
986.519641	26.552465
986.918852	26.498431
987.318025	26.410176
987.717159	26.377911
988.116255	26.394325
988.515312	26.407287
988.914330	26.415362
989.313310	26.441744
989.712250	26.358736
990.111152	26.397355
990.510015	26.408134
990.908840	26.391306
991.307625	26.369214
991.706372	26.346395
992.105080	26.292973
992.503749	26.277095
992.902379	26.241786
993.300970	26.204618
993.699522	26.239444
994.098035	26.281264
994.496510	26.342104
994.894945	26.367423
995.293341	26.375781
995.691698	26.508964
996.090016	26.559956
996.488296	26.784362
996.886535	26.769040
997.284736	26.820741
997.682898	26.926473
998.081021	26.905147
998.479104	26.879260
998.877148	27.015848
999.275153	27.181969
999.673119	27.230781
1000.071046	27.386003
1000.468933	27.524038
1000.866781	27.634084
1001.264590	27.728757
1001.662359	27.695827
1002.060089	27.808803
1002.457780	27.857077
1002.855431	27.901856
1003.253043	27.802531
1003.650615	27.915194
1004.048148	28.091412
1004.445642	28.158920
1004.843096	28.258239
1005.240511	28.381342
1005.637886	28.480823
1006.035221	28.533436
1006.432517	28.503601
1006.829774	28.613857
1007.226991	28.687020
1007.624168	28.769408
1008.021306	28.779783
1008.418404	28.913328
1008.815462	28.851593
1009.212481	28.897284
1009.609460	29.145803
1010.006399	29.259914
1010.403298	29.603790
1010.800158	30.092617
1011.196978	30.334233
1011.593758	30.352273
1011.990498	30.779137
1012.387199	30.824199
1012.783860	30.982572
1013.180480	31.113833
1013.577061	31.323126
1013.973602	32.037830
1014.370103	32.304615
1014.766564	32.516721
1015.162985	32.704652
1015.559366	33.249686
1015.955708	33.451359
1016.352009	33.258195
1016.748270	33.824115
1017.144491	34.164986
1017.540671	34.218521
1017.936812	34.633854
1018.332913	35.039018
1018.728973	35.550679
1019.124994	36.187399
1019.520974	37.162377
1019.916914	37.994496
1020.312814	38.089867
