Time1=100ms:Average1=5:Objective=10X:Aperture=1: (11/21/2018 1:59:36 PM)
11/21/2018 1:59:36 PM
Reflectance
10X
Ap#: 1
Avg1: 5.000000
Avg2: 0.000000
Int.Time1:100.000000

350.166136	79.739656
350.601937	79.805657
351.037728	79.649054
351.473509	79.529412
351.909281	79.530728
352.345042	79.174484
352.780794	79.459086
353.216536	79.444060
353.652267	79.570212
354.087989	79.249579
354.523701	79.118925
354.959403	78.886586
355.395095	78.717720
355.830777	78.582740
356.266449	78.018178
356.702110	77.721993
357.137762	77.267824
357.573404	77.062512
358.009035	76.825210
358.444656	77.046769
358.880268	77.384090
359.315869	77.436999
359.751459	76.984748
360.187040	77.364568
360.622610	77.379784
361.058170	76.830709
361.493720	76.719890
361.929260	76.970710
362.364789	77.113789
362.800308	77.070757
363.235816	77.114967
363.671314	76.851943
364.106802	76.962424
364.542279	76.396965
364.977746	76.489707
365.413203	76.532330
365.848649	75.939478
366.284084	75.579552
366.719509	75.417119
367.154924	75.481386
367.590328	75.228996
368.025721	75.645575
368.461104	75.844695
368.896477	76.269174
369.331838	75.566726
369.767189	75.975501
370.202530	75.517891
370.637859	75.308765
371.073178	75.560426
371.508486	75.490294
371.943784	75.069527
372.379071	74.692094
372.814347	74.562011
373.249612	74.633808
373.684866	74.387947
374.120110	74.548148
374.555343	74.532317
374.990565	74.504558
375.425776	74.403170
375.860976	74.656654
376.296165	74.504193
376.731343	74.085788
377.166511	74.362789
377.601667	74.006900
378.036812	74.408983
378.471946	74.310209
378.907070	74.081333
379.342182	74.323136
379.777283	74.517488
380.212373	74.345396
380.647452	74.174586
381.082520	74.461418
381.517576	74.090731
381.952622	73.755437
382.387656	73.575676
382.822679	74.065913
383.257691	73.783165
383.692692	74.357020
384.127681	75.045122
384.562659	75.016586
384.997626	74.955125
385.432581	75.000000
385.867525	75.152091
386.302458	74.769990
386.737379	75.111788
387.172289	74.924041
387.607188	74.535281
388.042075	74.199641
388.476951	74.162815
388.911815	74.191121
389.346668	73.620092
389.781509	73.958724
390.216338	74.281434
390.651157	74.211954
391.085963	74.606594
391.520758	74.885203
391.955541	74.643689
392.390313	74.519500
392.825073	74.506334
393.259821	74.436509
393.694558	74.120044
394.129283	74.264570
394.563996	73.894133
394.998698	74.346617
395.433388	74.544860
395.868066	74.398239
396.302732	74.372258
396.737386	74.250745
397.172029	73.750465
397.606659	73.259143
398.041278	72.644195
398.475885	72.480372
398.910480	71.924760
399.345063	71.010106
399.779634	70.663501
400.214194	69.395753
400.648741	68.324156
401.083276	67.048675
401.517799	65.682318
401.952310	64.054085
402.386809	61.848368
402.821296	59.948106
403.255771	57.685814
403.690234	54.913068
404.124684	52.460187
404.559123	49.676626
404.993549	47.016052
405.427963	44.440740
405.862365	42.151017
406.296754	39.835550
406.731131	37.699144
407.165496	35.687137
407.599849	33.648762
408.034190	31.908666
408.468518	30.052957
408.902833	28.370903
409.337137	26.896085
409.771428	25.490848
410.205706	24.198101
410.639973	23.116836
411.074226	22.116231
411.508467	21.175381
411.942696	20.327247
412.376912	19.577654
412.811116	18.926858
413.245307	18.254751
413.679486	17.682408
414.113652	17.107673
414.547805	16.660100
414.981946	16.164400
415.416074	15.745394
415.850190	15.447060
416.284293	15.137310
416.718383	14.826953
417.152460	14.566084
417.586525	14.350854
418.020577	14.169493
418.454616	13.937063
418.888643	13.814658
419.322656	13.656254
419.756657	13.549421
420.190645	13.415621
420.624620	13.331045
421.058582	13.245812
421.492531	13.183539
421.926468	13.143111
422.360391	13.078606
422.794301	13.041568
423.228199	13.060919
423.662083	13.012193
424.095955	13.034629
424.529813	13.011235
424.963658	13.031335
425.397491	13.059948
425.831310	13.056090
426.265116	13.070190
426.698909	13.122256
427.132689	13.164755
427.566455	13.243083
428.000209	13.309597
428.433949	13.399766
428.867676	13.476525
429.301389	13.589557
429.735090	13.669591
430.168777	13.796987
430.602451	13.916245
431.036111	14.037933
431.469759	14.158754
431.903392	14.292063
432.337013	14.410836
432.770620	14.551941
433.204213	14.705565
433.637794	14.861598
434.071360	15.027935
434.504914	15.190949
434.938453	15.349006
435.371979	15.520169
435.805492	15.731664
436.238991	15.935082
436.672477	16.131592
437.105949	16.364299
437.539407	16.553579
437.972852	16.764854
438.406283	16.991022
438.839700	17.219930
439.273104	17.487927
439.706494	17.730680
440.139871	17.982306
440.573233	18.233283
441.006582	18.477792
441.439917	18.716282
441.873238	18.973873
442.306546	19.242261
442.739839	19.491314
443.173119	19.765822
443.606385	20.016862
444.039636	20.294709
444.472874	20.592741
444.906099	20.868679
445.339309	21.159765
445.772505	21.464337
446.205687	21.755283
446.638855	22.030090
447.072009	22.318827
447.505149	22.585757
447.938275	22.868658
448.371387	23.154766
448.804485	23.438420
449.237569	23.705986
449.670638	24.001520
450.103694	24.266674
450.536735	24.536138
450.969762	24.811111
451.402774	25.084136
451.835773	25.353656
452.268757	25.640761
452.701727	25.889017
453.134683	26.163302
453.567624	26.430313
454.000551	26.701385
454.433464	26.967631
454.866362	27.247595
455.299246	27.539449
455.732116	27.821742
456.164971	28.081318
456.597811	28.341589
457.030638	28.610918
457.463449	28.884399
457.896246	29.127760
458.329029	29.368451
458.761797	29.617368
459.194551	29.841738
459.627290	30.074548
460.060014	30.305445
460.492724	30.523503
460.925419	30.745195
461.358099	30.975984
461.790765	31.187880
462.223416	31.386651
462.656052	31.595082
463.088674	31.782531
463.521281	31.988134
463.953873	32.204795
464.386450	32.378745
464.819012	32.588775
465.251560	32.790347
465.684093	32.951989
466.116611	33.122341
466.549114	33.302717
466.981602	33.467226
467.414075	33.603614
467.846533	33.745546
468.278977	33.873124
468.711405	34.001780
469.143818	34.132401
469.576216	34.279852
470.008600	34.414617
470.440968	34.553645
470.873321	34.682350
471.305659	34.783314
471.737982	34.910350
472.170289	35.034511
472.602582	35.137553
473.034859	35.241851
473.467122	35.328440
473.899369	35.420370
474.331600	35.509070
474.763817	35.569241
475.196018	35.631763
475.628204	35.700036
476.060375	35.764965
476.492530	35.826953
476.924670	35.894576
477.356795	35.944517
477.788904	36.025992
478.220998	36.070404
478.653076	36.103881
479.085139	36.147612
479.517186	36.187385
479.949219	36.202761
480.381235	36.213004
480.813236	36.248670
481.245221	36.271230
481.677191	36.295819
482.109146	36.295482
482.541084	36.305769
482.973008	36.291790
483.404915	36.293752
483.836807	36.282508
484.268683	36.266025
484.700544	36.266726
485.132388	36.259121
485.564217	36.221722
485.996031	36.191803
486.427828	36.161986
486.859610	36.128727
487.291376	36.090283
487.723126	36.060695
488.154860	36.026080
488.586579	35.994144
489.018281	35.969113
489.449968	35.927737
489.881639	35.890500
490.313293	35.843204
490.744932	35.793954
491.176555	35.733795
491.608162	35.683793
492.039753	35.634925
492.471328	35.575375
492.902886	35.518375
493.334429	35.463649
493.765956	35.412226
494.197466	35.361352
494.628960	35.305744
495.060439	35.251684
495.491901	35.195477
495.923347	35.124703
496.354776	35.070588
496.786190	34.991237
497.217587	34.922454
497.648968	34.845714
498.080332	34.770999
498.511681	34.680216
498.943013	34.613256
499.374328	34.542750
499.805628	34.473836
500.236911	34.416696
500.668177	34.354450
501.099427	34.278363
501.530661	34.201400
501.961878	34.125177
502.393079	34.031492
502.824264	33.944879
503.255431	33.861033
503.686583	33.764993
504.117717	33.685853
504.548835	33.611812
504.979937	33.520968
505.411022	33.427988
505.842090	33.346836
506.273142	33.258674
506.704177	33.161405
507.135195	33.067121
507.566197	32.964354
507.997182	32.858223
508.428150	32.740869
508.859102	32.632680
509.290036	32.524003
509.720954	32.412048
510.151855	32.316856
510.582739	32.211062
511.013607	32.109323
511.444457	32.000041
511.875291	31.898371
512.306107	31.781377
512.736907	31.665410
513.167690	31.544293
513.598456	31.413119
514.029205	31.280121
514.459936	31.148134
514.890651	31.041728
515.321349	30.910980
515.752030	30.807132
516.182693	30.697551
516.613340	30.587213
517.043969	30.491745
517.474582	30.386780
517.905177	30.285085
518.335755	30.197744
518.766315	30.102865
519.196859	30.017993
519.627385	29.923171
520.057894	29.826136
520.488386	29.737125
520.918860	29.658191
521.349318	29.584168
521.779757	29.527635
522.210180	29.477618
522.640585	29.433736
523.070973	29.402775
523.501343	29.379688
523.931696	29.369730
524.362031	29.380375
524.792349	29.390036
525.222650	29.411973
525.652933	29.450646
526.083198	29.497098
526.513446	29.550999
526.943677	29.619661
527.373890	29.691399
527.804085	29.782427
528.234262	29.868708
528.664422	29.992868
529.094565	30.106308
529.524689	30.249740
529.954796	30.410730
530.384885	30.576037
530.814957	30.763003
531.245011	30.967998
531.675047	31.195166
532.105065	31.449230
532.535065	31.710464
532.965048	31.995659
533.395013	32.303069
533.824959	32.615993
534.254888	32.931244
534.684799	33.280106
535.114693	33.636357
535.544568	34.000189
535.974425	34.375619
536.404264	34.768065
536.834086	35.171224
537.263889	35.588500
537.693674	36.022421
538.123441	36.487862
538.553190	36.961442
538.982921	37.449601
539.412634	37.951842
539.842329	38.472752
540.272006	38.997394
540.701664	39.539176
541.131304	40.086336
541.560926	40.634701
541.990530	41.186318
542.420116	41.746159
542.849683	42.288128
543.279232	42.836279
543.708763	43.399078
544.138275	43.953193
544.567769	44.514196
544.997245	45.057821
545.426702	45.619909
545.856141	46.183135
546.285562	46.766205
546.714964	47.356573
547.144347	47.968174
547.573713	48.596862
548.003059	49.211633
548.432387	49.840824
548.861697	50.466212
549.290988	51.097863
549.720260	51.729976
550.149514	52.343634
550.578750	52.941041
551.007966	53.533174
551.437164	54.107261
551.866344	54.686248
552.295504	55.259757
552.724646	55.834219
553.153769	56.406772
553.582874	56.985661
554.011960	57.559228
554.441027	58.136953
554.870075	58.725001
555.299104	59.309382
555.728115	59.900083
556.157106	60.508750
556.586079	61.100064
557.015033	61.671028
557.443968	62.237838
557.872884	62.796959
558.301781	63.367533
558.730659	63.887662
559.159518	64.405710
559.588358	64.922855
560.017180	65.413322
560.445982	65.880689
560.874765	66.350106
561.303528	66.815949
561.732273	67.270118
562.160999	67.718827
562.589705	68.162840
563.018393	68.603112
563.447061	69.053671
563.875710	69.500388
564.304340	69.937008
564.732950	70.389890
565.161542	70.829631
565.590114	71.270310
566.018666	71.702467
566.447200	72.140719
566.875714	72.582265
567.304208	73.016258
567.732684	73.436502
568.161140	73.850442
568.589576	74.257209
569.017993	74.658198
569.446391	75.045901
569.874769	75.432337
570.303128	75.817443
570.731467	76.214111
571.159787	76.591474
571.588087	76.944249
572.016368	77.329634
572.444629	77.697108
572.872870	78.041819
573.301092	78.420613
573.729294	78.779398
574.157476	79.128607
574.585639	79.474364
575.013782	79.807465
575.441906	80.141050
575.870009	80.467022
576.298093	80.776363
576.726157	81.070889
577.154202	81.356837
577.582226	81.627222
578.010231	81.876879
578.438216	82.119717
578.866181	82.352045
579.294126	82.574658
579.722051	82.778607
580.149957	82.953146
580.577842	83.137482
581.005707	83.296997
581.433553	83.458787
581.861378	83.601398
582.289184	83.743670
582.716969	83.878287
583.144734	84.007599
583.572479	84.146215
584.000205	84.246416
584.427910	84.344004
584.855594	84.450331
585.283259	84.530217
585.710904	84.631275
586.138528	84.720431
586.566132	84.771415
586.993716	84.841261
587.421280	84.888486
587.848823	84.940172
588.276346	84.982187
588.703849	85.026719
589.131332	85.040130
589.558794	85.047433
589.986236	85.045294
590.413657	85.053790
590.841058	85.048250
591.268438	85.037792
591.695799	85.032277
592.123138	85.017298
592.550458	84.999406
592.977756	84.988083
593.405034	84.987341
593.832292	84.982198
594.259529	84.993055
594.686746	84.994836
595.113942	85.013700
595.541117	85.017775
595.968272	85.018639
596.395406	85.016383
596.822519	85.005001
597.249612	85.008887
597.676684	85.017738
598.103735	85.022541
598.530766	85.025401
598.957775	85.005061
599.384764	84.996517
599.811733	84.992896
600.238680	84.968437
600.665606	84.946637
601.092512	84.907948
601.519397	84.874303
601.946261	84.826270
602.373104	84.791413
602.799926	84.760351
603.226727	84.732466
603.653507	84.692586
604.080266	84.661655
604.507004	84.628228
604.933721	84.588307
605.360417	84.551519
605.787092	84.514912
606.213746	84.470655
606.640379	84.416452
607.066991	84.356376
607.493581	84.293120
607.920150	84.242180
608.346699	84.170791
608.773226	84.103585
609.199731	84.012553
609.626216	83.920792
610.052679	83.824719
610.479121	83.720983
610.905542	83.586701
611.331941	83.457655
611.758319	83.331654
612.184676	83.211373
612.611011	83.082026
613.037325	82.944488
613.463617	82.828990
613.889888	82.699308
614.316138	82.572405
614.742366	82.448449
615.168573	82.326226
615.594758	82.186380
616.020921	82.063429
616.447063	81.931866
616.873184	81.802735
617.299283	81.670872
617.725360	81.545062
618.151416	81.413641
618.577450	81.275186
619.003462	81.159542
619.429453	81.031367
619.855422	80.919257
620.281369	80.810985
620.707295	80.694222
621.133199	80.570222
621.559081	80.451654
621.984941	80.335025
622.410779	80.229312
622.836596	80.132962
623.262391	80.023170
623.688163	79.931511
624.113914	79.850990
624.539644	79.772054
624.965351	79.695736
625.391036	79.615452
625.816699	79.544641
626.242340	79.474588
626.667960	79.391095
627.093557	79.322928
627.519132	79.261409
627.944685	79.193851
628.370216	79.119900
628.795725	79.073224
629.221212	78.983932
629.646677	78.916197
630.072119	78.861267
630.497540	78.791892
630.922938	78.723183
631.348314	78.648298
631.773668	78.574896
632.198999	78.479088
632.624308	78.389365
633.049595	78.289015
633.474860	78.176837
633.900102	78.070507
634.325322	77.946626
634.750520	77.823183
635.175695	77.689537
635.600848	77.563599
636.025978	77.413268
636.451086	77.277402
636.876171	77.112568
637.301234	76.941321
637.726275	76.752742
638.151293	76.565433
638.576288	76.360569
639.001261	76.138347
639.426211	75.906815
639.851139	75.668240
640.276044	75.415499
640.700927	75.139526
641.125787	74.840570
641.550624	74.526244
641.975438	74.202482
642.400230	73.867377
642.824999	73.505967
643.249745	73.107704
643.674469	72.709651
644.099169	72.285854
644.523847	71.857982
644.948502	71.417260
645.373135	70.962694
645.797744	70.495794
646.222330	70.018080
646.646894	69.535082
647.071435	69.039262
647.495953	68.535440
647.920447	68.033268
648.344919	67.521493
648.769368	66.990850
649.193794	66.465454
649.618197	65.913106
650.042576	65.371940
650.466933	64.836091
650.891267	64.291535
651.315577	63.734836
651.739864	63.186745
652.164129	62.618989
652.588370	62.055087
653.012587	61.477222
653.436782	60.892680
653.860953	60.300795
654.285102	59.718576
654.709226	59.117809
655.133328	58.505945
655.557406	57.897615
655.981461	57.281254
656.405493	56.674702
656.829501	56.062933
657.253486	55.455810
657.677448	54.849034
658.101386	54.255368
658.525301	53.670324
658.949192	53.098083
659.373060	52.534888
659.796904	51.985409
660.220725	51.459351
660.644522	50.942142
661.068296	50.438560
661.492046	49.951390
661.915772	49.489383
662.339475	49.041612
662.763154	48.612214
663.186810	48.194728
663.610442	47.792155
664.034050	47.398599
664.457635	47.016617
664.881196	46.642983
665.304733	46.299378
665.728247	45.961305
666.151736	45.641574
666.575202	45.329995
666.998644	45.042213
667.422062	44.752910
667.845457	44.488267
668.268827	44.229292
668.692174	43.991263
669.115496	43.772997
669.538795	43.561210
669.962070	43.365060
670.385321	43.190161
670.808547	43.032479
671.231750	42.886765
671.654929	42.753843
672.078084	42.636576
672.501214	42.528758
672.924321	42.440464
673.347404	42.360387
673.770462	42.298811
674.193496	42.240716
674.616506	42.195023
675.039492	42.165747
675.462454	42.143279
675.885391	42.137269
676.308305	42.137903
676.731194	42.149225
677.154058	42.174616
677.576899	42.215692
677.999715	42.269431
678.422507	42.327854
678.845274	42.399120
679.268017	42.482820
679.690736	42.582319
680.113430	42.691519
680.536100	42.817933
680.958746	42.957064
681.381367	43.118894
681.803963	43.280715
682.226535	43.447481
682.649083	43.633505
683.071605	43.841122
683.494104	44.051274
683.916578	44.262828
684.339027	44.488437
684.761451	44.734271
685.183851	44.990231
685.606227	45.260319
686.028577	45.534836
686.450903	45.833784
686.873204	46.136620
687.295481	46.459651
687.717733	46.794911
688.139959	47.128345
688.562162	47.478999
688.984339	47.837859
689.406492	48.209203
689.828619	48.583188
690.250722	48.978524
690.672800	49.373499
691.094853	49.774225
691.516881	50.188896
691.938884	50.617214
692.360863	51.041383
692.782816	51.478869
693.204744	51.920061
693.626647	52.364782
694.048526	52.824472
694.470379	53.278108
694.892207	53.743444
695.314010	54.224959
695.735788	54.710431
696.157540	55.183826
696.579268	55.680694
697.000970	56.182375
697.422648	56.698305
697.844300	57.214187
698.265926	57.730963
698.687528	58.259852
699.109104	58.796237
699.530655	59.328110
699.952181	59.883961
700.373681	60.443441
700.795156	61.008855
701.216606	61.585867
701.638030	62.171600
702.059429	62.760680
702.480803	63.366329
702.902151	63.979705
703.323473	64.597314
703.744770	65.219837
704.166042	65.851479
704.587288	66.492314
705.008509	67.124321
705.429704	67.774779
705.850873	68.415860
706.272017	69.052828
706.693135	69.697782
707.114228	70.331248
707.535295	70.974622
707.956336	71.610807
708.377352	72.235384
708.798342	72.861946
709.219306	73.478296
709.640245	74.085104
710.061157	74.692283
710.482044	75.272781
710.902905	75.848628
711.323741	76.415034
711.744550	76.968094
712.165334	77.518356
712.586092	78.053603
713.006823	78.580236
713.427529	79.095780
713.848209	79.605365
714.268863	80.114310
714.689492	80.600972
715.110094	81.079726
715.530670	81.541432
715.951220	82.009529
716.371744	82.463826
716.792242	82.911150
717.212714	83.348857
717.633159	83.779761
718.053579	84.205757
718.473973	84.612887
718.894340	85.016852
719.314681	85.416530
719.734996	85.798966
720.155285	86.175386
720.575547	86.532292
720.995784	86.877948
721.415994	87.212432
721.836177	87.514865
722.256335	87.827406
722.676466	88.099673
723.096570	88.360748
723.516649	88.614074
723.936701	88.851125
724.356726	89.076338
724.776725	89.286371
725.196698	89.473267
725.616644	89.657816
726.036564	89.810357
726.456457	89.939141
726.876324	90.053044
727.296164	90.150851
727.715977	90.242396
728.135764	90.330315
728.555525	90.392888
728.975258	90.442655
729.394966	90.474695
729.814646	90.505743
730.234300	90.527125
730.653927	90.542220
731.073527	90.542661
731.493101	90.530355
731.912648	90.514405
732.332168	90.490996
732.751661	90.462251
733.171128	90.423742
733.590568	90.385451
734.009980	90.334618
734.429366	90.294818
734.848726	90.244967
735.268058	90.193672
735.687363	90.147335
736.106641	90.100355
736.525893	90.047312
736.945117	89.993256
737.364314	89.936299
737.783485	89.878967
738.202628	89.818627
738.621744	89.755466
739.040834	89.685680
739.459896	89.639645
739.878931	89.594502
740.297939	89.538176
740.716919	89.482751
741.135873	89.435748
741.554799	89.398978
741.973698	89.360776
742.392570	89.325545
742.811415	89.294190
743.230232	89.245842
743.649022	89.194071
744.067785	89.153921
744.486521	89.124564
744.905229	89.102942
745.323909	89.062879
745.742563	89.024453
746.161189	88.993737
746.579787	88.961561
746.998358	88.948536
747.416902	88.924829
747.835418	88.917615
748.253907	88.905968
748.672368	88.895118
749.090802	88.892345
749.509208	88.887454
749.927586	88.883201
750.345937	88.898833
750.764261	88.910092
751.182556	88.935044
751.600824	88.949104
752.019065	88.987798
752.437277	89.018466
752.855462	89.053071
753.273620	89.097509
753.691749	89.156672
754.109851	89.208544
754.527925	89.271257
754.945971	89.343799
755.363989	89.431242
755.781980	89.526199
756.199943	89.644939
756.617877	89.763809
757.035784	89.900808
757.453663	90.049912
757.871514	90.196036
758.289337	90.390731
758.707132	90.590466
759.124899	90.798661
759.542639	91.032359
759.960350	91.257374
760.378033	91.505300
760.795688	91.752512
761.213314	92.014539
761.630913	92.305427
762.048484	92.600718
762.466026	92.921169
762.883541	93.243879
763.301027	93.563255
763.718485	93.898573
764.135914	94.240515
764.553316	94.587603
764.970689	94.943031
765.388034	95.296361
765.805351	95.651838
766.222639	96.015893
766.639899	96.373572
767.057131	96.754461
767.474334	97.148731
767.891509	97.539025
768.308655	97.926741
768.725773	98.315273
769.142863	98.713380
769.559924	99.120470
769.976957	99.522844
770.393961	99.916825
770.810936	100.322685
771.227883	100.712518
771.644802	101.111999
772.061692	101.486854
772.478553	101.857741
772.895386	102.246620
773.312190	102.607497
773.728965	102.986871
774.145712	103.354811
774.562430	103.712290
774.979119	104.064122
775.395780	104.395930
775.812411	104.728474
776.229014	105.032044
776.645589	105.349749
777.062134	105.669851
777.478651	105.984971
777.895138	106.274019
778.311597	106.568990
778.728027	106.857117
779.144428	107.152087
779.560800	107.438177
779.977143	107.704077
780.393458	107.957830
780.809743	108.212701
781.225999	108.464685
781.642226	108.717548
782.058425	108.960854
782.474594	109.183560
782.890734	109.393725
783.306845	109.605466
783.722926	109.805016
784.138979	109.986757
784.555003	110.166388
784.970997	110.362292
785.386962	110.531775
785.802898	110.688477
786.218805	110.846657
786.634682	110.987663
787.050531	111.131161
787.466349	111.234348
787.882139	111.324221
788.297899	111.417146
788.713630	111.505875
789.129332	111.608727
789.545004	111.694399
789.960647	111.758236
790.376260	111.821822
790.791844	111.877544
791.207399	111.921819
791.622924	111.976418
792.038419	112.004879
792.453885	112.037938
792.869321	112.076334
793.284728	112.103971
793.700106	112.127155
794.115453	112.172467
794.530771	112.193595
794.946060	112.218200
795.361319	112.237417
795.776548	112.262536
796.191747	112.285558
796.606917	112.308019
797.022057	112.356602
797.437167	112.359500
797.852248	112.395953
798.267298	112.418590
798.682319	112.452143
799.097310	112.496113
799.512271	112.529460
799.927203	112.555793
800.342104	112.609172
800.756976	112.664927
801.171818	112.703562
801.586629	112.766915
802.001411	112.822907
802.416163	112.871534
802.830885	112.940862
803.245577	112.987194
803.660238	113.056269
804.074870	113.115701
804.489472	113.158630
804.904043	113.224341
805.318585	113.294327
805.733096	113.357750
806.147577	113.427116
806.562028	113.478460
806.976449	113.511048
807.390840	113.551161
807.805200	113.585367
808.219530	113.635908
808.633830	113.679017
809.048100	113.704623
809.462339	113.726405
809.876548	113.757000
810.290727	113.807427
810.704875	113.825719
811.118993	113.841027
811.533080	113.857320
811.947137	113.863287
812.361164	113.875483
812.775160	113.862864
813.189126	113.867470
813.603061	113.859621
814.016966	113.877346
814.430840	113.856226
814.844684	113.848475
815.258497	113.825653
815.672280	113.793360
816.086032	113.784835
816.499753	113.754895
816.913444	113.709617
817.327104	113.683455
817.740733	113.642416
818.154331	113.599571
818.567899	113.550333
818.981436	113.497312
819.394943	113.467523
819.808418	113.427130
820.221863	113.379461
820.635277	113.332397
821.048660	113.270054
821.462013	113.194744
821.875334	113.137337
822.288625	113.058373
822.701884	112.967066
823.115113	112.889822
823.528311	112.789064
823.941478	112.710230
824.354614	112.604416
824.767718	112.507006
825.180792	112.378389
825.593835	112.285321
826.006847	112.178841
826.419827	112.062162
826.832777	111.942148
827.245695	111.836160
827.658582	111.715389
828.071438	111.595053
828.484263	111.449776
828.897057	111.309700
829.309819	111.178474
829.722551	111.065233
830.135251	110.937402
830.547919	110.804424
830.960557	110.654453
831.373163	110.527608
831.785738	110.384256
832.198281	110.207741
832.610793	110.055622
833.023274	109.920694
833.435723	109.765290
833.848141	109.629981
834.260528	109.519924
834.672883	109.402613
835.085206	109.287820
835.497498	109.153695
835.909758	109.031757
836.321987	108.924476
836.734185	108.802102
837.146350	108.669429
837.558485	108.550579
837.970587	108.450726
838.382658	108.352062
838.794697	108.246046
839.206705	108.138996
839.618681	108.018094
840.030625	107.912655
840.442538	107.773468
840.854418	107.661780
841.266267	107.564603
841.678084	107.454292
842.089870	107.334605
842.501623	107.229364
842.913345	107.117714
843.325035	107.005333
843.736693	106.906233
844.148319	106.776429
844.559913	106.649767
844.971475	106.533775
845.383005	106.449671
845.794504	106.310384
846.205970	106.200898
846.617404	106.065231
847.028806	105.913562
847.440176	105.782991
847.851514	105.652189
848.262820	105.539960
848.674094	105.394495
849.085336	105.259332
849.496546	105.115340
849.907723	105.023657
850.318868	104.879641
850.729981	104.711672
851.141062	104.550861
851.552110	104.379394
851.963127	104.246967
852.374111	104.109828
852.785062	103.941260
853.195982	103.824706
853.606869	103.673061
854.017723	103.524685
854.428546	103.391432
854.839336	103.280741
855.250093	103.137477
855.660818	102.998716
856.071511	102.878009
856.482171	102.750594
856.892799	102.638461
857.303394	102.554095
857.713956	102.464815
858.124486	102.320802
858.534984	102.200731
858.945449	102.091767
859.355881	101.981676
859.766280	101.888837
860.176647	101.766034
860.586982	101.685693
860.997283	101.556853
861.407552	101.470996
861.817789	101.366664
862.227992	101.285187
862.638163	101.156620
863.048301	101.073685
863.458406	100.998257
863.868478	100.915094
864.278518	100.850266
864.688524	100.750613
865.098498	100.635051
865.508439	100.534009
865.918347	100.434137
866.328222	100.358201
866.738064	100.254220
867.147873	100.153506
867.557649	100.007995
867.967392	99.901020
868.377102	99.760477
868.786779	99.636677
869.196423	99.494138
869.606034	99.363166
870.015612	99.189649
870.425156	99.019001
870.834668	98.841641
871.244146	98.710072
871.653591	98.536637
872.063003	98.346412
872.472382	98.145276
872.881728	97.956659
873.291040	97.726865
873.700319	97.504763
874.109564	97.281265
874.518777	97.052776
874.927956	96.799741
875.337102	96.576462
875.746214	96.309697
876.155293	96.078106
876.564338	95.829996
876.973350	95.568703
877.382329	95.302223
877.791274	95.053756
878.200186	94.802208
878.609064	94.563576
879.017909	94.308548
879.426720	94.037605
879.835497	93.790957
880.244241	93.555399
880.652952	93.307069
881.061629	93.069966
881.470272	92.798075
881.878881	92.565564
882.287457	92.284637
882.695999	92.004377
883.104507	91.758831
883.512982	91.519475
883.921423	91.277903
884.329830	90.998027
884.738203	90.765295
885.146543	90.516459
885.554849	90.257489
885.963120	90.027264
886.371358	89.792205
886.779563	89.535970
887.187733	89.306551
887.595869	89.099297
888.003971	88.846589
888.412040	88.614052
888.820074	88.350822
889.228074	88.099390
889.636041	87.812231
890.043973	87.564529
890.451871	87.296011
890.859736	87.029404
891.267566	86.738143
891.675362	86.415465
892.083124	86.134629
892.490851	85.824458
892.898545	85.508958
893.306204	85.156236
893.713829	84.838070
894.121420	84.519343
894.528977	84.180235
894.936499	83.856350
895.343987	83.552061
895.751441	83.183675
896.158860	82.821128
896.566246	82.455941
896.973596	82.121116
897.380913	81.751719
897.788195	81.385269
898.195442	81.058644
898.602655	80.687145
899.009834	80.359203
899.416978	80.018254
899.824088	79.645790
900.231163	79.259303
900.638204	78.929557
901.045210	78.568914
901.452181	78.242362
901.859118	77.862924
902.266021	77.542162
902.672888	77.205147
903.079721	76.890862
903.486520	76.582269
903.893283	76.241679
904.300012	75.989316
904.706707	75.676078
905.113366	75.366463
905.519991	75.085231
905.926581	74.823711
906.333136	74.541288
906.739656	74.234559
907.146142	73.947120
907.552592	73.691191
907.959008	73.426604
908.365389	73.218822
908.771735	73.002780
909.178046	72.790321
909.584322	72.582663
909.990563	72.390373
910.396769	72.233702
910.802940	72.013862
911.209076	71.845486
911.615177	71.662416
912.021243	71.502705
912.427274	71.358375
912.833270	71.256043
913.239231	71.093482
913.645156	70.999507
914.051046	70.887923
914.456902	70.806689
914.862721	70.743023
915.268506	70.667879
915.674256	70.576709
916.079970	70.490663
916.485649	70.448476
916.891292	70.346671
917.296901	70.290944
917.702474	70.219374
918.108011	70.179544
918.513514	70.118073
918.918980	70.059990
919.324412	70.055132
919.729808	70.022961
920.135169	69.968605
920.540494	69.934722
920.945783	69.894367
921.351037	69.841261
921.756256	69.779076
922.161439	69.737410
922.566586	69.672847
922.971698	69.605226
923.376775	69.568434
923.781815	69.492096
924.186820	69.407770
924.591790	69.313551
924.996723	69.210110
925.401621	69.072511
925.806484	68.992460
926.211310	68.872570
926.616101	68.760881
927.020856	68.652754
927.425575	68.480176
927.830259	68.318680
928.234906	68.173076
928.639518	68.005656
929.044094	67.828658
929.448634	67.668202
929.853138	67.497240
930.257606	67.339241
930.662038	67.112223
931.066434	66.929196
931.470795	66.721540
931.875119	66.519091
932.279407	66.339490
932.683659	66.140892
933.087875	65.924271
933.492055	65.721903
933.896199	65.523854
934.300307	65.265494
934.704379	65.009509
935.108414	64.790415
935.512414	64.558297
935.916377	64.300340
936.320304	64.106422
936.724195	63.874095
937.128049	63.668022
937.531867	63.470228
937.935649	63.302236
938.339395	63.103011
938.743104	62.888778
939.146777	62.723999
939.550414	62.520724
939.954014	62.383910
940.357578	62.206410
940.761105	62.023201
941.164596	61.879213
941.568050	61.718191
941.971468	61.585849
942.374850	61.474105
942.778195	61.341598
943.181503	61.249365
943.584775	61.160558
943.988010	61.073627
944.391209	60.948030
944.794371	60.836982
945.197496	60.762112
945.600585	60.720638
946.003637	60.625224
946.406653	60.526975
946.809632	60.523329
947.212574	60.510137
947.615479	60.456144
948.018347	60.384656
948.421179	60.361698
948.823974	60.286231
949.226732	60.246766
949.629453	60.162414
950.032138	60.106561
950.434785	59.999850
950.837396	59.925593
951.239969	59.861439
951.642506	59.708685
952.045006	59.590840
952.447469	59.475006
952.849895	59.384553
953.252283	59.271887
953.654635	59.160655
954.056950	58.999748
954.459227	58.814729
954.861468	58.623313
955.263671	58.465728
955.665838	58.245033
956.067967	58.066040
956.470059	57.906447
956.872114	57.727244
957.274131	57.521868
957.676112	57.316806
958.078055	57.081745
958.479961	56.890309
958.881829	56.679994
959.283661	56.482662
959.685455	56.243571
960.087211	56.041083
960.488931	55.831028
960.890613	55.560442
961.292257	55.338761
961.693864	55.119201
962.095434	54.875950
962.496966	54.651946
962.898461	54.460049
963.299918	54.220803
963.701338	54.001501
964.102720	53.817013
964.504065	53.638356
964.905372	53.428412
965.306641	53.228573
965.707873	53.089907
966.109068	52.904756
966.510224	52.781734
966.911343	52.665773
967.312425	52.490282
967.713468	52.354231
968.114474	52.290356
968.515442	52.226581
968.916373	52.100131
969.317265	52.022448
969.718120	51.984074
970.118937	51.865193
970.519716	51.820793
970.920458	51.738528
971.321161	51.668568
971.721827	51.576852
972.122454	51.536921
972.523044	51.471091
972.923596	51.502373
973.324110	51.543183
973.724585	51.546070
974.125023	51.537439
974.525423	51.570255
974.925785	51.556147
975.326108	51.567629
975.726394	51.540305
976.126642	51.545236
976.526851	51.628157
976.927022	51.714376
977.327155	51.816125
977.727250	51.885891
978.127307	51.884181
978.527325	51.959359
978.927306	52.030975
979.327248	52.147069
979.727151	52.300683
980.127017	52.367012
980.526844	52.489681
980.926633	52.462176
981.326383	52.533510
981.726095	52.591982
982.125769	52.691891
982.525404	52.822045
982.925001	52.855854
983.324560	52.975586
983.724079	53.127488
984.123561	53.177198
984.523004	53.283761
984.922408	53.394506
985.321774	53.366539
985.721102	53.413129
986.120390	53.449395
986.519641	53.530999
986.918852	53.605420
987.318025	53.795225
987.717159	53.832335
988.116255	54.010383
988.515312	54.186453
988.914330	54.254942
989.313310	54.329214
989.712250	54.373130
990.111152	54.555242
990.510015	54.645215
990.908840	54.698326
991.307625	54.889993
991.706372	54.866847
992.105080	54.809217
992.503749	54.840881
992.902379	54.776373
993.300970	54.801322
993.699522	54.910657
994.098035	54.961529
994.496510	54.774820
994.894945	54.777837
995.293341	54.719994
995.691698	54.746593
996.090016	54.612733
996.488296	54.650484
996.886535	54.644422
997.284736	54.481475
997.682898	54.515244
998.081021	54.473884
998.479104	54.379260
998.877148	54.353135
999.275153	54.381765
999.673119	54.135711
1000.071046	54.179674
1000.468933	54.171219
1000.866781	54.044900
1001.264590	53.873260
1001.662359	53.796299
1002.060089	53.660001
1002.457780	53.276852
1002.855431	53.067002
1003.253043	52.928452
1003.650615	52.683201
1004.048148	52.710813
1004.445642	52.710131
1004.843096	52.637198
1005.240511	52.737973
1005.637886	52.720859
1006.035221	52.518790
1006.432517	52.417504
1006.829774	52.646568
1007.226991	52.460794
1007.624168	52.564267
1008.021306	52.330063
1008.418404	52.377518
1008.815462	52.246279
1009.212481	52.118401
1009.609460	52.371134
1010.006399	52.306138
1010.403298	52.184100
1010.800158	52.545639
1011.196978	52.480590
1011.593758	52.340909
1011.990498	52.566879
1012.387199	52.691819
1012.783860	52.851521
1013.180480	53.119763
1013.577061	53.633750
1013.973602	54.128124
1014.370103	54.372053
1014.766564	54.670474
1015.162985	55.051906
1015.559366	55.240485
1015.955708	55.430645
1016.352009	55.339532
1016.748270	55.600875
1017.144491	55.759635
1017.540671	55.699336
1017.936812	55.822329
1018.332913	56.198030
1018.728973	56.576601
1019.124994	56.586870
1019.520974	57.324436
1019.916914	57.361541
1020.312814	57.830419
