Time1=100ms:Average1=5:Objective=10X:Aperture=1: (11/21/2018 1:53:28 PM)
11/21/2018 1:53:28 PM
Reflectance
10X
Ap#: 1
Avg1: 5.000000
Avg2: 0.000000
Int.Time1:100.000000

350.166136	78.503022
350.601937	78.054647
351.037728	77.472797
351.473509	77.519608
351.909281	77.685058
352.345042	77.505678
352.780794	77.159214
353.216536	76.980908
353.652267	77.748069
354.087989	77.754678
354.523701	77.736073
354.959403	77.336887
355.395095	77.421589
355.830777	77.573238
356.266449	77.435289
356.702110	77.406970
357.137762	77.022654
357.573404	76.601999
358.009035	76.570757
358.444656	76.448671
358.880268	76.339678
359.315869	76.411408
359.751459	76.212358
360.187040	76.817960
360.622610	77.075564
361.058170	77.145669
361.493720	77.015573
361.929260	77.019855
362.364789	76.926116
362.800308	76.981692
363.235816	77.026228
363.671314	76.753566
364.106802	77.178831
364.542279	77.027693
364.977746	77.060967
365.413203	77.126448
365.848649	77.126187
366.284084	77.333069
366.719509	77.490374
367.154924	77.011948
367.590328	77.228405
368.025721	76.897299
368.461104	76.941316
368.896477	76.843147
369.331838	76.118667
369.767189	76.726267
370.202530	76.945188
370.637859	76.872510
371.073178	77.174455
371.508486	77.122947
371.943784	77.026222
372.379071	76.658721
372.814347	76.670296
373.249612	76.979414
373.684866	76.855982
374.120110	77.323457
374.555343	77.531426
374.990565	77.824019
375.425776	77.543338
375.860976	77.640549
376.296165	77.701036
376.731343	77.792054
377.166511	77.952990
377.601667	77.713159
378.036812	78.152088
378.471946	78.123768
378.907070	77.981382
379.342182	77.548627
379.777283	77.456647
380.212373	77.316858
380.647452	77.407661
381.082520	77.497062
381.517576	77.551819
381.952622	77.196713
382.387656	77.124496
382.822679	77.735198
383.257691	77.161672
383.692692	77.062298
384.127681	77.581457
384.562659	77.386030
384.997626	77.609825
385.432581	77.622113
385.867525	78.108365
386.302458	78.051788
386.737379	78.517743
387.172289	78.256741
387.607188	77.731411
388.042075	77.674946
388.476951	77.275729
388.911815	77.200903
389.346668	76.909381
389.781509	76.716698
390.216338	77.033986
390.651157	77.420260
391.085963	77.613338
391.520758	77.743417
391.955541	77.661854
392.390313	77.701064
392.825073	77.971311
393.259821	78.035433
393.694558	77.760282
394.129283	78.279371
394.563996	78.169535
394.998698	78.572753
395.433388	78.797498
395.868066	78.411539
396.302732	78.372071
396.737386	78.229710
397.172029	78.158677
397.606659	77.862948
398.041278	77.378766
398.475885	77.341610
398.910480	76.963327
399.345063	76.018341
399.779634	75.100031
400.214194	73.612128
400.648741	72.624102
401.083276	71.505443
401.517799	69.882118
401.952310	68.265468
402.386809	66.289398
402.821296	64.499622
403.255771	62.451328
403.690234	59.624767
404.124684	57.225344
404.559123	54.683796
404.993549	52.248594
405.427963	49.793532
405.862365	47.383672
406.296754	44.806917
406.731131	42.619487
407.165496	40.605043
407.599849	38.650824
408.034190	36.846219
408.468518	35.285399
408.902833	33.808373
409.337137	32.754481
409.771428	31.480729
410.205706	30.405320
410.639973	29.364515
411.074226	28.433458
411.508467	27.697865
411.942696	27.007890
412.376912	26.465300
412.811116	25.956570
413.245307	25.552009
413.679486	25.214719
414.113652	24.843147
414.547805	24.519195
414.981946	24.316656
415.416074	24.176068
415.850190	24.066294
416.284293	24.007645
416.718383	23.997809
417.152460	23.995911
417.586525	24.004984
418.020577	24.078277
418.454616	24.085608
418.888643	24.165391
419.322656	24.274571
419.756657	24.452740
420.190645	24.618136
420.624620	24.829243
421.058582	25.025259
421.492531	25.245555
421.926468	25.455775
422.360391	25.689879
422.794301	25.902044
423.228199	26.139809
423.662083	26.376235
424.095955	26.679311
424.529813	26.994958
424.963658	27.337341
425.397491	27.616393
425.831310	27.889934
426.265116	28.216349
426.698909	28.547929
427.132689	28.850481
427.566455	29.184673
428.000209	29.526203
428.433949	29.827503
428.867676	30.163572
429.301389	30.534263
429.735090	30.850476
430.168777	31.181631
430.602451	31.492783
431.036111	31.854923
431.469759	32.168640
431.903392	32.499556
432.337013	32.805754
432.770620	33.125137
433.204213	33.444713
433.637794	33.782554
434.071360	34.075018
434.504914	34.363830
434.938453	34.665116
435.371979	34.975437
435.805492	35.272137
436.238991	35.577971
436.672477	35.882004
437.105949	36.182636
437.539407	36.453398
437.972852	36.713204
438.406283	36.991893
438.839700	37.250237
439.273104	37.519577
439.706494	37.766542
440.139871	38.023138
440.573233	38.270119
441.006582	38.508469
441.439917	38.729430
441.873238	38.959669
442.306546	39.173539
442.739839	39.347460
443.173119	39.558867
443.606385	39.723053
444.039636	39.894226
444.472874	40.049812
444.906099	40.219586
445.339309	40.375972
445.772505	40.553281
446.205687	40.711709
446.638855	40.869302
447.072009	40.960624
447.505149	41.100906
447.938275	41.238153
448.371387	41.363884
448.804485	41.462300
449.237569	41.551768
449.670638	41.656633
450.103694	41.732015
450.536735	41.808703
450.969762	41.895817
451.402774	41.961574
451.835773	42.012717
452.268757	42.091492
452.701727	42.146920
453.134683	42.188075
453.567624	42.208064
454.000551	42.235770
454.433464	42.246011
454.866362	42.269767
455.299246	42.279408
455.732116	42.286941
456.164971	42.301763
456.597811	42.305451
457.030638	42.317458
457.463449	42.339055
457.896246	42.294086
458.329029	42.274149
458.761797	42.246764
459.194551	42.212673
459.627290	42.156071
460.060014	42.092979
460.492724	42.045455
460.925419	41.972766
461.358099	41.942027
461.790765	41.855238
462.223416	41.752246
462.656052	41.681069
463.088674	41.573372
463.521281	41.479933
463.953873	41.371233
464.386450	41.218794
464.819012	41.089342
465.251560	40.943261
465.684093	40.779084
466.116611	40.636679
466.549114	40.496784
466.981602	40.344987
467.414075	40.179689
467.846533	39.996435
468.278977	39.802918
468.711405	39.627442
469.143818	39.431459
469.576216	39.218572
470.008600	38.979199
470.440968	38.736453
470.873321	38.496287
471.305659	38.263877
471.737982	38.012322
472.170289	37.765754
472.602582	37.483763
473.034859	37.216088
473.467122	36.941523
473.899369	36.670251
474.331600	36.390506
474.763817	36.081668
475.196018	35.800473
475.628204	35.511950
476.060375	35.195023
476.492530	34.883616
476.924670	34.556459
477.356795	34.231498
477.788904	33.914280
478.220998	33.571415
478.653076	33.233367
479.085139	32.901195
479.517186	32.552907
479.949219	32.205882
480.381235	31.861727
480.813236	31.535522
481.245221	31.228831
481.677191	30.911753
482.109146	30.568113
482.541084	30.240824
482.973008	29.917868
483.404915	29.597835
483.836807	29.278186
484.268683	28.958989
484.700544	28.636232
485.132388	28.323747
485.564217	28.018009
485.996031	27.729417
486.427828	27.451778
486.859610	27.190987
487.291376	26.937748
487.723126	26.713616
488.154860	26.494085
488.586579	26.286142
489.018281	26.098244
489.449968	25.933016
489.881639	25.769293
490.313293	25.620749
490.744932	25.479941
491.176555	25.346129
491.608162	25.230925
492.039753	25.125009
492.471328	25.019117
492.902886	24.926658
493.334429	24.863852
493.765956	24.827113
494.197466	24.792400
494.628960	24.746509
495.060439	24.734467
495.491901	24.740386
495.923347	24.757700
496.354776	24.775403
496.786190	24.821979
497.217587	24.882782
497.648968	24.936998
498.080332	25.031977
498.511681	25.129532
498.943013	25.232444
499.374328	25.355682
499.805628	25.487979
500.236911	25.627233
500.668177	25.787107
501.099427	25.939057
501.530661	26.110414
501.961878	26.283397
502.393079	26.459591
502.824264	26.649008
503.255431	26.845501
503.686583	27.041271
504.117717	27.246373
504.548835	27.469461
504.979937	27.692257
505.411022	27.914431
505.842090	28.155496
506.273142	28.404482
506.704177	28.645629
507.135195	28.887805
507.566197	29.131846
507.997182	29.382112
508.428150	29.631825
508.859102	29.893350
509.290036	30.145604
509.720954	30.410477
510.151855	30.674876
510.582739	30.949508
511.013607	31.240144
511.444457	31.515418
511.875291	31.804086
512.306107	32.094583
512.736907	32.379302
513.167690	32.667200
513.598456	32.950147
514.029205	33.234573
514.459936	33.527192
514.890651	33.811450
515.321349	34.105243
515.752030	34.405414
516.182693	34.692206
516.613340	34.960898
517.043969	35.254673
517.474582	35.540391
517.905177	35.819556
518.335755	36.108949
518.766315	36.411873
519.196859	36.704590
519.627385	36.984428
520.057894	37.269185
520.488386	37.534851
520.918860	37.809366
521.349318	38.089629
521.779757	38.364951
522.210180	38.639634
522.640585	38.925499
523.070973	39.201031
523.501343	39.473617
523.931696	39.744335
524.362031	40.019026
524.792349	40.302353
525.222650	40.600769
525.652933	40.911678
526.083198	41.236349
526.513446	41.566366
526.943677	41.912151
527.373890	42.268620
527.804085	42.643947
528.234262	43.005633
528.664422	43.380424
529.094565	43.753609
529.524689	44.142338
529.954796	44.550500
530.384885	44.934241
530.814957	45.327868
531.245011	45.722913
531.675047	46.140345
532.105065	46.555640
532.535065	46.993519
532.965048	47.436219
533.395013	47.889370
533.824959	48.364589
534.254888	48.836703
534.684799	49.333515
535.114693	49.834688
535.544568	50.333997
535.974425	50.821403
536.404264	51.310171
536.834086	51.795513
537.263889	52.271304
537.693674	52.738522
538.123441	53.202632
538.553190	53.631627
538.982921	54.053714
539.412634	54.474627
539.842329	54.872992
540.272006	55.282242
540.701664	55.689491
541.131304	56.075085
541.560926	56.477366
541.990530	56.878344
542.420116	57.282173
542.849683	57.677113
543.279232	58.061024
543.708763	58.451625
544.138275	58.833392
544.567769	59.227539
544.997245	59.573268
545.426702	59.920225
545.856141	60.251246
546.285562	60.591669
546.714964	60.918751
547.144347	61.259081
547.573713	61.592704
548.003059	61.927406
548.432387	62.271932
548.861697	62.622145
549.290988	62.986492
549.720260	63.378717
550.149514	63.767065
550.578750	64.161222
551.007966	64.567308
551.437164	64.974584
551.866344	65.410758
552.295504	65.848705
552.724646	66.277657
553.153769	66.733178
553.582874	67.163085
554.011960	67.590024
554.441027	68.015503
554.870075	68.442870
555.299104	68.859802
555.728115	69.269891
556.157106	69.669147
556.586079	70.058405
557.015033	70.446906
557.443968	70.828650
557.872884	71.214742
558.301781	71.609670
558.730659	71.977298
559.159518	72.361329
559.588358	72.738622
560.017180	73.109813
560.445982	73.444058
560.874765	73.790273
561.303528	74.115666
561.732273	74.417506
562.160999	74.700728
562.589705	74.980848
563.018393	75.237067
563.447061	75.474309
563.875710	75.710866
564.304340	75.924759
564.732950	76.131137
565.161542	76.315837
565.590114	76.499165
566.018666	76.678576
566.447200	76.840690
566.875714	77.021618
567.304208	77.196021
567.732684	77.366186
568.161140	77.534879
568.589576	77.708850
569.017993	77.886100
569.446391	78.062183
569.874769	78.254792
570.303128	78.452411
570.731467	78.644939
571.159787	78.809417
571.588087	78.979037
572.016368	79.173676
572.444629	79.355604
572.872870	79.522718
573.301092	79.701153
573.729294	79.882907
574.157476	80.060391
574.585639	80.246039
575.013782	80.429568
575.441906	80.624743
575.870009	80.819325
576.298093	81.015832
576.726157	81.210109
577.154202	81.396474
577.582226	81.601531
578.010231	81.805767
578.438216	82.018811
578.866181	82.219819
579.294126	82.418167
579.722051	82.619276
580.149957	82.802515
580.577842	82.994314
581.005707	83.169965
581.433553	83.350515
581.861378	83.507955
582.289184	83.649969
582.716969	83.785378
583.144734	83.903761
583.572479	84.008553
584.000205	84.112555
584.427910	84.207430
584.855594	84.294409
585.283259	84.339716
585.710904	84.380296
586.138528	84.426109
586.566132	84.440810
586.993716	84.450471
587.421280	84.442669
587.848823	84.426691
588.276346	84.387825
588.703849	84.334225
589.131332	84.257586
589.558794	84.157298
589.986236	84.059926
590.413657	83.949701
590.841058	83.814414
591.268438	83.663611
591.695799	83.499588
592.123138	83.333664
592.550458	83.164241
592.977756	82.991171
593.405034	82.821870
593.832292	82.623570
594.259529	82.444595
594.686746	82.238934
595.113942	82.047075
595.541117	81.853004
595.968272	81.667300
596.395406	81.477618
596.822519	81.279166
597.249612	81.084917
597.676684	80.908155
598.103735	80.724778
598.530766	80.557299
598.957775	80.381635
599.384764	80.210044
599.811733	80.046847
600.238680	79.892134
600.665606	79.732343
601.092512	79.582999
601.519397	79.452067
601.946261	79.322699
602.373104	79.191072
602.799926	79.079025
603.226727	78.963535
603.653507	78.854420
604.080266	78.750355
604.507004	78.650868
604.933721	78.544838
605.360417	78.442953
605.787092	78.330056
606.213746	78.231414
606.640379	78.110773
607.066991	77.997935
607.493581	77.880475
607.920150	77.767230
608.346699	77.649946
608.773226	77.525390
609.199731	77.385751
609.626216	77.241660
610.052679	77.090295
610.479121	76.916054
610.905542	76.720501
611.331941	76.520517
611.758319	76.305995
612.184676	76.083228
612.611011	75.847228
613.037325	75.589703
613.463617	75.318676
613.889888	75.024964
614.316138	74.715793
614.742366	74.386406
615.168573	74.041124
615.594758	73.682408
616.020921	73.295108
616.447063	72.890855
616.873184	72.473774
617.299283	72.041056
617.725360	71.580100
618.151416	71.115220
618.577450	70.616206
619.003462	70.124112
619.429453	69.607736
619.855422	69.097903
620.281369	68.592183
620.707295	68.065201
621.133199	67.531290
621.559081	66.974331
621.984941	66.429233
622.410779	65.882152
622.836596	65.333409
623.262391	64.771188
623.688163	64.219955
624.113914	63.668066
624.539644	63.112214
624.965351	62.562686
625.391036	62.018983
625.816699	61.471914
626.242340	60.927503
626.667960	60.381907
627.093557	59.852758
627.519132	59.320150
627.944685	58.795235
628.370216	58.271986
628.795725	57.770639
629.221212	57.273698
629.646677	56.794770
630.072119	56.340879
630.497540	55.888403
630.922938	55.471341
631.348314	55.066002
631.773668	54.698134
632.198999	54.353088
632.624308	54.021473
633.049595	53.713733
633.474860	53.429163
633.900102	53.165173
634.325322	52.928337
634.750520	52.721282
635.175695	52.528769
635.600848	52.362209
636.025978	52.205977
636.451086	52.086299
636.876171	51.969924
637.301234	51.865422
637.726275	51.780668
638.151293	51.720604
638.576288	51.657617
639.001261	51.607778
639.426211	51.582906
639.851139	51.572106
640.276044	51.568647
640.700927	51.565479
641.125787	51.581312
641.550624	51.604510
641.975438	51.627058
642.400230	51.668638
642.824999	51.706804
643.249745	51.727057
643.674469	51.763262
644.099169	51.801938
644.523847	51.835702
644.948502	51.871940
645.373135	51.888464
645.797744	51.902977
646.222330	51.910630
646.646894	51.901284
647.071435	51.885484
647.495953	51.855473
647.920447	51.813063
648.344919	51.759406
648.769368	51.687054
649.193794	51.605775
649.618197	51.492753
650.042576	51.382367
650.466933	51.268888
650.891267	51.142108
651.315577	50.985942
651.739864	50.832972
652.164129	50.670469
652.588370	50.486780
653.012587	50.290858
653.436782	50.089728
653.860953	49.897730
654.285102	49.683581
654.709226	49.475215
655.133328	49.258151
655.557406	49.029553
655.981461	48.811370
656.405493	48.599973
656.829501	48.379869
657.253486	48.163152
657.677448	47.952589
658.101386	47.753160
658.525301	47.564290
658.949192	47.393246
659.373060	47.229154
659.796904	47.084523
660.220725	46.961120
660.644522	46.858646
661.068296	46.786065
661.492046	46.728745
661.915772	46.699422
662.339475	46.700326
662.763154	46.737382
663.186810	46.797817
663.610442	46.874625
664.034050	46.972565
664.457635	47.110979
664.881196	47.272259
665.304733	47.460514
665.728247	47.681107
666.151736	47.931533
666.575202	48.201867
666.998644	48.496417
667.422062	48.821481
667.845457	49.157198
668.268827	49.520098
668.692174	49.912839
669.115496	50.332116
669.538795	50.781603
669.962070	51.269044
670.385321	51.775856
670.808547	52.322216
671.231750	52.873013
671.654929	53.453185
672.078084	54.063458
672.501214	54.693488
672.924321	55.350813
673.347404	56.032507
673.770462	56.733772
674.193496	57.436935
674.616506	58.165349
675.039492	58.888077
675.462454	59.628021
675.885391	60.373056
676.308305	61.110021
676.731194	61.859828
677.154058	62.600424
677.576899	63.336385
677.999715	64.067186
678.422507	64.781761
678.845274	65.489326
679.268017	66.177787
679.690736	66.865862
680.113430	67.524630
680.536100	68.180101
680.958746	68.833425
681.381367	69.473084
681.803963	70.105014
682.226535	70.724955
682.649083	71.327035
683.071605	71.922377
683.494104	72.515999
683.916578	73.085263
684.339027	73.651084
684.761451	74.204217
685.183851	74.735791
685.606227	75.270957
686.028577	75.779621
686.450903	76.273533
686.873204	76.759891
687.295481	77.226817
687.717733	77.670803
688.139959	78.107994
688.562162	78.522650
688.984339	78.918357
689.406492	79.304074
689.828619	79.657569
690.250722	80.016330
690.672800	80.352285
691.094853	80.671344
691.516881	80.992493
691.938884	81.298345
692.360863	81.599280
692.782816	81.883448
693.204744	82.168067
693.626647	82.436255
694.048526	82.700074
694.470379	82.963510
694.892207	83.212590
695.314010	83.452656
695.735788	83.700059
696.157540	83.946844
696.579268	84.186153
697.000970	84.432506
697.422648	84.678712
697.844300	84.905738
698.265926	85.134284
698.687528	85.368502
699.109104	85.596084
699.530655	85.817522
699.952181	86.041470
700.373681	86.262715
700.795156	86.490474
701.216606	86.727303
701.638030	86.959162
702.059429	87.183559
702.480803	87.421314
702.902151	87.664802
703.323473	87.907916
703.744770	88.144001
704.166042	88.382061
704.587288	88.627950
705.008509	88.868822
705.429704	89.127002
705.850873	89.381568
706.272017	89.636330
706.693135	89.918064
707.114228	90.189474
707.535295	90.467025
707.956336	90.761668
708.377352	91.060821
708.798342	91.369200
709.219306	91.647568
709.640245	91.949658
710.061157	92.247225
710.482044	92.532870
710.902905	92.837623
711.323741	93.152390
711.744550	93.451211
712.165334	93.770955
712.586092	94.090528
713.006823	94.411038
713.427529	94.751952
713.848209	95.091079
714.268863	95.418652
714.689492	95.755088
715.110094	96.109469
715.530670	96.457112
715.951220	96.818865
716.371744	97.184196
716.792242	97.570513
717.212714	97.959422
717.633159	98.338331
718.053579	98.739854
718.473973	99.132905
718.894340	99.536931
719.314681	99.953582
719.734996	100.357343
720.155285	100.767703
720.575547	101.177242
720.995784	101.578385
721.415994	101.974815
721.836177	102.356380
722.256335	102.756128
722.676466	103.122939
723.096570	103.483968
723.516649	103.853257
723.936701	104.221836
724.356726	104.566538
724.776725	104.900837
725.196698	105.210922
725.616644	105.523378
726.036564	105.807088
726.456457	106.069536
726.876324	106.322705
727.296164	106.571340
727.715977	106.811618
728.135764	107.031400
728.555525	107.240611
728.975258	107.430905
729.394966	107.602005
729.814646	107.758753
730.234300	107.909792
730.653927	108.060062
731.073527	108.189799
731.493101	108.291236
731.912648	108.388036
732.332168	108.479549
732.751661	108.544595
733.171128	108.608074
733.590568	108.655110
734.009980	108.699447
734.429366	108.745344
734.848726	108.776623
735.268058	108.806797
735.687363	108.841012
736.106641	108.863036
736.525893	108.875387
736.945117	108.872678
737.364314	108.881360
737.783485	108.875427
738.202628	108.872663
738.621744	108.866904
739.040834	108.854714
739.459896	108.859691
739.878931	108.855205
740.297939	108.831621
740.716919	108.811606
741.135873	108.808671
741.554799	108.793774
741.973698	108.786859
742.392570	108.782117
742.811415	108.788233
743.230232	108.788521
743.649022	108.782984
744.067785	108.782520
744.486521	108.796918
744.905229	108.824255
745.323909	108.829063
745.742563	108.840568
746.161189	108.864078
746.579787	108.897338
746.998358	108.918333
747.416902	108.934181
747.835418	108.961609
748.253907	108.989718
748.672368	109.004562
749.090802	109.027379
749.509208	109.048986
749.927586	109.073249
750.345937	109.096858
750.764261	109.129520
751.182556	109.164381
751.600824	109.188917
752.019065	109.219356
752.437277	109.244469
752.855462	109.277278
753.273620	109.318313
753.691749	109.349640
754.109851	109.377173
754.527925	109.406440
754.945971	109.437243
755.363989	109.467648
755.781980	109.494332
756.199943	109.513890
756.617877	109.540751
757.035784	109.561780
757.453663	109.593607
757.871514	109.600236
758.289337	109.634089
758.707132	109.672492
759.124899	109.694660
759.542639	109.721010
759.960350	109.756311
760.378033	109.784044
760.795688	109.814623
761.213314	109.844527
761.630913	109.884941
762.048484	109.925471
762.466026	109.980027
762.883541	110.033601
763.301027	110.064902
763.718485	110.130921
764.135914	110.181029
764.553316	110.247545
764.970689	110.331948
765.388034	110.388235
765.805351	110.450965
766.222639	110.523372
766.639899	110.599893
767.057131	110.664806
767.474334	110.748955
767.891509	110.833808
768.308655	110.922338
768.725773	111.007274
769.142863	111.117390
769.559924	111.216110
769.976957	111.334716
770.393961	111.438847
770.810936	111.568837
771.227883	111.670376
771.644802	111.792471
772.061692	111.904806
772.478553	112.014407
772.895386	112.143077
773.312190	112.275367
773.728965	112.406483
774.145712	112.544065
774.562430	112.666139
774.979119	112.802774
775.395780	112.925740
775.812411	113.051145
776.229014	113.169962
776.645589	113.272933
777.062134	113.406011
777.478651	113.509330
777.895138	113.589202
778.311597	113.696232
778.728027	113.785952
779.144428	113.884651
779.560800	113.961657
779.977143	114.044989
780.393458	114.102293
780.809743	114.160584
781.225999	114.207752
781.642226	114.252659
782.058425	114.288090
782.474594	114.316985
782.890734	114.320436
783.306845	114.331069
783.722926	114.313793
784.138979	114.316846
784.555003	114.288858
784.970997	114.274715
785.386962	114.238414
785.802898	114.179367
786.218805	114.112042
786.634682	114.028403
787.050531	113.935309
787.466349	113.848490
787.882139	113.738681
788.297899	113.612602
788.713630	113.496012
789.129332	113.390892
789.545004	113.266277
789.960647	113.116225
790.376260	112.991444
790.791844	112.866793
791.207399	112.712879
791.622924	112.576148
792.038419	112.420127
792.453885	112.265149
792.869321	112.105832
793.284728	111.962189
793.700106	111.800597
794.115453	111.663104
794.530771	111.500426
794.946060	111.328716
795.361319	111.162614
795.776548	110.984896
796.191747	110.798320
796.606917	110.624171
797.022057	110.450619
797.437167	110.256972
797.852248	110.069858
798.267298	109.879108
798.682319	109.685009
799.097310	109.503964
799.512271	109.316209
799.927203	109.108851
800.342104	108.906902
800.756976	108.692030
801.171818	108.487743
801.586629	108.267693
802.001411	108.036742
802.416163	107.822484
802.830885	107.622649
803.245577	107.394438
803.660238	107.168078
804.074870	106.954738
804.489472	106.722083
804.904043	106.496779
805.318585	106.269497
805.733096	106.037364
806.147577	105.817703
806.562028	105.577781
806.976449	105.325443
807.390840	105.094237
807.805200	104.861196
808.219530	104.622874
808.633830	104.404048
809.048100	104.167429
809.462339	103.923231
809.876548	103.676034
810.290727	103.459822
810.704875	103.230300
811.118993	102.989028
811.533080	102.760111
811.947137	102.515544
812.361164	102.276341
812.775160	102.046910
813.189126	101.827947
813.603061	101.612753
814.016966	101.401843
814.430840	101.182537
814.844684	100.991618
815.258497	100.786716
815.672280	100.577585
816.086032	100.369582
816.499753	100.178154
816.913444	99.972107
817.327104	99.783155
817.740733	99.600740
818.154331	99.422808
818.567899	99.244007
818.981436	99.054724
819.394943	98.890255
819.808418	98.726104
820.221863	98.544970
820.635277	98.383535
821.048660	98.208910
821.462013	98.026575
821.875334	97.862890
822.288625	97.674814
822.701884	97.504958
823.115113	97.317351
823.528311	97.133098
823.941478	96.962332
824.354614	96.779276
824.767718	96.605740
825.180792	96.419667
825.593835	96.242462
826.006847	96.042816
826.419827	95.837214
826.832777	95.629074
827.245695	95.429215
827.658582	95.198175
828.071438	94.970592
828.484263	94.725188
828.897057	94.493895
829.309819	94.256990
829.722551	94.030460
830.135251	93.773546
830.547919	93.496526
830.960557	93.231798
831.373163	92.990810
831.785738	92.708873
832.198281	92.422606
832.610793	92.122659
833.023274	91.854113
833.435723	91.536649
833.848141	91.246904
834.260528	90.957574
834.672883	90.671033
835.085206	90.407910
835.497498	90.098821
835.909758	89.811262
836.321987	89.507486
836.734185	89.226514
837.146350	88.934135
837.558485	88.635064
837.970587	88.345334
838.382658	88.042256
838.794697	87.737131
839.206705	87.427281
839.618681	87.129828
840.030625	86.838951
840.442538	86.535891
840.854418	86.227807
841.266267	85.938266
841.678084	85.654459
842.089870	85.329615
842.501623	85.021377
842.913345	84.702045
843.325035	84.395924
843.736693	84.081712
844.148319	83.757118
844.559913	83.433843
844.971475	83.114948
845.383005	82.791954
845.794504	82.431056
846.205970	82.102813
846.617404	81.761455
847.028806	81.399435
847.440176	81.050663
847.851514	80.682300
848.262820	80.330877
848.674094	79.953698
849.085336	79.587561
849.496546	79.213499
849.907723	78.823357
850.318868	78.426713
850.729981	78.019148
851.141062	77.623804
851.552110	77.231063
851.963127	76.844271
852.374111	76.422302
852.785062	75.987415
853.195982	75.565960
853.606869	75.154266
854.017723	74.714395
854.428546	74.273785
854.839336	73.866388
855.250093	73.453860
855.660818	73.051540
856.071511	72.644860
856.482171	72.230998
856.892799	71.812273
857.303394	71.432376
857.713956	71.042704
858.124486	70.662950
858.534984	70.289057
858.945449	69.919280
859.355881	69.558233
859.766280	69.203619
860.176647	68.843385
860.586982	68.522401
860.997283	68.190237
861.407552	67.878592
861.817789	67.557569
862.227992	67.247870
862.638163	66.935996
863.048301	66.673526
863.458406	66.391729
863.868478	66.123356
864.278518	65.877830
864.688524	65.649762
865.098498	65.415115
865.508439	65.173769
865.918347	64.947321
866.328222	64.723757
866.738064	64.524057
867.147873	64.325634
867.557649	64.127662
867.967392	63.921985
868.377102	63.722599
868.786779	63.522391
869.196423	63.347832
869.606034	63.159375
870.015612	62.961470
870.425156	62.786445
870.834668	62.610028
871.244146	62.465761
871.653591	62.306345
872.063003	62.140544
872.472382	62.004668
872.881728	61.863446
873.291040	61.712966
873.700319	61.586285
874.109564	61.478413
874.518777	61.369007
874.927956	61.274418
875.337102	61.199304
875.746214	61.106126
876.155293	61.057600
876.564338	60.991108
876.973350	60.919831
877.382329	60.860202
877.791274	60.858577
878.200186	60.855796
878.609064	60.847443
879.017909	60.848248
879.426720	60.843593
879.835497	60.851896
880.244241	60.869876
880.652952	60.885684
881.061629	60.928592
881.470272	60.967382
881.878881	61.005240
882.287457	61.045104
882.695999	61.079348
883.104507	61.110216
883.512982	61.138388
883.921423	61.165170
884.329830	61.196810
884.738203	61.241784
885.146543	61.259249
885.554849	61.277537
885.963120	61.289368
886.371358	61.308345
886.779563	61.296334
887.187733	61.288283
887.595869	61.265014
888.003971	61.232397
888.412040	61.181130
888.820074	61.131550
889.228074	61.076217
889.636041	60.993247
890.043973	60.930616
890.451871	60.831270
890.859736	60.739351
891.267566	60.656669
891.675362	60.552882
892.083124	60.449650
892.490851	60.327300
892.898545	60.192899
893.306204	60.059536
893.713829	59.919842
894.121420	59.784367
894.528977	59.633013
894.936499	59.482498
895.343987	59.321024
895.751441	59.135751
896.158860	58.981971
896.566246	58.799680
896.973596	58.622685
897.380913	58.425017
897.788195	58.224853
898.195442	58.040861
898.602655	57.858808
899.009834	57.658116
899.416978	57.449726
899.824088	57.247179
900.231163	57.035609
900.638204	56.853647
901.045210	56.660726
901.452181	56.455531
901.859118	56.239022
902.266021	56.071228
902.672888	55.850781
903.079721	55.659976
903.486520	55.476738
903.893283	55.271853
904.300012	55.090717
904.706707	54.926846
905.113366	54.784650
905.519991	54.626292
905.926581	54.503626
906.333136	54.350516
906.739656	54.196511
907.146142	54.045495
907.552592	53.944848
907.959008	53.871775
908.365389	53.795361
908.771735	53.719432
909.178046	53.663708
909.584322	53.600634
909.990563	53.570559
910.396769	53.574307
910.802940	53.563717
911.209076	53.554490
911.615177	53.560463
912.021243	53.584056
912.427274	53.606475
912.833270	53.644873
913.239231	53.676889
913.645156	53.730979
914.051046	53.777341
914.456902	53.832933
914.862721	53.907703
915.268506	53.970253
915.674256	54.025306
916.079970	54.080657
916.485649	54.146495
916.891292	54.184891
917.296901	54.221072
917.702474	54.248932
918.108011	54.304288
918.513514	54.312662
918.918980	54.350877
919.324412	54.382148
919.729808	54.420588
920.135169	54.417791
920.540494	54.411365
920.945783	54.432051
921.351037	54.412433
921.756256	54.387090
922.161439	54.378134
922.566586	54.323162
922.971698	54.256635
923.376775	54.184267
923.781815	54.130255
924.186820	54.050988
924.591790	53.997083
924.996723	53.926105
925.401621	53.827756
925.806484	53.745662
926.211310	53.626915
926.616101	53.548113
927.020856	53.476429
927.425575	53.329691
927.830259	53.202484
928.234906	53.078660
928.639518	52.970850
929.044094	52.863833
929.448634	52.773482
929.853138	52.670487
930.257606	52.556010
930.662038	52.427922
931.066434	52.306979
931.470795	52.180633
931.875119	52.073840
932.279407	51.949396
932.683659	51.815104
933.087875	51.679875
933.492055	51.560102
933.896199	51.445614
934.300307	51.299480
934.704379	51.150954
935.108414	51.003767
935.512414	50.875047
935.916377	50.715899
936.320304	50.544087
936.724195	50.368916
937.128049	50.154832
937.531867	49.965037
937.935649	49.796279
938.339395	49.600673
938.743104	49.411242
939.146777	49.189109
939.550414	48.976289
939.954014	48.802076
940.357578	48.608376
940.761105	48.407959
941.164596	48.203594
941.568050	47.967214
941.971468	47.723960
942.374850	47.471631
942.778195	47.224031
943.181503	46.981642
943.584775	46.762907
943.988010	46.529347
944.391209	46.278422
944.794371	46.053196
945.197496	45.849160
945.600585	45.658522
946.003637	45.407505
946.406653	45.163081
946.809632	44.950976
947.212574	44.732498
947.615479	44.540996
948.018347	44.320688
948.421179	44.142615
948.823974	43.990692
949.226732	43.822503
949.629453	43.698947
950.032138	43.581505
950.434785	43.425231
950.837396	43.242383
951.239969	43.108156
951.642506	42.998924
952.045006	42.860833
952.447469	42.743655
952.849895	42.635997
953.252283	42.545765
953.654635	42.425283
954.056950	42.337284
954.459227	42.239654
954.861468	42.177627
955.263671	42.133683
955.665838	42.070254
956.067967	41.977263
956.470059	41.895831
956.872114	41.836461
957.274131	41.747090
957.676112	41.664612
958.078055	41.562912
958.479961	41.438903
958.881829	41.344071
959.283661	41.250830
959.685455	41.139427
960.087211	41.050147
960.488931	40.963933
960.890613	40.851532
961.292257	40.675551
961.693864	40.540085
962.095434	40.337759
962.496966	40.138083
962.898461	39.943316
963.299918	39.780819
963.701338	39.593399
964.102720	39.379780
964.504065	39.190912
964.905372	38.944460
965.306641	38.707329
965.707873	38.419269
966.109068	38.147858
966.510224	37.856326
966.911343	37.589553
967.312425	37.284664
967.713468	36.959161
968.114474	36.682954
968.515442	36.426476
968.916373	36.154135
969.317265	35.873231
969.718120	35.628189
970.118937	35.325291
970.519716	35.057305
970.920458	34.818982
971.321161	34.570777
971.721827	34.323876
972.122454	34.112288
972.523044	33.836824
972.923596	33.618692
973.324110	33.397722
973.724585	33.165093
974.125023	32.950045
974.525423	32.803953
974.925785	32.636758
975.326108	32.504525
975.726394	32.338618
976.126642	32.213997
976.526851	32.071842
976.927022	31.926040
977.327155	31.820584
977.727250	31.700404
978.127307	31.601448
978.527325	31.585142
978.927306	31.510032
979.327248	31.504067
979.727151	31.516173
980.127017	31.473384
980.526844	31.384873
980.926633	31.311243
981.326383	31.292802
981.726095	31.222892
982.125769	31.148668
982.525404	31.170744
982.925001	31.115493
983.324560	31.143930
983.724079	31.130913
984.123561	31.151442
984.523004	31.114688
984.922408	31.093029
985.321774	31.047760
985.721102	31.060315
986.120390	31.065976
986.519641	31.018067
986.918852	30.921640
987.318025	30.898759
987.717159	30.862275
988.116255	30.859970
988.515312	30.777028
988.914330	30.713527
989.313310	30.697802
989.712250	30.586737
990.111152	30.608377
990.510015	30.586813
990.908840	30.505901
991.307625	30.469977
991.706372	30.387233
992.105080	30.273945
992.503749	30.201574
992.902379	30.145552
993.300970	30.156524
993.699522	30.071881
994.098035	30.030058
994.496510	29.965446
994.894945	29.847417
995.293341	29.752834
995.691698	29.720229
996.090016	29.628063
996.488296	29.562320
996.886535	29.424260
997.284736	29.363422
997.682898	29.373490
998.081021	29.164685
998.479104	29.118793
998.877148	29.086514
999.275153	29.239781
999.673119	29.141576
1000.071046	29.080285
1000.468933	29.154830
1000.866781	29.176464
1001.264590	29.184094
1001.662359	29.156280
1002.060089	29.289017
1002.457780	29.195445
1002.855431	29.119220
1003.253043	29.094020
1003.650615	29.203131
1004.048148	29.230665
1004.445642	29.268717
1004.843096	29.368638
1005.240511	29.529171
1005.637886	29.486602
1006.035221	29.535556
1006.432517	29.714331
1006.829774	29.736767
1007.226991	29.763096
1007.624168	29.979896
1008.021306	29.892256
1008.418404	30.031099
1008.815462	29.987482
1009.212481	30.049732
1009.609460	30.328915
1010.006399	30.088406
1010.403298	30.301453
1010.800158	30.697575
1011.196978	31.000496
1011.593758	30.914773
1011.990498	31.352807
1012.387199	31.544843
1012.783860	31.563496
1013.180480	31.803532
1013.577061	31.978338
1013.973602	31.865249
1014.370103	31.954565
1014.766564	32.231157
1015.162985	32.609557
1015.559366	32.613969
1015.955708	32.566168
1016.352009	32.422279
1016.748270	32.491047
1017.144491	32.604310
1017.540671	32.564420
1017.936812	32.665066
1018.332913	32.787514
1018.728973	32.697847
1019.124994	32.941695
1019.520974	33.380998
1019.916914	33.333333
1020.312814	33.934950
