Time1=100ms:Average1=5:Objective=10X:Aperture=1: (11/21/2018 1:51:05 PM)
11/21/2018 1:51:05 PM
Reflectance
10X
Ap#: 1
Avg1: 5.000000
Avg2: 0.000000
Int.Time1:100.000000

350.166136	77.266388
350.601937	76.601886
351.037728	76.414077
351.473509	76.490196
351.909281	76.713136
352.345042	76.142984
352.780794	75.994472
353.216536	76.090612
353.652267	76.005150
354.087989	75.744976
354.523701	75.938364
354.959403	75.678610
355.395095	75.670327
355.830777	75.692795
356.266449	75.538431
356.702110	75.969679
357.137762	75.718349
357.573404	75.240055
358.009035	74.770014
358.444656	75.017159
358.880268	74.553441
359.315869	74.750928
359.751459	74.667579
360.187040	75.051245
360.622610	75.220805
361.058170	74.891732
361.493720	74.275577
361.929260	73.913898
362.364789	74.229554
362.800308	74.062345
363.235816	73.959771
363.671314	73.762912
364.106802	74.434389
364.542279	74.278112
364.977746	74.569093
365.413203	74.759877
365.848649	74.871440
366.284084	74.172776
366.719509	74.489091
367.154924	74.869162
367.590328	74.598641
368.025721	74.689533
368.461104	74.856748
368.896477	74.982682
369.331838	74.512123
369.767189	74.948138
370.202530	74.774507
370.637859	74.990040
371.073178	75.470758
371.508486	75.271279
371.943784	74.761621
372.379071	74.831148
372.814347	74.265070
373.249612	74.475455
373.684866	74.021211
374.120110	74.232099
374.555343	74.809463
374.990565	75.188268
375.425776	75.264983
375.860976	74.913546
376.296165	74.918599
376.731343	75.271793
377.166511	75.205792
377.601667	75.051750
378.036812	75.157604
378.471946	75.137958
378.907070	74.639882
379.342182	75.036653
379.777283	75.144509
380.212373	74.590566
380.647452	74.184383
381.082520	74.314532
381.517576	74.364490
381.952622	74.451426
382.387656	74.333397
382.822679	74.564093
383.257691	74.317618
383.692692	74.385597
384.127681	74.655647
384.562659	74.362620
384.997626	74.945678
385.432581	74.981068
385.867525	75.408745
386.302458	75.206298
386.737379	75.501855
387.172289	75.560197
387.607188	75.407815
388.042075	75.295118
388.476951	75.209886
388.911815	75.206923
389.346668	74.885203
389.781509	74.821764
390.216338	74.787005
390.651157	75.175381
391.085963	74.747096
391.520758	74.950801
391.955541	74.979041
392.390313	75.340549
392.825073	75.093145
393.259821	75.549578
393.694558	75.852167
394.129283	76.549491
394.563996	76.540811
394.998698	76.682113
395.433388	76.589487
395.868066	76.336986
396.302732	76.052460
396.737386	75.535182
397.172029	75.366964
397.606659	75.115441
398.041278	74.793350
398.475885	74.516158
398.910480	74.310975
399.345063	73.525353
399.779634	73.156576
400.214194	72.061674
400.648741	70.968013
401.083276	70.141713
401.517799	68.379620
401.952310	66.607260
402.386809	64.550463
402.821296	63.050921
403.255771	60.838703
403.690234	58.576995
404.124684	55.952566
404.559123	53.483948
404.993549	51.222390
405.427963	48.618841
405.862365	46.229375
406.296754	43.732870
406.731131	41.745219
407.165496	39.790859
407.599849	37.873004
408.034190	36.210939
408.468518	34.766632
408.902833	33.455310
409.337137	32.331286
409.771428	31.156985
410.205706	30.091074
410.639973	29.217024
411.074226	28.388929
411.508467	27.780299
411.942696	27.107925
412.376912	26.538851
412.811116	26.084215
413.245307	25.723197
413.679486	25.357407
414.113652	25.027604
414.547805	24.718658
414.981946	24.524491
415.416074	24.400146
415.850190	24.318590
416.284293	24.270194
416.718383	24.239046
417.152460	24.205892
417.586525	24.284225
418.020577	24.444671
418.454616	24.465360
418.888643	24.583682
419.322656	24.701495
419.756657	24.927436
420.190645	25.090143
420.624620	25.335850
421.058582	25.554374
421.492531	25.811153
421.926468	26.071408
422.360391	26.334517
422.794301	26.583661
423.228199	26.887025
423.662083	27.198350
424.095955	27.529504
424.529813	27.834340
424.963658	28.138533
425.397491	28.429253
425.831310	28.756594
426.265116	29.092602
426.698909	29.416559
427.132689	29.756335
427.566455	30.115731
428.000209	30.463092
428.433949	30.803839
428.867676	31.150419
429.301389	31.526669
429.735090	31.884318
430.168777	32.260431
430.602451	32.628794
431.036111	32.973761
431.469759	33.301011
431.903392	33.668407
432.337013	33.996088
432.770620	34.338680
433.204213	34.681720
433.637794	35.028571
434.071360	35.307025
434.504914	35.613566
434.938453	35.895047
435.371979	36.203569
435.805492	36.503692
436.238991	36.817457
436.672477	37.079030
437.105949	37.378211
437.539407	37.646913
437.972852	37.906379
438.406283	38.191342
438.839700	38.478744
439.273104	38.753511
439.706494	38.989080
440.139871	39.234035
440.573233	39.463326
441.006582	39.682738
441.439917	39.905929
441.873238	40.119114
442.306546	40.352693
442.739839	40.552086
443.173119	40.706633
443.606385	40.891820
444.039636	41.056772
444.472874	41.236644
444.906099	41.385544
445.339309	41.554901
445.772505	41.730387
446.205687	41.904964
446.638855	42.054181
447.072009	42.203849
447.505149	42.355787
447.938275	42.494730
448.371387	42.647280
448.804485	42.772236
449.237569	42.888354
449.670638	43.013106
450.103694	43.129359
450.536735	43.222894
450.969762	43.262888
451.402774	43.347130
451.835773	43.397227
452.268757	43.471188
452.701727	43.508033
453.134683	43.568430
453.567624	43.622905
454.000551	43.659817
454.433464	43.681316
454.866362	43.717938
455.299246	43.742134
455.732116	43.737868
456.164971	43.761217
456.597811	43.801682
457.030638	43.806941
457.463449	43.851400
457.896246	43.846174
458.329029	43.848796
458.761797	43.836349
459.194551	43.814532
459.627290	43.799329
460.060014	43.741146
460.492724	43.686040
460.925419	43.646760
461.358099	43.620044
461.790765	43.541671
462.223416	43.428674
462.656052	43.338363
463.088674	43.214276
463.521281	43.107880
463.953873	42.990753
464.386450	42.881140
464.819012	42.755676
465.251560	42.619296
465.684093	42.483565
466.116611	42.350767
466.549114	42.212621
466.981602	42.080281
467.414075	41.935382
467.846533	41.777512
468.278977	41.589570
468.711405	41.420877
469.143818	41.249964
469.576216	41.061045
470.008600	40.858153
470.440968	40.645105
470.873321	40.378891
471.305659	40.124909
471.737982	39.882484
472.170289	39.612888
472.602582	39.333293
473.034859	39.033876
473.467122	38.753457
473.899369	38.464292
474.331600	38.154187
474.763817	37.836063
475.196018	37.533980
475.628204	37.238546
476.060375	36.914335
476.492530	36.595459
476.924670	36.254627
477.356795	35.918802
477.788904	35.603097
478.220998	35.261149
478.653076	34.922674
479.085139	34.575089
479.517186	34.243286
479.949219	33.899520
480.381235	33.565803
480.813236	33.238892
481.245221	32.917436
481.677191	32.605813
482.109146	32.265393
482.541084	31.942923
482.973008	31.602199
483.404915	31.274407
483.836807	30.951068
484.268683	30.641995
484.700544	30.344199
485.132388	30.045423
485.564217	29.766348
485.996031	29.501213
486.427828	29.246737
486.859610	29.010757
487.291376	28.795337
487.723126	28.617160
488.154860	28.433644
488.586579	28.274673
489.018281	28.148846
489.449968	28.039847
489.881639	27.942813
490.313293	27.873406
490.744932	27.807723
491.176555	27.740874
491.608162	27.699042
492.039753	27.685534
492.471328	27.665767
492.902886	27.669132
493.334429	27.702980
493.765956	27.729331
494.197466	27.775166
494.628960	27.837704
495.060439	27.906849
495.491901	28.006700
495.923347	28.086708
496.354776	28.181358
496.786190	28.288985
497.217587	28.399587
497.648968	28.523464
498.080332	28.647046
498.511681	28.774954
498.943013	28.917742
499.374328	29.064220
499.805628	29.230674
500.236911	29.396265
500.668177	29.561208
501.099427	29.727854
501.530661	29.914888
501.961878	30.086815
502.393079	30.239771
502.824264	30.404262
503.255431	30.566372
503.686583	30.708608
504.117717	30.863774
504.548835	31.022138
504.979937	31.178777
505.411022	31.319983
505.842090	31.489567
506.273142	31.650626
506.704177	31.793335
507.135195	31.951393
507.566197	32.104898
507.997182	32.252696
508.428150	32.398666
508.859102	32.547386
509.290036	32.690550
509.720954	32.837137
510.151855	32.973283
510.582739	33.104822
511.013607	33.241392
511.444457	33.384474
511.875291	33.527376
512.306107	33.667176
512.736907	33.810920
513.167690	33.961541
513.598456	34.107095
514.029205	34.264925
514.459936	34.416030
514.890651	34.566111
515.321349	34.712043
515.752030	34.878106
516.182693	35.035310
516.613340	35.193011
517.043969	35.361023
517.474582	35.539817
517.905177	35.716890
518.335755	35.909389
518.766315	36.113252
519.196859	36.314676
519.627385	36.524717
520.057894	36.735328
520.488386	36.960701
520.918860	37.180269
521.349318	37.415631
521.779757	37.654325
522.210180	37.882518
522.640585	38.115475
523.070973	38.342803
523.501343	38.569495
523.931696	38.806039
524.362031	39.023019
524.792349	39.236487
525.222650	39.462126
525.652933	39.689347
526.083198	39.912404
526.513446	40.140796
526.943677	40.382706
527.373890	40.629125
527.804085	40.891670
528.234262	41.144433
528.664422	41.422612
529.094565	41.694600
529.524689	41.975836
529.954796	42.270903
530.384885	42.567553
530.814957	42.862328
531.245011	43.161109
531.675047	43.461135
532.105065	43.777454
532.535065	44.089152
532.965048	44.401665
533.395013	44.746499
533.824959	45.095375
534.254888	45.466037
534.684799	45.872821
535.114693	46.298799
535.544568	46.745543
535.974425	47.223425
536.404264	47.720125
536.834086	48.228820
537.263889	48.745533
537.693674	49.287178
538.123441	49.837931
538.553190	50.391418
538.982921	50.947080
539.412634	51.503076
539.842329	52.040675
540.272006	52.574252
540.701664	53.078371
541.131304	53.579737
541.560926	54.091027
541.990530	54.602080
542.420116	55.104312
542.849683	55.616556
543.279232	56.112205
543.708763	56.620022
544.138275	57.120743
544.567769	57.634148
544.997245	58.132779
545.426702	58.620686
545.856141	59.103405
546.285562	59.587515
546.714964	60.056970
547.144347	60.509878
547.573713	60.954754
548.003059	61.382528
548.432387	61.800120
548.861697	62.212948
549.290988	62.605690
549.720260	62.991980
550.149514	63.375138
550.578750	63.753809
551.007966	64.135939
551.437164	64.519096
551.866344	64.922205
552.295504	65.324545
552.724646	65.734278
553.153769	66.169898
553.582874	66.619652
554.011960	67.095667
554.441027	67.555768
554.870075	68.026823
555.299104	68.495322
555.728115	68.970425
556.157106	69.461100
556.586079	69.932470
557.015033	70.388674
557.443968	70.834932
557.872884	71.270272
558.301781	71.712596
558.730659	72.116337
559.159518	72.541795
559.588358	72.968754
560.017180	73.372141
560.445982	73.767858
560.874765	74.183355
561.303528	74.578607
561.732273	74.978712
562.160999	75.374265
562.589705	75.765074
563.018393	76.166054
563.447061	76.549088
563.875710	76.949361
564.304340	77.328793
564.732950	77.710937
565.161542	78.058285
565.590114	78.410905
566.018666	78.763950
566.447200	79.101652
566.875714	79.434121
567.304208	79.750934
567.732684	80.069194
568.161140	80.377325
568.589576	80.663407
569.017993	80.948792
569.446391	81.196293
569.874769	81.454116
570.303128	81.703468
570.731467	81.956553
571.159787	82.173293
571.588087	82.372840
572.016368	82.598869
572.444629	82.803080
572.872870	82.987749
573.301092	83.180875
573.729294	83.370165
574.157476	83.533043
574.585639	83.690453
575.013782	83.834149
575.441906	83.963325
575.870009	84.094087
576.298093	84.220854
576.726157	84.351158
577.154202	84.456121
577.582226	84.559488
578.010231	84.653994
578.438216	84.751277
578.866181	84.855110
579.294126	84.938409
579.722051	85.026210
580.149957	85.110780
580.577842	85.211086
581.005707	85.299659
581.433553	85.401437
581.861378	85.512167
582.289184	85.614313
582.716969	85.716165
583.144734	85.827569
583.572479	85.954748
584.000205	86.051955
584.427910	86.170851
584.855594	86.304856
585.283259	86.412408
585.710904	86.529780
586.138528	86.641992
586.566132	86.731863
586.993716	86.835655
587.421280	86.923834
587.848823	87.005389
588.276346	87.080384
588.703849	87.147819
589.131332	87.187445
589.558794	87.198824
589.986236	87.189735
590.413657	87.163850
590.841058	87.122172
591.268438	87.061423
591.695799	86.975166
592.123138	86.862547
592.550458	86.740680
592.977756	86.596374
593.405034	86.433444
593.832292	86.228638
594.259529	86.031742
594.686746	85.796112
595.113942	85.550462
595.541117	85.292946
595.968272	85.033124
596.395406	84.752969
596.822519	84.454322
597.249612	84.170555
597.676684	83.875855
598.103735	83.564630
598.530766	83.270826
598.957775	82.947803
599.384764	82.630016
599.811733	82.336110
600.238680	82.013685
600.665606	81.701799
601.092512	81.406786
601.519397	81.099727
601.946261	80.797570
602.373104	80.513624
602.799926	80.242454
603.226727	79.985168
603.653507	79.729039
604.080266	79.473407
604.507004	79.234543
604.933721	79.012282
605.360417	78.797061
605.787092	78.582589
606.213746	78.385148
606.640379	78.191975
607.066991	78.019630
607.493581	77.842796
607.920150	77.686775
608.346699	77.531979
608.773226	77.382206
609.199731	77.214629
609.626216	77.056892
610.052679	76.888649
610.479121	76.717488
610.905542	76.533008
611.331941	76.343385
611.758319	76.139682
612.184676	75.950342
612.611011	75.744868
613.037325	75.519205
613.463617	75.294336
613.889888	75.051185
614.316138	74.792437
614.742366	74.540890
615.168573	74.259275
615.594758	73.957481
616.020921	73.656143
616.447063	73.329818
616.873184	73.003301
617.299283	72.667655
617.725360	72.317466
618.151416	71.956565
618.577450	71.568641
619.003462	71.196691
619.429453	70.803393
619.855422	70.405912
620.281369	70.009946
620.707295	69.592043
621.133199	69.164300
621.559081	68.720091
621.984941	68.269168
622.410779	67.819028
622.836596	67.356557
623.262391	66.881526
623.688163	66.386068
624.113914	65.891955
624.539644	65.387732
624.965351	64.870358
625.391036	64.350564
625.816699	63.822429
626.242340	63.285369
626.667960	62.739440
627.093557	62.193595
627.519132	61.638809
627.944685	61.067206
628.370216	60.515142
628.795725	59.976204
629.221212	59.410563
629.646677	58.860440
630.072119	58.323923
630.497540	57.788764
630.922938	57.260798
631.348314	56.739365
631.773668	56.241917
632.198999	55.750543
632.624308	55.280614
633.049595	54.828142
633.474860	54.380082
633.900102	53.963439
634.325322	53.557107
634.750520	53.179324
635.175695	52.820354
635.600848	52.495148
636.025978	52.187612
636.451086	51.906482
636.876171	51.651094
637.301234	51.415560
637.726275	51.208654
638.151293	51.031171
638.576288	50.864209
639.001261	50.717262
639.426211	50.595621
639.851139	50.499990
640.276044	50.429773
640.700927	50.379208
641.125787	50.348229
641.550624	50.333814
641.975438	50.338620
642.400230	50.360925
642.824999	50.403991
643.249745	50.450327
643.674469	50.523411
644.099169	50.602242
644.523847	50.698204
644.948502	50.800545
645.373135	50.908224
645.797744	51.019979
646.222330	51.142882
646.646894	51.274040
647.071435	51.410790
647.495953	51.546272
647.920447	51.687658
648.344919	51.827459
648.769368	51.953012
649.193794	52.083208
649.618197	52.200987
650.042576	52.322085
650.466933	52.442739
650.891267	52.543156
651.315577	52.633752
651.739864	52.707666
652.164129	52.779848
652.588370	52.834819
653.012587	52.874984
653.436782	52.897152
653.860953	52.907344
654.285102	52.903230
654.709226	52.883088
655.133328	52.846429
655.557406	52.795953
655.981461	52.728261
656.405493	52.645509
656.829501	52.545404
657.253486	52.452277
657.677448	52.334902
658.101386	52.214642
658.525301	52.093849
658.949192	51.964551
659.373060	51.825415
659.796904	51.687046
660.220725	51.551088
660.644522	51.418324
661.068296	51.297355
661.492046	51.174388
661.915772	51.063703
662.339475	50.955690
662.763154	50.866026
663.186810	50.783048
663.610442	50.702885
664.034050	50.643477
664.457635	50.595605
664.881196	50.577501
665.304733	50.572403
665.728247	50.589122
666.151736	50.629957
666.575202	50.692017
666.998644	50.782097
667.422062	50.901457
667.845457	51.046981
668.268827	51.216949
668.692174	51.420410
669.115496	51.655679
669.538795	51.930539
669.962070	52.241114
670.385321	52.568729
670.808547	52.948658
671.231750	53.359135
671.654929	53.788535
672.078084	54.257274
672.501214	54.744199
672.924321	55.273201
673.347404	55.820985
673.770462	56.401040
674.193496	56.979603
674.616506	57.593294
675.039492	58.212101
675.462454	58.847964
675.885391	59.488467
676.308305	60.131350
676.731194	60.788298
677.154058	61.439879
677.576899	62.102155
677.999715	62.757978
678.422507	63.399774
678.845274	64.043275
679.268017	64.678712
679.690736	65.304112
680.113430	65.921089
680.536100	66.530842
680.958746	67.135014
681.381367	67.725462
681.803963	68.303962
682.226535	68.882189
682.649083	69.447245
683.071605	70.014667
683.494104	70.566741
683.916578	71.105363
684.339027	71.645418
684.761451	72.182537
685.183851	72.698223
685.606227	73.234797
686.028577	73.747901
686.450903	74.269890
686.873204	74.779973
687.295481	75.289701
687.717733	75.776486
688.139959	76.260832
688.562162	76.752622
688.984339	77.241224
689.406492	77.714834
689.828619	78.179079
690.250722	78.647989
690.672800	79.096264
691.094853	79.539973
691.516881	79.989258
691.938884	80.422824
692.360863	80.842939
692.782816	81.263237
693.204744	81.674739
693.626647	82.064551
694.048526	82.447737
694.470379	82.825066
694.892207	83.195290
695.314010	83.545871
695.735788	83.896531
696.157540	84.218629
696.579268	84.541651
697.000970	84.852223
697.422648	85.141128
697.844300	85.407635
698.265926	85.674212
698.687528	85.927553
699.109104	86.161725
699.530655	86.380409
699.952181	86.595495
700.373681	86.792206
700.795156	86.987507
701.216606	87.180294
701.638030	87.344296
702.059429	87.488675
702.480803	87.645570
702.902151	87.791422
703.323473	87.912313
703.744770	88.026188
704.166042	88.121432
704.587288	88.219582
705.008509	88.308207
705.429704	88.407938
705.850873	88.488639
706.272017	88.550727
706.693135	88.629110
707.114228	88.698310
707.535295	88.761478
707.956336	88.843568
708.377352	88.918749
708.798342	88.992072
709.219306	89.071221
709.640245	89.164239
710.061157	89.262924
710.482044	89.361348
710.902905	89.483516
711.323741	89.613675
711.744550	89.735057
712.165334	89.893530
712.586092	90.050078
713.006823	90.222798
713.427529	90.427681
713.848209	90.634577
714.268863	90.857991
714.689492	91.085791
715.110094	91.340010
715.530670	91.604735
715.951220	91.885633
716.371744	92.185359
716.792242	92.503914
717.212714	92.842889
717.633159	93.191161
718.053579	93.566813
718.473973	93.936174
718.894340	94.339076
719.314681	94.764695
719.734996	95.182283
720.155285	95.612009
720.575547	96.061990
720.995784	96.501392
721.415994	96.960816
721.836177	97.420962
722.256335	97.883556
722.676466	98.327803
723.096570	98.764405
723.516649	99.217919
723.936701	99.667415
724.356726	100.087198
724.776725	100.505306
725.196698	100.898435
725.616644	101.293407
726.036564	101.656220
726.456457	102.000216
726.876324	102.333911
727.296164	102.635226
727.715977	102.937167
728.135764	103.219830
728.555525	103.467595
728.975258	103.693044
729.394966	103.903389
729.814646	104.103076
730.234300	104.270008
730.653927	104.438317
731.073527	104.563028
731.493101	104.682480
731.912648	104.769180
732.332168	104.847031
732.751661	104.913503
733.171128	104.957643
733.590568	104.980809
734.009980	104.989098
734.429366	104.996454
734.848726	104.989738
735.268058	104.981599
735.687363	104.973665
736.106641	104.953630
736.525893	104.905999
736.945117	104.846400
737.364314	104.809692
737.783485	104.769295
738.202628	104.720120
738.621744	104.660066
739.040834	104.600940
739.459896	104.547313
739.878931	104.491677
740.297939	104.442848
740.716919	104.380131
741.135873	104.338810
741.554799	104.306078
741.973698	104.289204
742.392570	104.283525
742.811415	104.279980
743.230232	104.287102
743.649022	104.287679
744.067785	104.313367
744.486521	104.350452
744.905229	104.404848
745.323909	104.450060
745.742563	104.496139
746.161189	104.564477
746.579787	104.658562
746.998358	104.754029
747.416902	104.840809
747.835418	104.941111
748.253907	105.046725
748.672368	105.152307
749.090802	105.275321
749.509208	105.399050
749.927586	105.530742
750.345937	105.664405
750.764261	105.788842
751.182556	105.933676
751.600824	106.070352
752.019065	106.216529
752.437277	106.358041
752.855462	106.511345
753.273620	106.661457
753.691749	106.829844
754.109851	106.985464
754.527925	107.138031
754.945971	107.278041
755.363989	107.412448
755.781980	107.553159
756.199943	107.699508
756.617877	107.831063
757.035784	107.971193
757.453663	108.086311
757.871514	108.202904
758.289337	108.327917
758.707132	108.467608
759.124899	108.594367
759.542639	108.713923
759.960350	108.827010
760.378033	108.941870
760.795688	109.035663
761.213314	109.130268
761.630913	109.213012
762.048484	109.300628
762.466026	109.397291
762.883541	109.463110
763.301027	109.515767
763.718485	109.589989
764.135914	109.645777
764.553316	109.706176
764.970689	109.771476
765.388034	109.805044
765.805351	109.833144
766.222639	109.863811
766.639899	109.875158
767.057131	109.890227
767.474334	109.905430
767.891509	109.925116
768.308655	109.960891
768.725773	109.971154
769.142863	109.991588
769.559924	110.007994
769.976957	110.026068
770.393961	110.051570
770.810936	110.071174
771.227883	110.073129
771.644802	110.079923
772.061692	110.084012
772.478553	110.071640
772.895386	110.090723
773.312190	110.086822
773.728965	110.110957
774.145712	110.123340
774.562430	110.137080
774.979119	110.143205
775.395780	110.149474
775.812411	110.183140
776.229014	110.209195
776.645589	110.232666
777.062134	110.274119
777.478651	110.310080
777.895138	110.328867
778.311597	110.374286
778.728027	110.416980
779.144428	110.473412
779.560800	110.513487
779.977143	110.533829
780.393458	110.569046
780.809743	110.614814
781.225999	110.631608
781.642226	110.677284
782.058425	110.713972
782.474594	110.730689
782.890734	110.741483
783.306845	110.755677
783.722926	110.767375
784.138979	110.781901
784.555003	110.796170
784.970997	110.811984
785.386962	110.809547
785.802898	110.775392
786.218805	110.754922
786.634682	110.705698
787.050531	110.654738
787.466349	110.595913
787.882139	110.513143
788.297899	110.410246
788.713630	110.301863
789.129332	110.171284
789.545004	110.034119
789.960647	109.865444
790.376260	109.686032
790.791844	109.501507
791.207399	109.283237
791.622924	109.058315
792.038419	108.817329
792.453885	108.576614
792.869321	108.323372
793.284728	108.052058
793.700106	107.743556
794.115453	107.444378
794.530771	107.118202
794.946060	106.782882
795.361319	106.444668
795.776548	106.083537
796.191747	105.707130
796.606917	105.321390
797.022057	104.951653
797.437167	104.528397
797.852248	104.111164
798.267298	103.682914
798.682319	103.272477
799.097310	102.857631
799.512271	102.440330
799.927203	102.006467
800.342104	101.591608
800.756976	101.180672
801.171818	100.778220
801.586629	100.389740
802.001411	100.005905
802.416163	99.623119
802.830885	99.263762
803.245577	98.916412
803.660238	98.584642
804.074870	98.292486
804.489472	98.006869
804.904043	97.736023
805.318585	97.492227
805.733096	97.274406
806.147577	97.078035
806.562028	96.899540
806.976449	96.751040
807.390840	96.604905
807.805200	96.479555
808.219530	96.393597
808.633830	96.338802
809.048100	96.307220
809.462339	96.265231
809.876548	96.244864
810.290727	96.265843
810.704875	96.289044
811.118993	96.330895
811.533080	96.383904
811.947137	96.453894
812.361164	96.518122
812.775160	96.609588
813.189126	96.703335
813.603061	96.813142
814.016966	96.934086
814.430840	97.034644
814.844684	97.164404
815.258497	97.289086
815.672280	97.419652
816.086032	97.556286
816.499753	97.688970
816.913444	97.801000
817.327104	97.938855
817.740733	98.055480
818.154331	98.162500
818.567899	98.264835
818.981436	98.357006
819.394943	98.453413
819.808418	98.518944
820.221863	98.583126
820.635277	98.637933
821.048660	98.667785
821.462013	98.680359
821.875334	98.673758
822.288625	98.655340
822.701884	98.614093
823.115113	98.564346
823.528311	98.477294
823.941478	98.406922
824.354614	98.275941
824.767718	98.138054
825.180792	97.975427
825.593835	97.795091
826.006847	97.611022
826.419827	97.387094
826.832777	97.155167
827.245695	96.897082
827.658582	96.626354
828.071438	96.340042
828.484263	96.011842
828.897057	95.663900
829.309819	95.299591
829.722551	94.937907
830.135251	94.529238
830.547919	94.113725
830.960557	93.685987
831.373163	93.255498
831.785738	92.799102
832.198281	92.309070
832.610793	91.823527
833.023274	91.341786
833.435723	90.828586
833.848141	90.333518
834.260528	89.813390
834.672883	89.287777
835.085206	88.777769
835.497498	88.233601
835.909758	87.691750
836.321987	87.160952
836.734185	86.609693
837.146350	86.085145
837.558485	85.527977
837.970587	84.986004
838.382658	84.438289
838.794697	83.863629
839.206705	83.285430
839.618681	82.693831
840.030625	82.129934
840.442538	81.537012
840.854418	80.946730
841.266267	80.368081
841.678084	79.795091
842.089870	79.194892
842.501623	78.608822
842.913345	78.012174
843.325035	77.426137
843.736693	76.835118
844.148319	76.244320
844.559913	75.663206
844.971475	75.108790
845.383005	74.541974
845.794504	73.973493
846.205970	73.429743
846.617404	72.866646
847.028806	72.309665
847.440176	71.773740
847.851514	71.248114
848.262820	70.737680
848.674094	70.222828
849.085336	69.732146
849.496546	69.245110
849.907723	68.768989
850.318868	68.296026
850.729981	67.846871
851.141062	67.414145
851.552110	67.007929
851.963127	66.629899
852.374111	66.271614
852.785062	65.894652
853.195982	65.548697
853.606869	65.203422
854.017723	64.867095
854.428546	64.533095
854.839336	64.241373
855.250093	63.945547
855.660818	63.661859
856.071511	63.379697
856.482171	63.111377
856.892799	62.861533
857.303394	62.615416
857.713956	62.360924
858.124486	62.131858
858.534984	61.881974
858.945449	61.646627
859.355881	61.423422
859.766280	61.204007
860.176647	60.980767
860.586982	60.762356
860.997283	60.547301
861.407552	60.370322
861.817789	60.168826
862.227992	59.963127
862.638163	59.768460
863.048301	59.597838
863.458406	59.399682
863.868478	59.220870
864.278518	59.038860
864.688524	58.851278
865.098498	58.651260
865.508439	58.468362
865.918347	58.286417
866.328222	58.119737
866.738064	57.921561
867.147873	57.769898
867.557649	57.596463
867.967392	57.432227
868.377102	57.275404
868.786779	57.121201
869.196423	56.960266
869.606034	56.786852
870.015612	56.612794
870.425156	56.461386
870.834668	56.289695
871.244146	56.145847
871.653591	55.982482
872.063003	55.804080
872.472382	55.658440
872.881728	55.510478
873.291040	55.346924
873.700319	55.217760
874.109564	55.051333
874.518777	54.894970
874.927956	54.739871
875.337102	54.579266
875.746214	54.399717
876.155293	54.266633
876.564338	54.104920
876.973350	53.915494
877.382329	53.746951
877.791274	53.578609
878.200186	53.390376
878.609064	53.196981
879.017909	52.984383
879.426720	52.778098
879.835497	52.559544
880.244241	52.351956
880.652952	52.086721
881.061629	51.852632
881.470272	51.590504
881.878881	51.348228
882.287457	51.066342
882.695999	50.782598
883.104507	50.491756
883.512982	50.219290
883.921423	49.935023
884.329830	49.637609
884.738203	49.351193
885.146543	49.042430
885.554849	48.704094
885.963120	48.410493
886.371358	48.097083
886.779563	47.807389
887.187733	47.495026
887.595869	47.216933
888.003971	46.921480
888.412040	46.625989
888.820074	46.314722
889.228074	46.029883
889.636041	45.753095
890.043973	45.480399
890.451871	45.221675
890.859736	44.983562
891.267566	44.754601
891.675362	44.527165
892.083124	44.334510
892.490851	44.138646
892.898545	43.954667
893.306204	43.794610
893.713829	43.634734
894.121420	43.517770
894.528977	43.409552
894.936499	43.343014
895.343987	43.278591
895.751441	43.225467
896.158860	43.177631
896.566246	43.151947
896.973596	43.150501
897.380913	43.173449
897.788195	43.207561
898.195442	43.314734
898.602655	43.398980
899.009834	43.486283
899.416978	43.568120
899.824088	43.703673
900.231163	43.839097
900.638204	43.992643
901.045210	44.160373
901.452181	44.335535
901.859118	44.488067
902.266021	44.686848
902.672888	44.851045
903.079721	45.029910
903.486520	45.220532
903.893283	45.399461
904.300012	45.612673
904.706707	45.803853
905.113366	45.978485
905.519991	46.163606
905.926581	46.364950
906.333136	46.536878
906.739656	46.676092
907.146142	46.810049
907.552592	46.953599
907.959008	47.079193
908.365389	47.193588
908.771735	47.301644
909.178046	47.416812
909.584322	47.514696
909.990563	47.612526
910.396769	47.683643
910.802940	47.714874
911.209076	47.755178
911.615177	47.801193
912.021243	47.843017
912.427274	47.855502
912.833270	47.853907
913.239231	47.831988
913.645156	47.821420
914.051046	47.793173
914.456902	47.772781
914.862721	47.750869
915.268506	47.750645
915.674256	47.735450
916.079970	47.696663
916.485649	47.687726
916.891292	47.639297
917.296901	47.609007
917.702474	47.554335
918.108011	47.515441
918.513514	47.469394
918.918980	47.433716
919.324412	47.403192
919.729808	47.376175
920.135169	47.338610
920.540494	47.316052
920.945783	47.309744
921.351037	47.306719
921.756256	47.276666
922.161439	47.291745
922.566586	47.281684
922.971698	47.268369
923.376775	47.282124
923.781815	47.293066
924.186820	47.295304
924.591790	47.299868
924.996723	47.312394
925.401621	47.292798
925.806484	47.302048
926.211310	47.305665
926.616101	47.321106
927.020856	47.349331
927.425575	47.331347
927.830259	47.296400
928.234906	47.283947
928.639518	47.258483
929.044094	47.200906
929.448634	47.154415
929.853138	47.118645
930.257606	47.067887
930.662038	46.985997
931.066434	46.914938
931.470795	46.829365
931.875119	46.743782
932.279407	46.630866
932.683659	46.517372
933.087875	46.403881
933.492055	46.267915
933.896199	46.091560
934.300307	45.906232
934.704379	45.687444
935.108414	45.465724
935.512414	45.290442
935.916377	45.067778
936.320304	44.840549
936.724195	44.590192
937.128049	44.329222
937.531867	44.066753
937.935649	43.844857
938.339395	43.610081
938.743104	43.354450
939.146777	43.093521
939.550414	42.793146
939.954014	42.540954
940.357578	42.279276
940.761105	42.028068
941.164596	41.787963
941.568050	41.553784
941.971468	41.327398
942.374850	41.075187
942.778195	40.864677
943.181503	40.646909
943.584775	40.447197
943.988010	40.236978
944.391209	40.045784
944.794371	39.890009
945.197496	39.734275
945.600585	39.607860
946.003637	39.459229
946.406653	39.325139
946.809632	39.241809
947.212574	39.158291
947.615479	39.068736
948.018347	38.985875
948.421179	38.926084
948.823974	38.860974
949.226732	38.800334
949.629453	38.757521
950.032138	38.739528
950.434785	38.686733
950.837396	38.606348
951.239969	38.571423
951.642506	38.527788
952.045006	38.521090
952.447469	38.492275
952.849895	38.478066
953.252283	38.418230
953.654635	38.378646
954.056950	38.310478
954.459227	38.282481
954.861468	38.237171
955.263671	38.199029
955.665838	38.170471
956.067967	38.122816
956.470059	38.058609
956.872114	37.988932
957.274131	37.917932
957.676112	37.858284
958.078055	37.769153
958.479961	37.702142
958.881829	37.651346
959.283661	37.551636
959.685455	37.445006
960.087211	37.357139
960.488931	37.235178
960.890613	37.104093
961.292257	37.006716
961.693864	36.909362
962.095434	36.816512
962.496966	36.679740
962.898461	36.618269
963.299918	36.534212
963.701338	36.411632
964.102720	36.317982
964.504065	36.188710
964.905372	36.061401
965.306641	35.967387
965.707873	35.844632
966.109068	35.778583
966.510224	35.721873
966.911343	35.609197
967.312425	35.513014
967.713468	35.417057
968.114474	35.293471
968.515442	35.230565
968.916373	35.157822
969.317265	35.088674
969.718120	35.032871
970.118937	34.877619
970.519716	34.762910
970.920458	34.665066
971.321161	34.566078
971.721827	34.422387
972.122454	34.317348
972.523044	34.257833
972.923596	34.172459
973.324110	34.087397
973.724585	33.967860
974.125023	33.875815
974.525423	33.735523
974.925785	33.663860
975.326108	33.505384
975.726394	33.362376
976.126642	33.239157
976.526851	33.138580
976.927022	33.029911
977.327155	32.923969
977.727250	32.775421
978.127307	32.666809
978.527325	32.490394
978.927306	32.331045
979.327248	32.202010
979.727151	32.088383
980.127017	31.919920
980.526844	31.780659
980.926633	31.540394
981.326383	31.370847
981.726095	31.223884
982.125769	31.023253
982.525404	30.863765
982.925001	30.697026
983.324560	30.520474
983.724079	30.309640
984.123561	30.198394
984.523004	30.059396
984.922408	29.830332
985.321774	29.626490
985.721102	29.409575
986.120390	29.213648
986.519641	29.062648
986.918852	28.895665
987.318025	28.752216
987.717159	28.582834
988.116255	28.472222
988.515312	28.370685
988.914330	28.192447
989.313310	28.065652
989.712250	27.898883
990.111152	27.833379
990.510015	27.643448
990.908840	27.520802
991.307625	27.421522
991.706372	27.360735
992.105080	27.183631
992.503749	27.058884
992.902379	26.921854
993.300970	26.845516
993.699522	26.847386
994.098035	26.731195
994.496510	26.639384
994.894945	26.714830
995.293341	26.640529
995.691698	26.655776
996.090016	26.684710
996.488296	26.708639
996.886535	26.618578
997.284736	26.607337
997.682898	26.677821
998.081021	26.783846
998.479104	26.813535
998.877148	26.791588
999.275153	26.968038
999.673119	26.915357
1000.071046	26.945756
1000.468933	27.065122
1000.866781	27.082634
1001.264590	27.193033
1001.662359	27.121030
1002.060089	27.190296
1002.457780	27.083525
1002.855431	27.253853
1003.253043	27.292393
1003.650615	27.291041
1004.048148	27.236971
1004.445642	27.275257
1004.843096	27.425440
1005.240511	27.668519
1005.637886	27.767770
1006.035221	27.758720
1006.432517	27.854712
1006.829774	28.007649
1007.226991	27.798632
1007.624168	27.973823
1008.021306	28.079012
1008.418404	28.178663
1008.815462	28.174695
1009.212481	28.347360
1009.609460	28.669612
1010.006399	28.845668
1010.403298	29.161243
1010.800158	29.294930
1011.196978	29.266010
1011.593758	29.392045
1011.990498	29.713751
1012.387199	29.776540
1012.783860	29.883191
1013.180480	29.786000
1013.577061	29.772013
1013.973602	30.042800
1014.370103	30.068581
1014.766564	30.435109
1015.162985	30.374832
1015.559366	30.598076
1015.955708	30.795786
1016.352009	30.966469
1016.748270	31.267409
1017.144491	31.351524
1017.540671	31.472938
1017.936812	31.728691
1018.332913	31.802482
1018.728973	31.861199
1019.124994	32.133940
1019.520974	32.952018
1019.916914	32.662539
1020.312814	32.524911
