Time1=100ms:Average1=5:Objective=10X:Aperture=1: (11/28/2018 9:29:09 AM)
11/28/2018 9:29:09 AM
Reflectance
10X
Ap#: 1
Avg1: 5.000000
Avg2: 0.000000
Int.Time1:100.000000

350.166136	50.845461
350.601937	50.897580
351.037728	50.520602
351.473509	50.035581
351.909281	49.982159
352.345042	49.825222
352.780794	49.842866
353.216536	49.856193
353.652267	49.382382
354.087989	49.422070
354.523701	49.505307
354.959403	49.837867
355.395095	50.233645
355.830777	50.049332
356.266449	50.492126
356.702110	50.340380
357.137762	50.960330
357.573404	51.167159
358.009035	51.290294
358.444656	51.661011
358.880268	51.738314
359.315869	51.673061
359.751459	51.829810
360.187040	52.070532
360.622610	51.845950
361.058170	51.748808
361.493720	51.787294
361.929260	52.001060
362.364789	51.986198
362.800308	51.965569
363.235816	51.966117
363.671314	51.983243
364.106802	52.073896
364.542279	52.297070
364.977746	52.863592
365.413203	53.132765
365.848649	52.817277
366.284084	52.489369
366.719509	52.622718
367.154924	52.508184
367.590328	52.423492
368.025721	52.734513
368.461104	52.273929
368.896477	52.269115
369.331838	52.360364
369.767189	52.291057
370.202530	52.279152
370.637859	52.137579
371.073178	51.895402
371.508486	51.468139
371.943784	51.315559
372.379071	51.283174
372.814347	51.377676
373.249612	51.598174
373.684866	51.586123
374.120110	52.072765
374.555343	51.949642
374.990565	52.088431
375.425776	51.767061
375.860976	51.569038
376.296165	51.150873
376.731343	51.169844
377.166511	50.980392
377.601667	51.098806
378.036812	50.934741
378.471946	50.739939
378.907070	50.523130
379.342182	51.045266
379.777283	51.186764
380.212373	51.004155
380.647452	51.231953
381.082520	51.314995
381.517576	51.292658
381.952622	51.680346
382.387656	51.518018
382.822679	51.326443
383.257691	50.947441
383.692692	50.845143
384.127681	50.611686
384.562659	50.572650
384.997626	50.766349
385.432581	51.051870
385.867525	50.969505
386.302458	51.052946
386.737379	50.730920
387.172289	50.687256
387.607188	50.380840
388.042075	50.528184
388.476951	50.795801
388.911815	50.733984
389.346668	50.996117
389.781509	51.520270
390.216338	51.492411
390.651157	51.495492
391.085963	51.294812
391.520758	51.474305
391.955541	51.488719
392.390313	51.568529
392.825073	51.669596
393.259821	51.533383
393.694558	51.592463
394.129283	51.493469
394.563996	51.470711
394.998698	51.205120
395.433388	51.104389
395.868066	51.290122
396.302732	51.265117
396.737386	51.251079
397.172029	51.145257
397.606659	51.007859
398.041278	50.714257
398.475885	50.320759
398.910480	49.634599
399.345063	49.183103
399.779634	48.806150
400.214194	48.136847
400.648741	47.490376
401.083276	46.617996
401.517799	45.724140
401.952310	44.830908
402.386809	44.185123
402.821296	43.074040
403.255771	42.130597
403.690234	41.129473
404.124684	39.978820
404.559123	38.879673
404.993549	37.834407
405.427963	36.437202
405.862365	35.238414
406.296754	33.929717
406.731131	33.109122
407.165496	32.344473
407.599849	31.643113
408.034190	30.836295
408.468518	30.127938
408.902833	29.395399
409.337137	28.572920
409.771428	27.927472
410.205706	27.309008
410.639973	26.738033
411.074226	26.257192
411.508467	25.817238
411.942696	25.460474
412.376912	25.162568
412.811116	24.933996
413.245307	24.739607
413.679486	24.604489
414.113652	24.430023
414.547805	24.290166
414.981946	24.128827
415.416074	23.868030
415.850190	23.708648
416.284293	23.533199
416.718383	23.415829
417.152460	23.297718
417.586525	23.227666
418.020577	23.151485
418.454616	23.049373
418.888643	22.974052
419.322656	22.883270
419.756657	22.736148
420.190645	22.555503
420.624620	22.316806
421.058582	22.080627
421.492531	21.873022
421.926468	21.661076
422.360391	21.515236
422.794301	21.403041
423.228199	21.317740
423.662083	21.241244
424.095955	21.195530
424.529813	21.126228
424.963658	21.054027
425.397491	20.961130
425.831310	20.848647
426.265116	20.711264
426.698909	20.522176
427.132689	20.347591
427.566455	20.175412
428.000209	20.025997
428.433949	19.890342
428.867676	19.794444
429.301389	19.675326
429.735090	19.547539
430.168777	19.382102
430.602451	19.196985
431.036111	18.994866
431.469759	18.778536
431.903392	18.568185
432.337013	18.377286
432.770620	18.180092
433.204213	18.028265
433.637794	17.919216
434.071360	17.851913
434.504914	17.835948
434.938453	17.826299
435.371979	17.847755
435.805492	17.868161
436.238991	17.903111
436.672477	17.931070
437.105949	17.951826
437.539407	17.954053
437.972852	17.991136
438.406283	18.012317
438.839700	18.065646
439.273104	18.151734
439.706494	18.273313
440.139871	18.447210
440.573233	18.634337
441.006582	18.857039
441.439917	19.078734
441.873238	19.295663
442.306546	19.503402
442.739839	19.699963
443.173119	19.915446
443.606385	20.123516
444.039636	20.403710
444.472874	20.680275
444.906099	20.982602
445.339309	21.325939
445.772505	21.701816
446.205687	22.116873
446.638855	22.556806
447.072009	23.018818
447.505149	23.507704
447.938275	23.982210
448.371387	24.482225
448.804485	24.954392
449.237569	25.396385
449.670638	25.815479
450.103694	26.222581
450.536735	26.609160
450.969762	27.003245
451.402774	27.396567
451.835773	27.844584
452.268757	28.280286
452.701727	28.745961
453.134683	29.208047
453.567624	29.655682
454.000551	30.094536
454.433464	30.488557
454.866362	30.860071
455.299246	31.216532
455.732116	31.550264
456.164971	31.873381
456.597811	32.165420
457.030638	32.437700
457.463449	32.677443
457.896246	32.937734
458.329029	33.184720
458.761797	33.406584
459.194551	33.630949
459.627290	33.844301
460.060014	34.041187
460.492724	34.229526
460.925419	34.394886
461.358099	34.550245
461.790765	34.687427
462.223416	34.810108
462.656052	34.923379
463.088674	34.991385
463.521281	35.055964
463.953873	35.110430
464.386450	35.156401
464.819012	35.198480
465.251560	35.216727
465.684093	35.252733
466.116611	35.276822
466.549114	35.315684
466.981602	35.338735
467.414075	35.364527
467.846533	35.370131
468.278977	35.347769
468.711405	35.333246
469.143818	35.292900
469.576216	35.233185
470.008600	35.146872
470.440968	35.062127
470.873321	34.962058
471.305659	34.834056
471.737982	34.714819
472.170289	34.602707
472.602582	34.472415
473.034859	34.353303
473.467122	34.258364
473.899369	34.168221
474.331600	34.103527
474.763817	34.087652
475.196018	34.100257
475.628204	34.154060
476.060375	34.240661
476.492530	34.378208
476.924670	34.515891
477.356795	34.683749
477.788904	34.863077
478.220998	35.033678
478.653076	35.192182
479.085139	35.379201
479.517186	35.579934
479.949219	35.798122
480.381235	36.069615
480.813236	36.380641
481.245221	36.760973
481.677191	37.182515
482.109146	37.640967
482.541084	38.121894
482.973008	38.631523
483.404915	39.150669
483.836807	39.661285
484.268683	40.164945
484.700544	40.661755
485.132388	41.144601
485.564217	41.602642
485.996031	42.066605
486.427828	42.512826
486.859610	42.966813
487.291376	43.434524
487.723126	43.888136
488.154860	44.367422
488.586579	44.844268
489.018281	45.368117
489.449968	45.927709
489.881639	46.528129
490.313293	47.179507
490.744932	47.842189
491.176555	48.523440
491.608162	49.206401
492.039753	49.893506
492.471328	50.504430
492.902886	51.043406
493.334429	51.515394
493.765956	51.927535
494.197466	52.279994
494.628960	52.586987
495.060439	52.900092
495.491901	53.212792
495.923347	53.566960
496.354776	53.948636
496.786190	54.387096
497.217587	54.863829
497.648968	55.363157
498.080332	55.856603
498.511681	56.318331
498.943013	56.779018
499.374328	57.187103
499.805628	57.533369
500.236911	57.821323
500.668177	58.044119
501.099427	58.229135
501.530661	58.321970
501.961878	58.386721
502.393079	58.379639
502.824264	58.327889
503.255431	58.245068
503.686583	58.140817
504.117717	58.048254
504.548835	57.973083
504.979937	57.946566
505.411022	57.963212
505.842090	58.055205
506.273142	58.212708
506.704177	58.433027
507.135195	58.679955
507.566197	58.941182
507.997182	59.177018
508.428150	59.374938
508.859102	59.528132
509.290036	59.607122
509.720954	59.626615
510.151855	59.574723
510.582739	59.484394
511.013607	59.406002
511.444457	59.342161
511.875291	59.342891
512.306107	59.399014
512.736907	59.541864
513.167690	59.783119
513.598456	60.083130
514.029205	60.447088
514.459936	60.838195
514.890651	61.261230
515.321349	61.680210
515.752030	62.100620
516.182693	62.485758
516.613340	62.815269
517.043969	63.093028
517.474582	63.315369
517.905177	63.468760
518.335755	63.550862
518.766315	63.576248
519.196859	63.556784
519.627385	63.496996
520.057894	63.396368
520.488386	63.299390
520.918860	63.196322
521.349318	63.123506
521.779757	63.100976
522.210180	63.133902
522.640585	63.239731
523.070973	63.399511
523.501343	63.639070
523.931696	63.943061
524.362031	64.275098
524.792349	64.638644
525.222650	64.960500
525.652933	65.248127
526.083198	65.471582
526.513446	65.638284
526.943677	65.723788
527.373890	65.746198
527.804085	65.748518
528.234262	65.695699
528.664422	65.631807
529.094565	65.579032
529.524689	65.546045
529.954796	65.574393
530.384885	65.660577
530.814957	65.782507
531.245011	65.947476
531.675047	66.146280
532.105065	66.362805
532.535065	66.580215
532.965048	66.761369
533.395013	66.912479
533.824959	66.992836
534.254888	67.015321
534.684799	66.941305
535.114693	66.794074
535.544568	66.568789
535.974425	66.225094
536.404264	65.805977
536.834086	65.299695
537.263889	64.704829
537.693674	64.050752
538.123441	63.350398
538.553190	62.636315
538.982921	61.917358
539.412634	61.216219
539.842329	60.543472
540.272006	59.928211
540.701664	59.362691
541.131304	58.851046
541.560926	58.445174
541.990530	58.092610
542.420116	57.787143
542.849683	57.539689
543.279232	57.328720
543.708763	57.134239
544.138275	56.958409
544.567769	56.800349
544.997245	56.660265
545.426702	56.511276
545.856141	56.366974
546.285562	56.240921
546.714964	56.138274
547.144347	56.058723
547.573713	56.018040
548.003059	56.037978
548.432387	56.088045
548.861697	56.169481
549.290988	56.333130
549.720260	56.555314
550.149514	56.819736
550.578750	57.142266
551.007966	57.484659
551.437164	57.841331
551.866344	58.212417
552.295504	58.557863
552.724646	58.871103
553.153769	59.142795
553.582874	59.348545
554.011960	59.480475
554.441027	59.510969
554.870075	59.421970
555.299104	59.238199
555.728115	58.950501
556.157106	58.574615
556.586079	58.098104
557.015033	57.565932
557.443968	56.992307
557.872884	56.363900
558.301781	55.711737
558.730659	55.077454
559.159518	54.445442
559.588358	53.850558
560.017180	53.279109
560.445982	52.747309
560.874765	52.271930
561.303528	51.847154
561.732273	51.459987
562.160999	51.128015
562.589705	50.822178
563.018393	50.557265
563.447061	50.349480
563.875710	50.172158
564.304340	50.037624
564.732950	49.936078
565.161542	49.872201
565.590114	49.863241
566.018666	49.876524
566.447200	49.915716
566.875714	49.999133
567.304208	50.109624
567.732684	50.254342
568.161140	50.437716
568.589576	50.643201
569.017993	50.891712
569.446391	51.168103
569.874769	51.487902
570.303128	51.820722
570.731467	52.190967
571.159787	52.595493
571.588087	53.032088
572.016368	53.462263
572.444629	53.899340
572.872870	54.330066
573.301092	54.743845
573.729294	55.128400
574.157476	55.444034
574.585639	55.683517
575.013782	55.859591
575.441906	55.948887
575.870009	55.952103
576.298093	55.847512
576.726157	55.653360
577.154202	55.375576
577.582226	55.010945
578.010231	54.584461
578.438216	54.098920
578.866181	53.560350
579.294126	53.016428
579.722051	52.449832
580.149957	51.877643
580.577842	51.304115
581.005707	50.733894
581.433553	50.158480
581.861378	49.610546
582.289184	49.061289
582.716969	48.521523
583.144734	47.991937
583.572479	47.480750
584.000205	46.978070
584.427910	46.494661
584.855594	46.009234
585.283259	45.557318
585.710904	45.130890
586.138528	44.739478
586.566132	44.369871
586.993716	44.045801
587.421280	43.764475
587.848823	43.533719
588.276346	43.340056
588.703849	43.193108
589.131332	43.091873
589.558794	43.049439
589.986236	43.041753
590.413657	43.078842
590.841058	43.164754
591.268438	43.291964
591.695799	43.473284
592.123138	43.697743
592.550458	43.970153
592.977756	44.294354
593.405034	44.663239
593.832292	45.083056
594.259529	45.556232
594.686746	46.075712
595.113942	46.627075
595.541117	47.209271
595.968272	47.813674
596.395406	48.415505
596.822519	49.006279
597.249612	49.558441
597.676684	50.062580
598.103735	50.514060
598.530766	50.892446
598.957775	51.201126
599.384764	51.420130
599.811733	51.573382
600.238680	51.634719
600.665606	51.625343
601.092512	51.549668
601.519397	51.407590
601.946261	51.206423
602.373104	50.959576
602.799926	50.663311
603.226727	50.318935
603.653507	49.940821
604.080266	49.528953
604.507004	49.080884
604.933721	48.602119
605.360417	48.088799
605.787092	47.527215
606.213746	46.926896
606.640379	46.289661
607.066991	45.620378
607.493581	44.931162
607.920150	44.221584
608.346699	43.498945
608.773226	42.787798
609.199731	42.085112
609.626216	41.416698
610.052679	40.791669
610.479121	40.222006
610.905542	39.721959
611.331941	39.307804
611.758319	38.990473
612.184676	38.757652
612.611011	38.620092
613.037325	38.572030
613.463617	38.628367
613.889888	38.762209
614.316138	38.979376
614.742366	39.276145
615.168573	39.654622
615.594758	40.108209
616.020921	40.629712
616.447063	41.223737
616.873184	41.879006
617.299283	42.597534
617.725360	43.364654
618.151416	44.176416
618.577450	45.034821
619.003462	45.933097
619.429453	46.866656
619.855422	47.837511
620.281369	48.827966
620.707295	49.821748
621.133199	50.819727
621.559081	51.795647
621.984941	52.743153
622.410779	53.639545
622.836596	54.468484
623.262391	55.219344
623.688163	55.891635
624.113914	56.478959
624.539644	56.951321
624.965351	57.312505
625.391036	57.577099
625.816699	57.746075
626.242340	57.811973
626.667960	57.784768
627.093557	57.681123
627.519132	57.498377
627.944685	57.265108
628.370216	56.964334
628.795725	56.607076
629.221212	56.190845
629.646677	55.748344
630.072119	55.251333
630.497540	54.711006
630.922938	54.163565
631.348314	53.582323
631.773668	52.986347
632.198999	52.382162
632.624308	51.784796
633.049595	51.188119
633.474860	50.608672
633.900102	50.062163
634.325322	49.539980
634.750520	49.076161
635.175695	48.643525
635.600848	48.277681
636.025978	47.970838
636.451086	47.737068
636.876171	47.570089
637.301234	47.466301
637.726275	47.439574
638.151293	47.472095
638.576288	47.562225
639.001261	47.691657
639.426211	47.865835
639.851139	48.064913
640.276044	48.290722
640.700927	48.537493
641.125787	48.780366
641.550624	49.022481
641.975438	49.252097
642.400230	49.475920
642.824999	49.665090
643.249745	49.834907
643.674469	49.980778
644.099169	50.101926
644.523847	50.198471
644.948502	50.273361
645.373135	50.329132
645.797744	50.345697
646.222330	50.338110
646.646894	50.312767
647.071435	50.243008
647.495953	50.156365
647.920447	50.043218
648.344919	49.897244
648.769368	49.731342
649.193794	49.545932
649.618197	49.332765
650.042576	49.092551
650.466933	48.834176
650.891267	48.556454
651.315577	48.270607
651.739864	47.981010
652.164129	47.696427
652.588370	47.418104
653.012587	47.150995
653.436782	46.906113
653.860953	46.687115
654.285102	46.504005
654.709226	46.353628
655.133328	46.251081
655.557406	46.196677
655.981461	46.191638
656.405493	46.243366
656.829501	46.346438
657.253486	46.482673
657.677448	46.648470
658.101386	46.849324
658.525301	47.067586
658.949192	47.316897
659.373060	47.575861
659.796904	47.848811
660.220725	48.139689
660.644522	48.442599
661.068296	48.735788
661.492046	49.049649
661.915772	49.370857
662.339475	49.690462
662.763154	50.018802
663.186810	50.366530
663.610442	50.721288
664.034050	51.089904
664.457635	51.483061
664.881196	51.890030
665.304733	52.312557
665.728247	52.751608
666.151736	53.211805
666.575202	53.691086
666.998644	54.181831
667.422062	54.670582
667.845457	55.159378
668.268827	55.637524
668.692174	56.085039
669.115496	56.503230
669.538795	56.893731
669.962070	57.232454
670.385321	57.523379
670.808547	57.772337
671.231750	57.959635
671.654929	58.094076
672.078084	58.172028
672.501214	58.198589
672.924321	58.160560
673.347404	58.068789
673.770462	57.922212
674.193496	57.755690
674.616506	57.558270
675.039492	57.320569
675.462454	57.076619
675.885391	56.823636
676.308305	56.558930
676.731194	56.302280
677.154058	56.051515
677.576899	55.800927
677.999715	55.559530
678.422507	55.327826
678.845274	55.111013
679.268017	54.905390
679.690736	54.708118
680.113430	54.520251
680.536100	54.347069
680.958746	54.187248
681.381367	54.041607
681.803963	53.913174
682.226535	53.812114
682.649083	53.714831
683.071605	53.639727
683.494104	53.591677
683.916578	53.566984
684.339027	53.565411
684.761451	53.586050
685.183851	53.614805
685.606227	53.654720
686.028577	53.709876
686.450903	53.780900
686.873204	53.852752
687.295481	53.904992
687.717733	53.956503
688.139959	53.993095
688.562162	54.006254
688.984339	53.992175
689.406492	53.949349
689.828619	53.865150
690.250722	53.738532
690.672800	53.566619
691.094853	53.342726
691.516881	53.082643
691.938884	52.784772
692.360863	52.440248
692.782816	52.065729
693.204744	51.666659
693.626647	51.253808
694.048526	50.827727
694.470379	50.409031
694.892207	49.999389
695.314010	49.591894
695.735788	49.206382
696.157540	48.856327
696.579268	48.530832
697.000970	48.238235
697.422648	47.978134
697.844300	47.763670
698.265926	47.601856
698.687528	47.475576
699.109104	47.391006
699.530655	47.337465
699.952181	47.331504
700.373681	47.375331
700.795156	47.422869
701.216606	47.502512
701.638030	47.608136
702.059429	47.735016
702.480803	47.863332
702.902151	48.008177
703.323473	48.158861
703.744770	48.302252
704.166042	48.446993
704.587288	48.590796
705.008509	48.724720
705.429704	48.866132
705.850873	49.003864
706.272017	49.129190
706.693135	49.238583
707.114228	49.351573
707.535295	49.448874
707.956336	49.541149
708.377352	49.632816
708.798342	49.726441
709.219306	49.807364
709.640245	49.888664
710.061157	49.963843
710.482044	50.042532
710.902905	50.122437
711.323741	50.196402
711.744550	50.282813
712.165334	50.363607
712.586092	50.453713
713.006823	50.544471
713.427529	50.643650
713.848209	50.755532
714.268863	50.876694
714.689492	50.998641
715.110094	51.124467
715.530670	51.272207
715.951220	51.424828
716.371744	51.583680
716.792242	51.755689
717.212714	51.940893
717.633159	52.137440
718.053579	52.334052
718.473973	52.538260
718.894340	52.748338
719.314681	52.961769
719.734996	53.178604
720.155285	53.386028
720.575547	53.584374
720.995784	53.774554
721.415994	53.937172
721.836177	54.076170
722.256335	54.197667
722.676466	54.278404
723.096570	54.332525
723.516649	54.341187
723.936701	54.306873
724.356726	54.232667
724.776725	54.115431
725.196698	53.963195
725.616644	53.751982
726.036564	53.498460
726.456457	53.197333
726.876324	52.872515
727.296164	52.511339
727.715977	52.124417
728.135764	51.726762
728.555525	51.308109
728.975258	50.866401
729.394966	50.428499
729.814646	49.995368
730.234300	49.570842
730.653927	49.141153
731.073527	48.745293
731.493101	48.360061
731.912648	47.983971
732.332168	47.637631
732.751661	47.312784
733.171128	47.012816
733.590568	46.735788
734.009980	46.476845
734.429366	46.243079
734.848726	46.028790
735.268058	45.825390
735.687363	45.646375
736.106641	45.498012
736.525893	45.367037
736.945117	45.247252
737.364314	45.144098
737.783485	45.051311
738.202628	44.969569
738.621744	44.911132
739.040834	44.862087
739.459896	44.822326
739.878931	44.791654
740.297939	44.773113
740.716919	44.763686
741.135873	44.753071
741.554799	44.747259
741.973698	44.747918
742.392570	44.750703
742.811415	44.749844
743.230232	44.746339
743.649022	44.758034
744.067785	44.758552
744.486521	44.752747
744.905229	44.741843
745.323909	44.730584
745.742563	44.726269
746.161189	44.713414
746.579787	44.703970
746.998358	44.701107
747.416902	44.710554
747.835418	44.720385
748.253907	44.739205
748.672368	44.772765
749.090802	44.794285
749.509208	44.830560
749.927586	44.884039
750.345937	44.940284
750.764261	45.001997
751.182556	45.070965
751.600824	45.146891
752.019065	45.236475
752.437277	45.328648
752.855462	45.425948
753.273620	45.524183
753.691749	45.620504
754.109851	45.724129
754.527925	45.823330
754.945971	45.919339
755.363989	46.017891
755.781980	46.114812
756.199943	46.210583
756.617877	46.286554
757.035784	46.355766
757.453663	46.417188
757.871514	46.471828
758.289337	46.502298
758.707132	46.505833
759.124899	46.490883
759.542639	46.444930
759.960350	46.371608
760.378033	46.264686
760.795688	46.129596
761.213314	45.962213
761.630913	45.758099
762.048484	45.515994
762.466026	45.242105
762.883541	44.925484
763.301027	44.584184
763.718485	44.219195
764.135914	43.829897
764.553316	43.436028
764.970689	43.014226
765.388034	42.593549
765.805351	42.164077
766.222639	41.737013
766.639899	41.316580
767.057131	40.882517
767.474334	40.464435
767.891509	40.067959
768.308655	39.677331
768.725773	39.306204
769.142863	38.953302
769.559924	38.625853
769.976957	38.312359
770.393961	38.018084
770.810936	37.749577
771.227883	37.502993
771.644802	37.277434
772.061692	37.079912
772.478553	36.908737
772.895386	36.760992
773.312190	36.636749
773.728965	36.546589
774.145712	36.480074
774.562430	36.442270
774.979119	36.443123
775.395780	36.470882
775.812411	36.524045
776.229014	36.602973
776.645589	36.713394
777.062134	36.854763
777.478651	37.002978
777.895138	37.182036
778.311597	37.381899
778.728027	37.603897
779.144428	37.832700
779.560800	38.073170
779.977143	38.321569
780.393458	38.572549
780.809743	38.828511
781.225999	39.074798
781.642226	39.314181
782.058425	39.535235
782.474594	39.739666
782.890734	39.925636
783.306845	40.105274
783.722926	40.251508
784.138979	40.371810
784.555003	40.467947
784.970997	40.545718
785.386962	40.584974
785.802898	40.595497
786.218805	40.579876
786.634682	40.529961
787.050531	40.459586
787.466349	40.368346
787.882139	40.247676
788.297899	40.106159
788.713630	39.962172
789.129332	39.806136
789.545004	39.632213
789.960647	39.454856
790.376260	39.277075
790.791844	39.091609
791.207399	38.905432
791.622924	38.728339
792.038419	38.576279
792.453885	38.433284
792.869321	38.321320
793.284728	38.219346
793.700106	38.139715
794.115453	38.114604
794.530771	38.114977
794.946060	38.147946
795.361319	38.219050
795.776548	38.312323
796.191747	38.445249
796.606917	38.597972
797.022057	38.778369
797.437167	38.986419
797.852248	39.195542
798.267298	39.434873
798.682319	39.691878
799.097310	39.948179
799.512271	40.217893
799.927203	40.484901
800.342104	40.747980
800.756976	41.015333
801.171818	41.276834
801.586629	41.526867
802.001411	41.769824
802.416163	41.996392
802.830885	42.202896
803.245577	42.396774
803.660238	42.577594
804.074870	42.729857
804.489472	42.877911
804.904043	42.980579
805.318585	43.062811
805.733096	43.109378
806.147577	43.147713
806.562028	43.150202
806.976449	43.102147
807.390840	43.044618
807.805200	42.949912
808.219530	42.818213
808.633830	42.669613
809.048100	42.484211
809.462339	42.288993
809.876548	42.073981
810.290727	41.838586
810.704875	41.594303
811.118993	41.337687
811.533080	41.059924
811.947137	40.796766
812.361164	40.533234
812.775160	40.267818
813.189126	40.005127
813.603061	39.755410
814.016966	39.524000
814.430840	39.301238
814.844684	39.085509
815.258497	38.895969
815.672280	38.726322
816.086032	38.585328
816.499753	38.475121
816.913444	38.387941
817.327104	38.307879
817.740733	38.271723
818.154331	38.255386
818.567899	38.282949
818.981436	38.333238
819.394943	38.421553
819.808418	38.534952
820.221863	38.658837
820.635277	38.825682
821.048660	39.014572
821.462013	39.236273
821.875334	39.463203
822.288625	39.710083
822.701884	39.972301
823.115113	40.242983
823.528311	40.524693
823.941478	40.793807
824.354614	41.058154
824.767718	41.313590
825.180792	41.533929
825.593835	41.742676
826.006847	41.917126
826.419827	42.047479
826.832777	42.133050
827.245695	42.177690
827.658582	42.175676
828.071438	42.128254
828.484263	42.017551
828.897057	41.857387
829.309819	41.630506
829.722551	41.371834
830.135251	41.066213
830.547919	40.713257
830.960557	40.328621
831.373163	39.902271
831.785738	39.443992
832.198281	38.953989
832.610793	38.457215
833.023274	37.955822
833.435723	37.448421
833.848141	36.949376
834.260528	36.448129
834.672883	35.959325
835.085206	35.495838
835.497498	35.050689
835.909758	34.619252
836.321987	34.217988
836.734185	33.855459
837.146350	33.543573
837.558485	33.255996
837.970587	33.030741
838.382658	32.847380
838.794697	32.706334
839.206705	32.622198
839.618681	32.574438
840.030625	32.561935
840.442538	32.601978
840.854418	32.675944
841.266267	32.790196
841.678084	32.936930
842.089870	33.109943
842.501623	33.293651
842.913345	33.503164
843.325035	33.727591
843.736693	33.962164
844.148319	34.196182
844.559913	34.440139
844.971475	34.688110
845.383005	34.935569
845.794504	35.170317
846.205970	35.390274
846.617404	35.593095
847.028806	35.778290
847.440176	35.953580
847.851514	36.094460
848.262820	36.216763
848.674094	36.334946
849.085336	36.428395
849.496546	36.504248
849.907723	36.540755
850.318868	36.568087
850.729981	36.548505
851.141062	36.499178
851.552110	36.431359
851.963127	36.327415
852.374111	36.207967
852.785062	36.079023
853.195982	35.915844
853.606869	35.755313
854.017723	35.574254
854.428546	35.371682
854.839336	35.169447
855.250093	34.958714
855.660818	34.750348
856.071511	34.543665
856.482171	34.320020
856.892799	34.113349
857.303394	33.890408
857.713956	33.673801
858.124486	33.460506
858.534984	33.247900
858.945449	33.029642
859.355881	32.812180
859.766280	32.604040
860.176647	32.387114
860.586982	32.179266
860.997283	31.964532
861.407552	31.743047
861.817789	31.511373
862.227992	31.272153
862.638163	31.058349
863.048301	30.819892
863.458406	30.575707
863.868478	30.328976
864.278518	30.084506
864.688524	29.836649
865.098498	29.593730
865.508439	29.352692
865.918347	29.114640
866.328222	28.868019
866.738064	28.639658
867.147873	28.432491
867.557649	28.236132
867.967392	28.050120
868.377102	27.873362
868.786779	27.713951
869.196423	27.596005
869.606034	27.482144
870.015612	27.423067
870.425156	27.377835
870.834668	27.360450
871.244146	27.374681
871.653591	27.403653
872.063003	27.452838
872.472382	27.527867
872.881728	27.634073
873.291040	27.749301
873.700319	27.873867
874.109564	28.021485
874.518777	28.164422
874.927956	28.320116
875.337102	28.477723
875.746214	28.623399
876.155293	28.798206
876.564338	28.954337
876.973350	29.117542
877.382329	29.272016
877.791274	29.390585
878.200186	29.496763
878.609064	29.596697
879.017909	29.677526
879.426720	29.738590
879.835497	29.753658
880.244241	29.747603
880.652952	29.728656
881.061629	29.685964
881.470272	29.612858
881.878881	29.504899
882.287457	29.374346
882.695999	29.190621
883.104507	28.987205
883.512982	28.756475
883.921423	28.506462
884.329830	28.248178
884.738203	27.982769
885.146543	27.705094
885.554849	27.401812
885.963120	27.112460
886.371358	26.816283
886.779563	26.517307
887.187733	26.229561
887.595869	25.947289
888.003971	25.658235
888.412040	25.407799
888.820074	25.150392
889.228074	24.926054
889.636041	24.694595
890.043973	24.487647
890.451871	24.316158
890.859736	24.160962
891.267566	24.022684
891.675362	23.903126
892.083124	23.812044
892.490851	23.742257
892.898545	23.683465
893.306204	23.654272
893.713829	23.630686
894.121420	23.633773
894.528977	23.655811
894.936499	23.691274
895.343987	23.763910
895.751441	23.840295
896.158860	23.905150
896.566246	23.986989
896.973596	24.088437
897.380913	24.195824
897.788195	24.279427
898.195442	24.379076
898.602655	24.465662
899.009834	24.554639
899.416978	24.633704
899.824088	24.713110
900.231163	24.775066
900.638204	24.835087
901.045210	24.859490
901.452181	24.872960
901.859118	24.872419
902.266021	24.852019
902.672888	24.820400
903.079721	24.769807
903.486520	24.696500
903.893283	24.602280
904.300012	24.486600
904.706707	24.335340
905.113366	24.177400
905.519991	24.032727
905.926581	23.854393
906.333136	23.668274
906.739656	23.463785
907.146142	23.261337
907.552592	23.032400
907.959008	22.802056
908.365389	22.574804
908.771735	22.352808
909.178046	22.128698
909.584322	21.903886
909.990563	21.674752
910.396769	21.469146
910.802940	21.281360
911.209076	21.110328
911.615177	20.938689
912.021243	20.789017
912.427274	20.659887
912.833270	20.557231
913.239231	20.451327
913.645156	20.380269
914.051046	20.319672
914.456902	20.260834
914.862721	20.234151
915.268506	20.212579
915.674256	20.218170
916.079970	20.223226
916.485649	20.249338
916.891292	20.290532
917.296901	20.343227
917.702474	20.395009
918.108011	20.449621
918.513514	20.510077
918.918980	20.575933
919.324412	20.649582
919.729808	20.684471
920.135169	20.751975
920.540494	20.802996
920.945783	20.857936
921.351037	20.898780
921.756256	20.949892
922.161439	20.973878
922.566586	20.989504
922.971698	20.994045
923.376775	20.985142
923.781815	20.975049
924.186820	20.959649
924.591790	20.923350
924.996723	20.881185
925.401621	20.805734
925.806484	20.734790
926.211310	20.668138
926.616101	20.569658
927.020856	20.503092
927.425575	20.402607
927.830259	20.312254
928.234906	20.201059
928.639518	20.093015
929.044094	19.985698
929.448634	19.885992
929.853138	19.785568
930.257606	19.691832
930.662038	19.592328
931.066434	19.494703
931.470795	19.420386
931.875119	19.328340
932.279407	19.283881
932.683659	19.202463
933.087875	19.149150
933.492055	19.115904
933.896199	19.089096
934.300307	19.042586
934.704379	19.029111
935.108414	19.019271
935.512414	19.024908
935.916377	19.033990
936.320304	19.010293
936.724195	19.022298
937.128049	19.036452
937.531867	19.029334
937.935649	19.064723
938.339395	19.074206
938.743104	19.063393
939.146777	19.073452
939.550414	19.054765
939.954014	19.038308
940.357578	19.010978
940.761105	18.980396
941.164596	18.939207
941.568050	18.882278
941.971468	18.816168
942.374850	18.728715
942.778195	18.643812
943.181503	18.538447
943.584775	18.413422
943.988010	18.278419
944.391209	18.130624
944.794371	17.988903
945.197496	17.852470
945.600585	17.681952
946.003637	17.516603
946.406653	17.343346
946.809632	17.163649
947.212574	16.964433
947.615479	16.777383
948.018347	16.599257
948.421179	16.413507
948.823974	16.229410
949.226732	16.019888
949.629453	15.835200
950.032138	15.682081
950.434785	15.493521
950.837396	15.327756
951.239969	15.175390
951.642506	15.039654
952.045006	14.902681
952.447469	14.791224
952.849895	14.667659
953.252283	14.566750
953.654635	14.479351
954.056950	14.402560
954.459227	14.321729
954.861468	14.263221
955.263671	14.195037
955.665838	14.158659
956.067967	14.154140
956.470059	14.125571
956.872114	14.138406
957.274131	14.110547
957.676112	14.100778
958.078055	14.132368
958.479961	14.132816
958.881829	14.156562
959.283661	14.180262
959.685455	14.218795
960.087211	14.258883
960.488931	14.283215
960.890613	14.311201
961.292257	14.355666
961.693864	14.405991
962.095434	14.456717
962.496966	14.474484
962.898461	14.517895
963.299918	14.590457
963.701338	14.653106
964.102720	14.686704
964.504065	14.756596
964.905372	14.802279
965.306641	14.832348
965.707873	14.840276
966.109068	14.870541
966.510224	14.874254
966.911343	14.878098
967.312425	14.903820
967.713468	14.917940
968.114474	14.924664
968.515442	14.932836
968.916373	14.926109
969.317265	14.907055
969.718120	14.930636
970.118937	14.977171
970.519716	14.949239
970.920458	14.914699
971.321161	14.933931
971.721827	14.957339
972.122454	14.958252
972.523044	14.973814
972.923596	14.994162
973.324110	15.011910
973.724585	15.026658
974.125023	15.029225
974.525423	15.059128
974.925785	15.120819
975.326108	15.149742
975.726394	15.151779
976.126642	15.146302
976.526851	15.194525
976.927022	15.156816
977.327155	15.181874
977.727250	15.233920
978.127307	15.312136
978.527325	15.372110
978.927306	15.438328
979.327248	15.522301
979.727151	15.574815
980.127017	15.623522
980.526844	15.663498
980.926633	15.768428
981.326383	15.836924
981.726095	15.908329
982.125769	15.962354
982.525404	16.048537
982.925001	16.122140
983.324560	16.202138
983.724079	16.253613
984.123561	16.283854
984.523004	16.368541
984.922408	16.393501
985.321774	16.416635
985.721102	16.466904
986.120390	16.536953
986.519641	16.650468
986.918852	16.648179
987.318025	16.646691
987.717159	16.663722
988.116255	16.659494
988.515312	16.647299
988.914330	16.638685
989.313310	16.642299
989.712250	16.635782
990.111152	16.608427
990.510015	16.559587
990.908840	16.564941
991.307625	16.485287
991.706372	16.453975
992.105080	16.441836
992.503749	16.448697
992.902379	16.461489
993.300970	16.390194
993.699522	16.459091
994.098035	16.441299
994.496510	16.407569
994.894945	16.329317
995.293341	16.336288
995.691698	16.370316
996.090016	16.287708
996.488296	16.286380
996.886535	16.307845
997.284736	16.337055
997.682898	16.368088
998.081021	16.383092
998.479104	16.295749
998.877148	16.277310
999.275153	16.287957
999.673119	16.282999
1000.071046	16.290314
1000.468933	16.230714
1000.866781	16.351561
1001.264590	16.436695
1001.662359	16.480232
1002.060089	16.555027
1002.457780	16.682691
1002.855431	16.733321
1003.253043	16.825489
1003.650615	17.012228
1004.048148	17.063952
1004.445642	17.233094
1004.843096	17.340217
1005.240511	17.493986
1005.637886	17.587264
1006.035221	17.610063
1006.432517	17.769733
1006.829774	17.888835
1007.226991	17.884027
1007.624168	17.981581
1008.021306	18.007996
1008.418404	18.172503
1008.815462	18.421173
1009.212481	18.417597
1009.609460	18.715111
1010.006399	18.904708
1010.403298	19.000306
1010.800158	19.315391
1011.196978	19.443699
1011.593758	19.624160
1011.990498	20.009074
1012.387199	20.208102
1012.783860	20.486840
1013.180480	20.728775
1013.577061	20.628659
1013.973602	21.095747
1014.370103	21.161910
1014.766564	21.288535
1015.162985	21.521544
1015.559366	21.503082
1015.955708	21.690470
1016.352009	21.855706
1016.748270	21.772838
1017.144491	22.067733
1017.540671	22.089836
1017.936812	21.913200
1018.332913	21.948608
1018.728973	22.056217
1019.124994	22.325896
1019.520974	22.753013
1019.916914	23.110556
1020.312814	23.566232
