Time1=100ms:Average1=5:Objective=10X:Aperture=1: (11/28/2018 9:27:44 AM)
11/28/2018 9:27:44 AM
Reflectance
10X
Ap#: 1
Avg1: 5.000000
Avg2: 0.000000
Int.Time1:100.000000

350.166136	40.464373
350.601937	40.438817
351.037728	40.028477
351.473509	40.081836
351.909281	40.169492
352.345042	39.777718
352.780794	39.750382
353.216536	39.825634
353.652267	39.915247
354.087989	39.931371
354.523701	40.402950
354.959403	40.290038
355.395095	40.159957
355.830777	40.102251
356.266449	40.327487
356.702110	40.218560
357.137762	40.423622
357.573404	40.613541
358.009035	40.280382
358.444656	40.560814
358.880268	40.700688
359.315869	40.795931
359.751459	40.779890
360.187040	41.152373
360.622610	40.982736
361.058170	40.814344
361.493720	41.196248
361.929260	41.249227
362.364789	41.378395
362.800308	40.979679
363.235816	41.275078
363.671314	41.197968
364.106802	41.131539
364.542279	41.533150
364.977746	41.595114
365.413203	41.586794
365.848649	41.583718
366.284084	41.690291
366.719509	41.892610
367.154924	41.705742
367.590328	41.685831
368.025721	41.460177
368.461104	41.353781
368.896477	41.373830
369.331838	41.233566
369.767189	41.318798
370.202530	41.183746
370.637859	40.939479
371.073178	41.014391
371.508486	41.037777
371.943784	40.764778
372.379071	40.597355
372.814347	40.461565
373.249612	40.630488
373.684866	40.443940
374.120110	40.764387
374.555343	40.636475
374.990565	40.300594
375.425776	40.189763
375.860976	40.001743
376.296165	40.050378
376.731343	39.974003
377.166511	39.993090
377.601667	40.067486
378.036812	39.942877
378.471946	39.965383
378.907070	39.844358
379.342182	39.841050
379.777283	40.029453
380.212373	39.837258
380.647452	39.733725
381.082520	39.881004
381.517576	39.822475
381.952622	40.155508
382.387656	40.113529
382.822679	40.017227
383.257691	39.663894
383.692692	39.696090
384.127681	39.721105
384.562659	39.247863
384.997626	39.279632
385.432581	39.238566
385.867525	39.292731
386.302458	39.440703
386.737379	39.146694
387.172289	39.199050
387.607188	39.048747
388.042075	39.009550
388.476951	39.299018
388.911815	39.100552
389.346668	39.321290
389.781509	39.282095
390.216338	39.038786
390.651157	38.983908
391.085963	38.937157
391.520758	39.199663
391.955541	39.058962
392.390313	38.986747
392.825073	39.308729
393.259821	39.049052
393.694558	38.786060
394.129283	38.971628
394.563996	38.880093
394.998698	38.896277
395.433388	38.651527
395.868066	38.562849
396.302732	38.531391
396.737386	38.485558
397.172029	38.496210
397.606659	38.380095
398.041278	38.375622
398.475885	38.180351
398.910480	38.013658
399.345063	37.695366
399.779634	37.601429
400.214194	37.038026
400.648741	36.323205
401.083276	35.827706
401.517799	35.462077
401.952310	34.860839
402.386809	34.405932
402.821296	33.665788
403.255771	33.151697
403.690234	32.501796
404.124684	31.615391
404.559123	30.907235
404.993549	30.021795
405.427963	29.156486
405.862365	28.528127
406.296754	27.652127
406.731131	26.957780
407.165496	26.492129
407.599849	25.977745
408.034190	25.268731
408.468518	24.695626
408.902833	24.196527
409.337137	23.652472
409.771428	23.189497
410.205706	22.700994
410.639973	22.179365
411.074226	21.834205
411.508467	21.564671
411.942696	21.339117
412.376912	21.111637
412.811116	20.893865
413.245307	20.665329
413.679486	20.571422
414.113652	20.434464
414.547805	20.274922
414.981946	20.119216
415.416074	19.912269
415.850190	19.750810
416.284293	19.566287
416.718383	19.499199
417.152460	19.349063
417.586525	19.257037
418.020577	19.149599
418.454616	19.056931
418.888643	18.935931
419.322656	18.796192
419.756657	18.629288
420.190645	18.458681
420.624620	18.245222
421.058582	18.040284
421.492531	17.847953
421.926468	17.662838
422.360391	17.515214
422.794301	17.390908
423.228199	17.292068
423.662083	17.196780
424.095955	17.147255
424.529813	17.082150
424.963658	16.996331
425.397491	16.896374
425.831310	16.783606
426.265116	16.683593
426.698909	16.545267
427.132689	16.430605
427.566455	16.314360
428.000209	16.241520
428.433949	16.177344
428.867676	16.157241
429.301389	16.109843
429.735090	16.087851
430.168777	15.984491
430.602451	15.938423
431.036111	15.873877
431.469759	15.806800
431.903392	15.725708
432.337013	15.677860
432.770620	15.637351
433.204213	15.648633
433.637794	15.709306
434.071360	15.807835
434.504914	15.939779
434.938453	16.123549
435.371979	16.334411
435.805492	16.563719
436.238991	16.798937
436.672477	17.033679
437.105949	17.275885
437.539407	17.482707
437.972852	17.703352
438.406283	17.933717
438.839700	18.205706
439.273104	18.496501
439.706494	18.802850
440.139871	19.160721
440.573233	19.512840
441.006582	19.902735
441.439917	20.268418
441.873238	20.619454
442.306546	20.951375
442.739839	21.263909
443.173119	21.567643
443.606385	21.896323
444.039636	22.204579
444.472874	22.539299
444.906099	22.886778
445.339309	23.264131
445.772505	23.658895
446.205687	24.061775
446.638855	24.484461
447.072009	24.909651
447.505149	25.336951
447.938275	25.749772
448.371387	26.141041
448.804485	26.531356
449.237569	26.855093
449.670638	27.153460
450.103694	27.417061
450.536735	27.632872
450.969762	27.855249
451.402774	28.089419
451.835773	28.313900
452.268757	28.537693
452.701727	28.781912
453.134683	28.993106
453.567624	29.207941
454.000551	29.422944
454.433464	29.588404
454.866362	29.732762
455.299246	29.853548
455.732116	29.944176
456.164971	30.041881
456.597811	30.114176
457.030638	30.157384
457.463449	30.220377
457.896246	30.252497
458.329029	30.278513
458.761797	30.289630
459.194551	30.288246
459.627290	30.294712
460.060014	30.292236
460.492724	30.274935
460.925419	30.254762
461.358099	30.237523
461.790765	30.221875
462.223416	30.179326
462.656052	30.150926
463.088674	30.125389
463.521281	30.092638
463.953873	30.078231
464.386450	30.067941
464.819012	30.061475
465.251560	30.071353
465.684093	30.079785
466.116611	30.094203
466.549114	30.160347
466.981602	30.209439
467.414075	30.283953
467.846533	30.357520
468.278977	30.449888
468.711405	30.538555
469.143818	30.640863
469.576216	30.737626
470.008600	30.819275
470.440968	30.917798
470.873321	31.006021
471.305659	31.102249
471.737982	31.206583
472.170289	31.323752
472.602582	31.466463
473.034859	31.637867
473.467122	31.805497
473.899369	32.013896
474.331600	32.266525
474.763817	32.542603
475.196018	32.882501
475.628204	33.274850
476.060375	33.702603
476.492530	34.166226
476.924670	34.635023
477.356795	35.141028
477.788904	35.628225
478.220998	36.092063
478.653076	36.550606
479.085139	37.036973
479.517186	37.520519
479.949219	37.993922
480.381235	38.491959
480.813236	39.000986
481.245221	39.560703
481.677191	40.123415
482.109146	40.703406
482.541084	41.275462
482.973008	41.838317
483.404915	42.394763
483.836807	42.924845
484.268683	43.420794
484.700544	43.886164
485.132388	44.326160
485.564217	44.716640
485.996031	45.069763
486.427828	45.390526
486.859610	45.704536
487.291376	46.010911
487.723126	46.279323
488.154860	46.562316
488.586579	46.813809
489.018281	47.069980
489.449968	47.342563
489.881639	47.646314
490.313293	47.992657
490.744932	48.345898
491.176555	48.738268
491.608162	49.115557
492.039753	49.486122
492.471328	49.785932
492.902886	50.032915
493.334429	50.223808
493.765956	50.361663
494.197466	50.439896
494.628960	50.481739
495.060439	50.514015
495.491901	50.586852
495.923347	50.687216
496.354776	50.830764
496.786190	51.035397
497.217587	51.280614
497.648968	51.563094
498.080332	51.861237
498.511681	52.143783
498.943013	52.442614
499.374328	52.727879
499.805628	52.978895
500.236911	53.173338
500.668177	53.339919
501.099427	53.468354
501.530661	53.538974
501.961878	53.594755
502.393079	53.605837
502.824264	53.590514
503.255431	53.553100
503.686583	53.507593
504.117717	53.462662
504.548835	53.425801
504.979937	53.462559
505.411022	53.533240
505.842090	53.677718
506.273142	53.883728
506.704177	54.158260
507.135195	54.454914
507.566197	54.787205
507.997182	55.109436
508.428150	55.420369
508.859102	55.669659
509.290036	55.868596
509.720954	56.031507
510.151855	56.137127
510.582739	56.211071
511.013607	56.284708
511.444457	56.362602
511.875291	56.498283
512.306107	56.697738
512.736907	56.958973
513.167690	57.283193
513.598456	57.665810
514.029205	58.070125
514.459936	58.521508
514.890651	58.988487
515.321349	59.426376
515.752030	59.855516
516.182693	60.249293
516.613340	60.582677
517.043969	60.852098
517.474582	61.055978
517.905177	61.200540
518.335755	61.261134
518.766315	61.257615
519.196859	61.206525
519.627385	61.095066
520.057894	60.931223
520.488386	60.756442
520.918860	60.556005
521.349318	60.372760
521.779757	60.200098
522.210180	60.059702
522.640585	59.974970
523.070973	59.916318
523.501343	59.904212
523.931696	59.928807
524.362031	59.961903
524.792349	60.003536
525.222650	59.991903
525.652933	59.939049
526.083198	59.832212
526.513446	59.655101
526.943677	59.437183
527.373890	59.172500
527.804085	58.877018
528.234262	58.556068
528.664422	58.262204
529.094565	57.991109
529.524689	57.776012
529.954796	57.620197
530.384885	57.543144
530.814957	57.531513
531.245011	57.596695
531.675047	57.719824
532.105065	57.896123
532.535065	58.084161
532.965048	58.287190
533.395013	58.481707
533.824959	58.661238
534.254888	58.795281
534.684799	58.849766
535.114693	58.868220
535.544568	58.842376
535.974425	58.716407
536.404264	58.537685
536.834086	58.288657
537.263889	57.976439
537.693674	57.603661
538.123441	57.209112
538.553190	56.808385
538.982921	56.372322
539.412634	55.929818
539.842329	55.523499
540.272006	55.143668
540.701664	54.787889
541.131304	54.476588
541.560926	54.212564
541.990530	53.968933
542.420116	53.740723
542.849683	53.529991
543.279232	53.326357
543.708763	53.115174
544.138275	52.906360
544.567769	52.656314
544.997245	52.401322
545.426702	52.109506
545.856141	51.818922
546.285562	51.518008
546.714964	51.233188
547.144347	50.951759
547.573713	50.710911
548.003059	50.527057
548.432387	50.381169
548.861697	50.268107
549.290988	50.247672
549.720260	50.280859
550.149514	50.387705
550.578750	50.555249
551.007966	50.773238
551.437164	51.021136
551.866344	51.302714
552.295504	51.593179
552.724646	51.887528
553.153769	52.144580
553.582874	52.367972
554.011960	52.554017
554.441027	52.651317
554.870075	52.666837
555.299104	52.600319
555.728115	52.456590
556.157106	52.223538
556.586079	51.915997
557.015033	51.555441
557.443968	51.136276
557.872884	50.688630
558.301781	50.204721
558.730659	49.731130
559.159518	49.241456
559.588358	48.776733
560.017180	48.313410
560.445982	47.878337
560.874765	47.473146
561.303528	47.100169
561.732273	46.747661
562.160999	46.426143
562.589705	46.112064
563.018393	45.812951
563.447061	45.534532
563.875710	45.275985
564.304340	45.039525
564.732950	44.821608
565.161542	44.623837
565.590114	44.455690
566.018666	44.306650
566.447200	44.185570
566.875714	44.095750
567.304208	44.025630
567.732684	43.992743
568.161140	44.007572
568.589576	44.055286
569.017993	44.156598
569.446391	44.300867
569.874769	44.492070
570.303128	44.718293
570.731467	44.996612
571.159787	45.324344
571.588087	45.697890
572.016368	46.099066
572.444629	46.519929
572.872870	46.947861
573.301092	47.386023
573.729294	47.808833
574.157476	48.202211
574.585639	48.550319
575.013782	48.841152
575.441906	49.058443
575.870009	49.211919
576.298093	49.288347
576.726157	49.288273
577.154202	49.205191
577.582226	49.053320
578.010231	48.831541
578.438216	48.552881
578.866181	48.230302
579.294126	47.887426
579.722051	47.520639
580.149957	47.139037
580.577842	46.747486
581.005707	46.351516
581.433553	45.939419
581.861378	45.538304
582.289184	45.115645
582.716969	44.694739
583.144734	44.269244
583.572479	43.835075
584.000205	43.393536
584.427910	42.943135
584.855594	42.477818
585.283259	42.011655
585.710904	41.553981
586.138528	41.106108
586.566132	40.674620
586.993716	40.253218
587.421280	39.843298
587.848823	39.458419
588.276346	39.101726
588.703849	38.784385
589.131332	38.484023
589.558794	38.219614
589.986236	37.969233
590.413657	37.761429
590.841058	37.593769
591.268438	37.453015
591.695799	37.341792
592.123138	37.264255
592.550458	37.221722
592.977756	37.229931
593.405034	37.269422
593.832292	37.354769
594.259529	37.481581
594.686746	37.653656
595.113942	37.859166
595.541117	38.110370
595.968272	38.388712
596.395406	38.687117
596.822519	38.989728
597.249612	39.296310
597.676684	39.590159
598.103735	39.861062
598.530766	40.108255
598.957775	40.334793
599.384764	40.521328
599.811733	40.663269
600.238680	40.785851
600.665606	40.876806
601.092512	40.938363
601.519397	40.975076
601.946261	41.002648
602.373104	41.025329
602.799926	41.037332
603.226727	41.048232
603.653507	41.049391
604.080266	41.039185
604.507004	41.038150
604.933721	41.029448
605.360417	41.011844
605.787092	40.964644
606.213746	40.895968
606.640379	40.805030
607.066991	40.687897
607.493581	40.544706
607.920150	40.374237
608.346699	40.178542
608.773226	39.971176
609.199731	39.741072
609.626216	39.504998
610.052679	39.282521
610.479121	39.061026
610.905542	38.849411
611.331941	38.666647
611.758319	38.504479
612.184676	38.359116
612.611011	38.234068
613.037325	38.134814
613.463617	38.049366
613.889888	37.982156
614.316138	37.921246
614.742366	37.881882
615.168573	37.841004
615.594758	37.816995
616.020921	37.809604
616.447063	37.820771
616.873184	37.845161
617.299283	37.895298
617.725360	37.951748
618.151416	38.041526
618.577450	38.158020
619.003462	38.312033
619.429453	38.487279
619.855422	38.704158
620.281369	38.947024
620.707295	39.225152
621.133199	39.525627
621.559081	39.848961
621.984941	40.162583
622.410779	40.489177
622.836596	40.804275
623.262391	41.117978
623.688163	41.417688
624.113914	41.703309
624.539644	41.964037
624.965351	42.198923
625.391036	42.406520
625.816699	42.600768
626.242340	42.779909
626.667960	42.938627
627.093557	43.092237
627.519132	43.242092
627.944685	43.382559
628.370216	43.525079
628.795725	43.648862
629.221212	43.756918
629.646677	43.859816
630.072119	43.947492
630.497540	44.010289
630.922938	44.072518
631.348314	44.102163
631.773668	44.115423
632.198999	44.101532
632.624308	44.063775
633.049595	44.005955
633.474860	43.940548
633.900102	43.845037
634.325322	43.744049
634.750520	43.651202
635.175695	43.566849
635.600848	43.488790
636.025978	43.423867
636.451086	43.376787
636.876171	43.345450
637.301234	43.332736
637.726275	43.341591
638.151293	43.375916
638.576288	43.431150
639.001261	43.497868
639.426211	43.559954
639.851139	43.630135
640.276044	43.705921
640.700927	43.768676
641.125787	43.827963
641.550624	43.874412
641.975438	43.906695
642.400230	43.930183
642.824999	43.931678
643.249745	43.923743
643.674469	43.900418
644.099169	43.868631
644.523847	43.836121
644.948502	43.799794
645.373135	43.766275
645.797744	43.737140
646.222330	43.703204
646.646894	43.671046
647.071435	43.651750
647.495953	43.619448
647.920447	43.578098
648.344919	43.526965
648.769368	43.457379
649.193794	43.376124
649.618197	43.258397
650.042576	43.127379
650.466933	42.977837
650.891267	42.797461
651.315577	42.601603
651.739864	42.379227
652.164129	42.136747
652.588370	41.885018
653.012587	41.625833
653.436782	41.339398
653.860953	41.063979
654.285102	40.778167
654.709226	40.495358
655.133328	40.228618
655.557406	39.965207
655.981461	39.713671
656.405493	39.474481
656.829501	39.254622
657.253486	39.038811
657.677448	38.822675
658.101386	38.612049
658.525301	38.402800
658.949192	38.193781
659.373060	37.983887
659.796904	37.766008
660.220725	37.549514
660.644522	37.346183
661.068296	37.141661
661.492046	36.945205
661.915772	36.770872
662.339475	36.608704
662.763154	36.470441
663.186810	36.357732
663.610442	36.271125
664.034050	36.230803
664.457635	36.226109
664.881196	36.269830
665.304733	36.363705
665.728247	36.507868
666.151736	36.701752
666.575202	36.962728
666.998644	37.264531
667.422062	37.608930
667.845457	37.994342
668.268827	38.407081
668.692174	38.845547
669.115496	39.314368
669.538795	39.793679
669.962070	40.269972
670.385321	40.734699
670.808547	41.197335
671.231750	41.635653
671.654929	42.043462
672.078084	42.428803
672.501214	42.776336
672.924321	43.087995
673.347404	43.364863
673.770462	43.596427
674.193496	43.796013
674.616506	43.957754
675.039492	44.084015
675.462454	44.187629
675.885391	44.259038
676.308305	44.313136
676.731194	44.348954
677.154058	44.355259
677.576899	44.339397
677.999715	44.304745
678.422507	44.253209
678.845274	44.174860
679.268017	44.076580
679.690736	43.946100
680.113430	43.806649
680.536100	43.645131
680.958746	43.466962
681.381367	43.271516
681.803963	43.062281
682.226535	42.841600
682.649083	42.606085
683.071605	42.368690
683.494104	42.142787
683.916578	41.923420
684.339027	41.711966
684.761451	41.520771
685.183851	41.336563
685.606227	41.178919
686.028577	41.040302
686.450903	40.914004
686.873204	40.802324
687.295481	40.706199
687.717733	40.630744
688.139959	40.558616
688.562162	40.496178
688.984339	40.444655
689.406492	40.388310
689.828619	40.334761
690.250722	40.281414
690.672800	40.216892
691.094853	40.141805
691.516881	40.052999
691.938884	39.957662
692.360863	39.843530
692.782816	39.720042
693.204744	39.589895
693.626647	39.459398
694.048526	39.323544
694.470379	39.191524
694.892207	39.065941
695.314010	38.934120
695.735788	38.819517
696.157540	38.716216
696.579268	38.622626
697.000970	38.534710
697.422648	38.466487
697.844300	38.408038
698.265926	38.373229
698.687528	38.350333
699.109104	38.328955
699.530655	38.317240
699.952181	38.318944
700.373681	38.321968
700.795156	38.323293
701.216606	38.322024
701.638030	38.306917
702.059429	38.285331
702.480803	38.245662
702.902151	38.184833
703.323473	38.108770
703.744770	38.007510
704.166042	37.888021
704.587288	37.750743
705.008509	37.591492
705.429704	37.424983
705.850873	37.242810
706.272017	37.044010
706.693135	36.833842
707.114228	36.615258
707.535295	36.389260
707.956336	36.163327
708.377352	35.938759
708.798342	35.719460
709.219306	35.509689
709.640245	35.311195
710.061157	35.133288
710.482044	34.966561
710.902905	34.825301
711.323741	34.695800
711.744550	34.581188
712.165334	34.502257
712.586092	34.442863
713.006823	34.409948
713.427529	34.405382
713.848209	34.427005
714.268863	34.473594
714.689492	34.546290
715.110094	34.648039
715.530670	34.776896
715.951220	34.929358
716.371744	35.103611
716.792242	35.302901
717.212714	35.523587
717.633159	35.759614
718.053579	36.020223
718.473973	36.290272
718.894340	36.575361
719.314681	36.854714
719.734996	37.142874
720.155285	37.423966
720.575547	37.700465
720.995784	37.969995
721.415994	38.224532
721.836177	38.454252
722.256335	38.652171
722.676466	38.821377
723.096570	38.958931
723.516649	39.059123
723.936701	39.116601
724.356726	39.131626
724.776725	39.104358
725.196698	39.031583
725.616644	38.917896
726.036564	38.761333
726.456457	38.561023
726.876324	38.327848
727.296164	38.070839
727.715977	37.793854
728.135764	37.486914
728.555525	37.168691
728.975258	36.836480
729.394966	36.504924
729.814646	36.174898
730.234300	35.852254
730.653927	35.541945
731.073527	35.246799
731.493101	34.963513
731.912648	34.702058
732.332168	34.477044
732.751661	34.272010
733.171128	34.092640
733.590568	33.947768
734.009980	33.824705
734.429366	33.729085
734.848726	33.653437
735.268058	33.609838
735.687363	33.586900
736.106641	33.581930
736.525893	33.605499
736.945117	33.646323
737.364314	33.701765
737.783485	33.764357
738.202628	33.844498
738.621744	33.935141
739.040834	34.030750
739.459896	34.130498
739.878931	34.229427
740.297939	34.328402
740.716919	34.423964
741.135873	34.521335
741.554799	34.608570
741.973698	34.684500
742.392570	34.748363
742.811415	34.801719
743.230232	34.841285
743.649022	34.864039
744.067785	34.869140
744.486521	34.859025
744.905229	34.832582
745.323909	34.790836
745.742563	34.737885
746.161189	34.673549
746.579787	34.602038
746.998358	34.519997
747.416902	34.443370
747.835418	34.373557
748.253907	34.308923
748.672368	34.254316
749.090802	34.213137
749.509208	34.174287
749.927586	34.155872
750.345937	34.153867
750.764261	34.186952
751.182556	34.228562
751.600824	34.291810
752.019065	34.375959
752.437277	34.478298
752.855462	34.605156
753.273620	34.747527
753.691749	34.891531
754.109851	35.050684
754.527925	35.220482
754.945971	35.396289
755.363989	35.579975
755.781980	35.761581
756.199943	35.932592
756.617877	36.101081
757.035784	36.253776
757.453663	36.401927
757.871514	36.529647
758.289337	36.630720
758.707132	36.706029
759.124899	36.757311
759.542639	36.768098
759.960350	36.749285
760.378033	36.692225
760.795688	36.596441
761.213314	36.456129
761.630913	36.270123
762.048484	36.033719
762.466026	35.757013
762.883541	35.434498
763.301027	35.084577
763.718485	34.687414
764.135914	34.263790
764.553316	33.814435
764.970689	33.337702
765.388034	32.853416
765.805351	32.348164
766.222639	31.832759
766.639899	31.325726
767.057131	30.809949
767.474334	30.301468
767.891509	29.811561
768.308655	29.324899
768.725773	28.863545
769.142863	28.426901
769.559924	28.013122
769.976957	27.632295
770.393961	27.270334
770.810936	26.942458
771.227883	26.642247
771.644802	26.369612
772.061692	26.126182
772.478553	25.910725
772.895386	25.720697
773.312190	25.561096
773.728965	25.427112
774.145712	25.323047
774.562430	25.249103
774.979119	25.200386
775.395780	25.173978
775.812411	25.172814
776.229014	25.193207
776.645589	25.228599
777.062134	25.284790
777.478651	25.356830
777.895138	25.451050
778.311597	25.551316
778.728027	25.671110
779.144428	25.789125
779.560800	25.913121
779.977143	26.040724
780.393458	26.164866
780.809743	26.289050
781.225999	26.404766
781.642226	26.503991
782.058425	26.589362
782.474594	26.665286
782.890734	26.722078
783.306845	26.770606
783.722926	26.801034
784.138979	26.808518
784.555003	26.804454
784.970997	26.785716
785.386962	26.753400
785.802898	26.709083
786.218805	26.643200
786.634682	26.567903
787.050531	26.485012
787.466349	26.387175
787.882139	26.285954
788.297899	26.184569
788.713630	26.076458
789.129332	25.960637
789.545004	25.856228
789.960647	25.751734
790.376260	25.648651
790.791844	25.542708
791.207399	25.447994
791.622924	25.359762
792.038419	25.290289
792.453885	25.227349
792.869321	25.177216
793.284728	25.130317
793.700106	25.097379
794.115453	25.094773
794.530771	25.108982
794.946060	25.145230
795.361319	25.189103
795.776548	25.247821
796.191747	25.314930
796.606917	25.394560
797.022057	25.481485
797.437167	25.566247
797.852248	25.659960
798.267298	25.751773
798.682319	25.846350
799.097310	25.938276
799.512271	26.022174
799.927203	26.099060
800.342104	26.171775
800.756976	26.234277
801.171818	26.282446
801.586629	26.323208
802.001411	26.344651
802.416163	26.355599
802.830885	26.355225
803.245577	26.342999
803.660238	26.338260
804.074870	26.309002
804.489472	26.269274
804.904043	26.215622
805.318585	26.150320
805.733096	26.074317
806.147577	25.991906
806.562028	25.902046
806.976449	25.794458
807.390840	25.679751
807.805200	25.548886
808.219530	25.410868
808.633830	25.264591
809.048100	25.112285
809.462339	24.951811
809.876548	24.795871
810.290727	24.642464
810.704875	24.483923
811.118993	24.321893
811.533080	24.161942
811.947137	24.000395
812.361164	23.848794
812.775160	23.693767
813.189126	23.538356
813.603061	23.393485
814.016966	23.271977
814.430840	23.148643
814.844684	23.043667
815.258497	22.942174
815.672280	22.847935
816.086032	22.770540
816.499753	22.697543
816.913444	22.641514
817.327104	22.603008
817.740733	22.583789
818.154331	22.575799
818.567899	22.584048
818.981436	22.618417
819.394943	22.661504
819.808418	22.717121
820.221863	22.793326
820.635277	22.889455
821.048660	23.008062
821.462013	23.140357
821.875334	23.289306
822.288625	23.448438
822.701884	23.622429
823.115113	23.797431
823.528311	23.983415
823.941478	24.180465
824.354614	24.381017
824.767718	24.582500
825.180792	24.787081
825.593835	24.979603
826.006847	25.166425
826.419827	25.344801
826.832777	25.491877
827.245695	25.624011
827.658582	25.737184
828.071438	25.825920
828.484263	25.884117
828.897057	25.908747
829.309819	25.908874
829.722551	25.875160
830.135251	25.806819
830.547919	25.708152
830.960557	25.587162
831.373163	25.435727
831.785738	25.252278
832.198281	25.047031
832.610793	24.833557
833.023274	24.597791
833.435723	24.351450
833.848141	24.092201
834.260528	23.829807
834.672883	23.558302
835.085206	23.284210
835.497498	23.014751
835.909758	22.759134
836.321987	22.510622
836.734185	22.258773
837.146350	22.028953
837.558485	21.818790
837.970587	21.617292
838.382658	21.451153
838.794697	21.303440
839.206705	21.175543
839.618681	21.061884
840.030625	20.984763
840.442538	20.918878
840.854418	20.877462
841.266267	20.868276
841.678084	20.879323
842.089870	20.907699
842.501623	20.957065
842.913345	21.019735
843.325035	21.093996
843.736693	21.184561
844.148319	21.283352
844.559913	21.387326
844.971475	21.509085
845.383005	21.620522
845.794504	21.741704
846.205970	21.855343
846.617404	21.961893
847.028806	22.063640
847.440176	22.165008
847.851514	22.256278
848.262820	22.332515
848.674094	22.405090
849.085336	22.459146
849.496546	22.510700
849.907723	22.531222
850.318868	22.541979
850.729981	22.545188
851.141062	22.514502
851.552110	22.483426
851.963127	22.424016
852.374111	22.360875
852.785062	22.284488
853.195982	22.195807
853.606869	22.096164
854.017723	21.982282
854.428546	21.865285
854.839336	21.727919
855.250093	21.589341
855.660818	21.437379
856.071511	21.296482
856.482171	21.141622
856.892799	20.998098
857.303394	20.844881
857.713956	20.692047
858.124486	20.554371
858.534984	20.407141
858.945449	20.275471
859.355881	20.144294
859.766280	20.009991
860.176647	19.889555
860.586982	19.780717
860.997283	19.676699
861.407552	19.580560
861.817789	19.498075
862.227992	19.421136
862.638163	19.366115
863.048301	19.308701
863.458406	19.250257
863.868478	19.213421
864.278518	19.188666
864.688524	19.176684
865.098498	19.176047
865.508439	19.178853
865.918347	19.193178
866.328222	19.221516
866.738064	19.256331
867.147873	19.289511
867.557649	19.339291
867.967392	19.404215
868.377102	19.483191
868.786779	19.559526
869.196423	19.660447
869.606034	19.761799
870.015612	19.890639
870.425156	20.025794
870.834668	20.162456
871.244146	20.319876
871.653591	20.476995
872.063003	20.645253
872.472382	20.835719
872.881728	21.020453
873.291040	21.211997
873.700319	21.396502
874.109564	21.587104
874.518777	21.746175
874.927956	21.942727
875.337102	22.120376
875.746214	22.303077
876.155293	22.484472
876.564338	22.647569
876.973350	22.809219
877.382329	22.962707
877.791274	23.087689
878.200186	23.212762
878.609064	23.344574
879.017909	23.456589
879.426720	23.542878
879.835497	23.621444
880.244241	23.696517
880.652952	23.757604
881.061629	23.813488
881.470272	23.842380
881.878881	23.862709
882.287457	23.868538
882.695999	23.846148
883.104507	23.804265
883.512982	23.751964
883.921423	23.687377
884.329830	23.613156
884.738203	23.523420
885.146543	23.418350
885.554849	23.307322
885.963120	23.184889
886.371358	23.063143
886.779563	22.924711
887.187733	22.813028
887.595869	22.669019
888.003971	22.525838
888.412040	22.374491
888.820074	22.227798
889.228074	22.103000
889.636041	21.947934
890.043973	21.801794
890.451871	21.681874
890.859736	21.551353
891.267566	21.405337
891.675362	21.269725
892.083124	21.147036
892.490851	21.026472
892.898545	20.907372
893.306204	20.789411
893.713829	20.679588
894.121420	20.578198
894.528977	20.469001
894.936499	20.372373
895.343987	20.284522
895.751441	20.194746
896.158860	20.125465
896.566246	20.031468
896.973596	19.950351
897.380913	19.879904
897.788195	19.799554
898.195442	19.715197
898.602655	19.633496
899.009834	19.562733
899.416978	19.500299
899.824088	19.428209
900.231163	19.349343
900.638204	19.277448
901.045210	19.211235
901.452181	19.138356
901.859118	19.050808
902.266021	18.972183
902.672888	18.894376
903.079721	18.811476
903.486520	18.711609
903.893283	18.626767
904.300012	18.525390
904.706707	18.441703
905.113366	18.360752
905.519991	18.266182
905.926581	18.176500
906.333136	18.075049
906.739656	17.979964
907.146142	17.891111
907.552592	17.789434
907.959008	17.688841
908.365389	17.594341
908.771735	17.473027
909.178046	17.389157
909.584322	17.299804
909.990563	17.207246
910.396769	17.115124
910.802940	17.025556
911.209076	16.959208
911.615177	16.882207
912.021243	16.795818
912.427274	16.719519
912.833270	16.655777
913.239231	16.582344
913.645156	16.523514
914.051046	16.462640
914.456902	16.406594
914.862721	16.355789
915.268506	16.309375
915.674256	16.257965
916.079970	16.217329
916.485649	16.195013
916.891292	16.175618
917.296901	16.150902
917.702474	16.128285
918.108011	16.117005
918.513514	16.105238
918.918980	16.102985
919.324412	16.094205
919.729808	16.090838
920.135169	16.100877
920.540494	16.128375
920.945783	16.153995
921.351037	16.188144
921.756256	16.219314
922.161439	16.256704
922.566586	16.282791
922.971698	16.338384
923.376775	16.403501
923.781815	16.462271
924.186820	16.520867
924.591790	16.591861
924.996723	16.671073
925.401621	16.747446
925.806484	16.818572
926.211310	16.868742
926.616101	16.946940
927.020856	17.024668
927.425575	17.102693
927.830259	17.172312
928.234906	17.259627
928.639518	17.337352
929.044094	17.401708
929.448634	17.488598
929.853138	17.557353
930.257606	17.639892
930.662038	17.694105
931.066434	17.770577
931.470795	17.832459
931.875119	17.901902
932.279407	17.960362
932.683659	18.001066
933.087875	18.042816
933.492055	18.093500
933.896199	18.122659
934.300307	18.137072
934.704379	18.155089
935.108414	18.193616
935.512414	18.207318
935.916377	18.218790
936.320304	18.201949
936.724195	18.206303
937.128049	18.186327
937.531867	18.157720
937.935649	18.133916
938.339395	18.120789
938.743104	18.113356
939.146777	18.079784
939.550414	18.055740
939.954014	18.029978
940.357578	18.001363
940.761105	17.949819
941.164596	17.924477
941.568050	17.882092
941.971468	17.829539
942.374850	17.809136
942.778195	17.750424
943.181503	17.717186
943.584775	17.650157
943.988010	17.598557
944.391209	17.540277
944.794371	17.490352
945.197496	17.424798
945.600585	17.354771
946.003637	17.285097
946.406653	17.237491
946.809632	17.208586
947.212574	17.136797
947.615479	17.077722
948.018347	17.004073
948.421179	16.911490
948.823974	16.848242
949.226732	16.748854
949.629453	16.686828
950.032138	16.608950
950.434785	16.522382
950.837396	16.430547
951.239969	16.343357
951.642506	16.250320
952.045006	16.139798
952.447469	16.025703
952.849895	15.926210
953.252283	15.827563
953.654635	15.709391
954.056950	15.586608
954.459227	15.472305
954.861468	15.349963
955.263671	15.232133
955.665838	15.119966
956.067967	15.028158
956.470059	14.886509
956.872114	14.789735
957.274131	14.681966
957.676112	14.581202
958.078055	14.485806
958.479961	14.385010
958.881829	14.274712
959.283661	14.154159
959.685455	14.066725
960.087211	13.967270
960.488931	13.869397
960.890613	13.799238
961.292257	13.723907
961.693864	13.674140
962.095434	13.590579
962.496966	13.527165
962.898461	13.473730
963.299918	13.442019
963.701338	13.388251
964.102720	13.349994
964.504065	13.316928
964.905372	13.309077
965.306641	13.290139
965.707873	13.253707
966.109068	13.246911
966.510224	13.231651
966.911343	13.211789
967.312425	13.208833
967.713468	13.196780
968.114474	13.213717
968.515442	13.219395
968.916373	13.246100
969.317265	13.237362
969.718120	13.229547
970.118937	13.260928
970.519716	13.258761
970.920458	13.273760
971.321161	13.308197
971.721827	13.345224
972.122454	13.381092
972.523044	13.387802
972.923596	13.432569
973.324110	13.481090
973.724585	13.480176
974.125023	13.500399
974.525423	13.548749
974.925785	13.581376
975.326108	13.625407
975.726394	13.602336
976.126642	13.654341
976.526851	13.674746
976.927022	13.705138
977.327155	13.727555
977.727250	13.719262
978.127307	13.778836
978.527325	13.828537
978.927306	13.866547
979.327248	13.940818
979.727151	13.980974
980.127017	14.038472
980.526844	14.051107
980.926633	14.032715
981.326383	14.039812
981.726095	14.091976
982.125769	14.130727
982.525404	14.184143
982.925001	14.265775
983.324560	14.277273
983.724079	14.309785
984.123561	14.355203
984.523004	14.411911
984.922408	14.469924
985.321774	14.520324
985.721102	14.556060
986.120390	14.616937
986.519641	14.695125
986.918852	14.732405
987.318025	14.784925
987.717159	14.805703
988.116255	14.896512
988.515312	14.873023
988.914330	14.914896
989.313310	14.964630
989.712250	15.047834
990.111152	15.121381
990.510015	15.181721
990.908840	15.200902
991.307625	15.265494
991.706372	15.305437
992.105080	15.261044
992.503749	15.297112
992.902379	15.345273
993.300970	15.478200
993.699522	15.585025
994.098035	15.612713
994.496510	15.671495
994.894945	15.690763
995.293341	15.640647
995.691698	15.761520
996.090016	15.811057
996.488296	15.789589
996.886535	15.821916
997.284736	15.890411
997.682898	15.871372
998.081021	15.855304
998.479104	15.832409
998.877148	15.858520
999.275153	15.892894
999.673119	15.889652
1000.071046	15.863541
1000.468933	15.876790
1000.866781	15.961566
1001.264590	16.093182
1001.662359	16.000829
1002.060089	15.997333
1002.457780	16.071705
1002.855431	16.130261
1003.253043	16.164268
1003.650615	16.161616
1004.048148	16.253490
1004.445642	16.467024
1004.843096	16.571123
1005.240511	16.597420
1005.637886	16.466104
1006.035221	16.666667
1006.432517	16.707327
1006.829774	16.811875
1007.226991	16.796261
1007.624168	16.980011
1008.021306	16.908569
1008.418404	16.889424
1008.815462	17.027015
1009.212481	16.977769
1009.609460	16.891242
1010.006399	17.138747
1010.403298	17.135433
1010.800158	17.512412
1011.196978	17.419320
1011.593758	17.607186
1011.990498	17.882260
1012.387199	18.115391
1012.783860	18.304455
1013.180480	18.496825
1013.577061	18.318911
1013.973602	18.933089
1014.370103	19.132964
1014.766564	19.228584
1015.162985	19.195093
1015.559366	19.274538
1015.955708	19.585735
1016.352009	19.456694
1016.748270	19.353633
1017.144491	19.356441
1017.540671	19.348376
1017.936812	19.625435
1018.332913	19.319534
1018.728973	19.296024
1019.124994	19.337390
1019.520974	19.558589
1019.916914	19.597127
1020.312814	19.928946
