Time1=100ms:Average1=5:Objective=10X:Aperture=1: (11/21/2018 10:33:54 AM)
11/21/2018 10:33:54 AM
Reflectance
10X
Ap#: 1
Avg1: 5.000000
Avg2: 0.000000
Int.Time1:100.000000

350.166136	114.298936
350.601937	115.194954
351.037728	115.894040
351.473509	116.607981
351.909281	116.862358
352.345042	116.965791
352.780794	116.516398
353.216536	117.309408
353.652267	117.138881
354.087989	117.235546
354.523701	116.845878
354.959403	116.830503
355.395095	117.412490
355.830777	116.937332
356.266449	117.438256
356.702110	117.574604
357.137762	117.425150
357.573404	116.986603
358.009035	116.192757
358.444656	116.574807
358.880268	116.298675
359.315869	115.778359
359.751459	115.455095
360.187040	115.721624
360.622610	115.907484
361.058170	116.471784
361.493720	115.877692
361.929260	115.941588
362.364789	116.700570
362.800308	116.066538
363.235816	115.771406
363.671314	116.173052
364.106802	115.938821
364.542279	116.420627
364.977746	115.970541
365.413203	115.947278
365.848649	116.233897
366.284084	116.066566
366.719509	115.327216
367.154924	116.176916
367.590328	116.158967
368.025721	116.309620
368.461104	116.289181
368.896477	116.164163
369.331838	116.621226
369.767189	116.582661
370.202530	116.319759
370.637859	116.643258
371.073178	116.327954
371.508486	116.683217
371.943784	116.036712
372.379071	116.661720
372.814347	116.818182
373.249612	116.856806
373.684866	116.083848
374.120110	116.673198
374.555343	116.403201
374.990565	117.038915
375.425776	117.432181
375.860976	116.961062
376.296165	116.966982
376.731343	116.715314
377.166511	116.333850
377.601667	116.585603
378.036812	116.175901
378.471946	116.276143
378.907070	115.804709
379.342182	115.374254
379.777283	115.375024
380.212373	115.681949
380.647452	114.817991
381.082520	114.586495
381.517576	114.937838
381.952622	115.146348
382.387656	114.881741
382.822679	115.326395
383.257691	114.822508
383.692692	115.010371
384.127681	114.409575
384.562659	114.718123
384.997626	114.554035
385.432581	115.060981
385.867525	114.662895
386.302458	114.975937
386.737379	114.599021
387.172289	115.127720
387.607188	114.540985
388.042075	114.396299
388.476951	114.266930
388.911815	113.982218
389.346668	113.641026
389.781509	113.649439
390.216338	113.767847
390.651157	113.640136
391.085963	113.633014
391.520758	113.594555
391.955541	112.761085
392.390313	113.096437
392.825073	113.064959
393.259821	113.721186
393.694558	113.465401
394.129283	113.252352
394.563996	113.815305
394.998698	113.471218
395.433388	113.406393
395.868066	113.709383
396.302732	113.170376
396.737386	113.515724
397.172029	113.637189
397.606659	113.499819
398.041278	113.445605
398.475885	113.132584
398.910480	112.127432
399.345063	110.715228
399.779634	109.837923
400.214194	108.892719
400.648741	107.490510
401.083276	105.689783
401.517799	103.420588
401.952310	100.436579
402.386809	97.816594
402.821296	94.714710
403.255771	91.266132
403.690234	87.515805
404.124684	83.421717
404.559123	79.246518
404.993549	74.895187
405.427963	71.121818
405.862365	66.875244
406.296754	63.169439
406.731131	59.344820
407.165496	55.870942
407.599849	52.880469
408.034190	49.998291
408.468518	47.325326
408.902833	44.663926
409.337137	42.094005
409.771428	39.901741
410.205706	37.658025
410.639973	35.696600
411.074226	34.015446
411.508467	32.425489
411.942696	31.068770
412.376912	29.872585
412.811116	28.820259
413.245307	27.768347
413.679486	26.773324
414.113652	25.883199
414.547805	25.026384
414.981946	24.279609
415.416074	23.581577
415.850190	22.906535
416.284293	22.280929
416.718383	21.808350
417.152460	21.251812
417.586525	20.829113
418.020577	20.389773
418.454616	20.048746
418.888643	19.714895
419.322656	19.432682
419.756657	19.143897
420.190645	18.897373
420.624620	18.637087
421.058582	18.372939
421.492531	18.116843
421.926468	17.866850
422.360391	17.671359
422.794301	17.468223
423.228199	17.322006
423.662083	17.190031
424.095955	17.090641
424.529813	16.955926
424.963658	16.791244
425.397491	16.689239
425.831310	16.568098
426.265116	16.429497
426.698909	16.316281
427.132689	16.219877
427.566455	16.083042
428.000209	16.006218
428.433949	15.920747
428.867676	15.828512
429.301389	15.761725
429.735090	15.680557
430.168777	15.587375
430.602451	15.528469
431.036111	15.424020
431.469759	15.353605
431.903392	15.270444
432.337013	15.187927
432.770620	15.090915
433.204213	14.998737
433.637794	14.919087
434.071360	14.837197
434.504914	14.770384
434.938453	14.705746
435.371979	14.640168
435.805492	14.561679
436.238991	14.474527
436.672477	14.392415
437.105949	14.326089
437.539407	14.235038
437.972852	14.158928
438.406283	14.085268
438.839700	13.988978
439.273104	13.910218
439.706494	13.831871
440.139871	13.768370
440.573233	13.697486
441.006582	13.638757
441.439917	13.560265
441.873238	13.460698
442.306546	13.398180
442.739839	13.301156
443.173119	13.224263
443.606385	13.140627
444.039636	13.063663
444.472874	12.995048
444.906099	12.930774
445.339309	12.869250
445.772505	12.809220
446.205687	12.749307
446.638855	12.674419
447.072009	12.606527
447.505149	12.538592
447.938275	12.471836
448.371387	12.418674
448.804485	12.370149
449.237569	12.319642
449.670638	12.295935
450.103694	12.251377
450.536735	12.185048
450.969762	12.136042
451.402774	12.089667
451.835773	12.062091
452.268757	12.034105
452.701727	12.003654
453.134683	11.978071
453.567624	11.932695
454.000551	11.903905
454.433464	11.870984
454.866362	11.839891
455.299246	11.818551
455.732116	11.776536
456.164971	11.730955
456.597811	11.691565
457.030638	11.662898
457.463449	11.615488
457.896246	11.571933
458.329029	11.517629
458.761797	11.459429
459.194551	11.398079
459.627290	11.343598
460.060014	11.292189
460.492724	11.238729
460.925419	11.182840
461.358099	11.135116
461.790765	11.070976
462.223416	11.003351
462.656052	10.937026
463.088674	10.862390
463.521281	10.797564
463.953873	10.742218
464.386450	10.676436
464.819012	10.612264
465.251560	10.548703
465.684093	10.471891
466.116611	10.394117
466.549114	10.332734
466.981602	10.266187
467.414075	10.188910
467.846533	10.119930
468.278977	10.055469
468.711405	9.983337
469.143818	9.912562
469.576216	9.855361
470.008600	9.792662
470.440968	9.729846
470.873321	9.667386
471.305659	9.611380
471.737982	9.561120
472.170289	9.518339
472.602582	9.479928
473.034859	9.441154
473.467122	9.422835
473.899369	9.395316
474.331600	9.393683
474.763817	9.376959
475.196018	9.383430
475.628204	9.385722
476.060375	9.399962
476.492530	9.430145
476.924670	9.453430
477.356795	9.490444
477.788904	9.532429
478.220998	9.577574
478.653076	9.630153
479.085139	9.693567
479.517186	9.776600
479.949219	9.846904
480.381235	9.920298
480.813236	9.998577
481.245221	10.092927
481.677191	10.193796
482.109146	10.297735
482.541084	10.422585
482.973008	10.557591
483.404915	10.703924
483.836807	10.856797
484.268683	11.045304
484.700544	11.227580
485.132388	11.413727
485.564217	11.605565
485.996031	11.809227
486.427828	12.029127
486.859610	12.236370
487.291376	12.452882
487.723126	12.668449
488.154860	12.900070
488.586579	13.122440
489.018281	13.353898
489.449968	13.587248
489.881639	13.807864
490.313293	14.036118
490.744932	14.254459
491.176555	14.475934
491.608162	14.694690
492.039753	14.910820
492.471328	15.119245
492.902886	15.323058
493.334429	15.525191
493.765956	15.726349
494.197466	15.933752
494.628960	16.113359
495.060439	16.285306
495.491901	16.450139
495.923347	16.589967
496.354776	16.719611
496.786190	16.847155
497.217587	16.962176
497.648968	17.047106
498.080332	17.132577
498.511681	17.215577
498.943013	17.283607
499.374328	17.329387
499.805628	17.355416
500.236911	17.383417
500.668177	17.389741
501.099427	17.376446
501.530661	17.347161
501.961878	17.298302
502.393079	17.246001
502.824264	17.168153
503.255431	17.084936
503.686583	16.985242
504.117717	16.886264
504.548835	16.777463
504.979937	16.678811
505.411022	16.570511
505.842090	16.463573
506.273142	16.348771
506.704177	16.239207
507.135195	16.130319
507.566197	16.014480
507.997182	15.909304
508.428150	15.813371
508.859102	15.736823
509.290036	15.676980
509.720954	15.633735
510.151855	15.615406
510.582739	15.626066
511.013607	15.669457
511.444457	15.732181
511.875291	15.830852
512.306107	15.967092
512.736907	16.137125
513.167690	16.350928
513.598456	16.604694
514.029205	16.900133
514.459936	17.255599
514.890651	17.664805
515.321349	18.133182
515.752030	18.658580
516.182693	19.255180
516.613340	19.913506
517.043969	20.635461
517.474582	21.424356
517.905177	22.265887
518.335755	23.157345
518.766315	24.114225
519.196859	25.126421
519.627385	26.180618
520.057894	27.271097
520.488386	28.388075
520.918860	29.555634
521.349318	30.778245
521.779757	32.055547
522.210180	33.366872
522.640585	34.709570
523.070973	36.082544
523.501343	37.480530
523.931696	38.908976
524.362031	40.373290
524.792349	41.861367
525.222650	43.373332
525.652933	44.883036
526.083198	46.412636
526.513446	47.943319
526.943677	49.453688
527.373890	50.969940
527.804085	52.477151
528.234262	53.979704
528.664422	55.451972
529.094565	56.912360
529.524689	58.336039
529.954796	59.761993
530.384885	61.148081
530.814957	62.513786
531.245011	63.850090
531.675047	65.141100
532.105065	66.414553
532.535065	67.652671
532.965048	68.862289
533.395013	70.042613
533.824959	71.208304
534.254888	72.318169
534.684799	73.417958
535.114693	74.471498
535.544568	75.492518
535.974425	76.489021
536.404264	77.447976
536.834086	78.359827
537.263889	79.246340
537.693674	80.077832
538.123441	80.873724
538.553190	81.639740
538.982921	82.364149
539.412634	83.077311
539.842329	83.762622
540.272006	84.424149
540.701664	85.049192
541.131304	85.637679
541.560926	86.205910
541.990530	86.739636
542.420116	87.258920
542.849683	87.776934
543.279232	88.250496
543.708763	88.690682
544.138275	89.112057
544.567769	89.531494
544.997245	89.944199
545.426702	90.322308
545.856141	90.701234
546.285562	91.070528
546.714964	91.411807
547.144347	91.702921
547.573713	92.026518
548.003059	92.315197
548.432387	92.611539
548.861697	92.893574
549.290988	93.163018
549.720260	93.418209
550.149514	93.689364
550.578750	93.929745
551.007966	94.166893
551.437164	94.411584
551.866344	94.623908
552.295504	94.853942
552.724646	95.068725
553.153769	95.277436
553.582874	95.493111
554.011960	95.706224
554.441027	95.918913
554.870075	96.113811
555.299104	96.322607
555.728115	96.503218
556.157106	96.677859
556.586079	96.830344
557.015033	97.018941
557.443968	97.194106
557.872884	97.351338
558.301781	97.516079
558.730659	97.672724
559.159518	97.811505
559.588358	97.959384
560.017180	98.112347
560.445982	98.276083
560.874765	98.425604
561.303528	98.587728
561.732273	98.731282
562.160999	98.873153
562.589705	99.025612
563.018393	99.172875
563.447061	99.319752
563.875710	99.462164
564.304340	99.613123
564.732950	99.731744
565.161542	99.861784
565.590114	99.984168
566.018666	100.085047
566.447200	100.190751
566.875714	100.282546
567.304208	100.373424
567.732684	100.456508
568.161140	100.536758
568.589576	100.608388
569.017993	100.680630
569.446391	100.740073
569.874769	100.793159
570.303128	100.837517
570.731467	100.864262
571.159787	100.885144
571.588087	100.892658
572.016368	100.903818
572.444629	100.915204
572.872870	100.924118
573.301092	100.915357
573.729294	100.916390
574.157476	100.900905
574.585639	100.893989
575.013782	100.870975
575.441906	100.852738
575.870009	100.826355
576.298093	100.811804
576.726157	100.773274
577.154202	100.759329
577.582226	100.740764
578.010231	100.763870
578.438216	100.769508
578.866181	100.783025
579.294126	100.794028
579.722051	100.813286
580.149957	100.837653
580.577842	100.861770
581.005707	100.891923
581.433553	100.912043
581.861378	100.975082
582.289184	101.020362
582.716969	101.064013
583.144734	101.130152
583.572479	101.190830
584.000205	101.253821
584.427910	101.318386
584.855594	101.370139
585.283259	101.431038
585.710904	101.510862
586.138528	101.540845
586.566132	101.592726
586.993716	101.646364
587.421280	101.686522
587.848823	101.703355
588.276346	101.739109
588.703849	101.750684
589.131332	101.763094
589.558794	101.755301
589.986236	101.745468
590.413657	101.720089
590.841058	101.702260
591.268438	101.646844
591.695799	101.593204
592.123138	101.526115
592.550458	101.458835
592.977756	101.380853
593.405034	101.282414
593.832292	101.175780
594.259529	101.057301
594.686746	100.943580
595.113942	100.795953
595.541117	100.653555
595.968272	100.496705
596.395406	100.338858
596.822519	100.165451
597.249612	100.000591
597.676684	99.838578
598.103735	99.680136
598.530766	99.509384
598.957775	99.299954
599.384764	99.125596
599.811733	98.924485
600.238680	98.730421
600.665606	98.532257
601.092512	98.329688
601.519397	98.113608
601.946261	97.915087
602.373104	97.693171
602.799926	97.475857
603.226727	97.232599
603.653507	96.981159
604.080266	96.709578
604.507004	96.423643
604.933721	96.136875
605.360417	95.850261
605.787092	95.553646
606.213746	95.238482
606.640379	94.925995
607.066991	94.610982
607.493581	94.276158
607.920150	93.942619
608.346699	93.576890
608.773226	93.210882
609.199731	92.842997
609.626216	92.442034
610.052679	92.030770
610.479121	91.584534
610.905542	91.115118
611.331941	90.618022
611.758319	90.083812
612.184676	89.525164
612.611011	88.935575
613.037325	88.336835
613.463617	87.668434
613.889888	86.974970
614.316138	86.235729
614.742366	85.442126
615.168573	84.596685
615.594758	83.707646
616.020921	82.768604
616.447063	81.794869
616.873184	80.768766
617.299283	79.681676
617.725360	78.574162
618.151416	77.415190
618.577450	76.206299
619.003462	74.951841
619.429453	73.660845
619.855422	72.337117
620.281369	70.968213
620.707295	69.591741
621.133199	68.169732
621.559081	66.735438
621.984941	65.276646
622.410779	63.813558
622.836596	62.341549
623.262391	60.860322
623.688163	59.391107
624.113914	57.921634
624.539644	56.463027
624.965351	55.018075
625.391036	53.599645
625.816699	52.211612
626.242340	50.833133
626.667960	49.497511
627.093557	48.195755
627.519132	46.946533
627.944685	45.746553
628.370216	44.603479
628.795725	43.527151
629.221212	42.519144
629.646677	41.590477
630.072119	40.728604
630.497540	39.967584
630.922938	39.284042
631.348314	38.703187
631.773668	38.212390
632.198999	37.814110
632.624308	37.513328
633.049595	37.305273
633.474860	37.194264
633.900102	37.155520
634.325322	37.208704
634.750520	37.337730
635.175695	37.538831
635.600848	37.800658
636.025978	38.130822
636.451086	38.522681
636.876171	38.966998
637.301234	39.464590
637.726275	40.003911
638.151293	40.609650
638.576288	41.249443
639.001261	41.933001
639.426211	42.663064
639.851139	43.432485
640.276044	44.245362
640.700927	45.092874
641.125787	45.974886
641.550624	46.889163
641.975438	47.830277
642.400230	48.781877
642.824999	49.757304
643.249745	50.755772
643.674469	51.752912
644.099169	52.749259
644.523847	53.740483
644.948502	54.734493
645.373135	55.724910
645.797744	56.702482
646.222330	57.677529
646.646894	58.635518
647.071435	59.580742
647.495953	60.503855
647.920447	61.414857
648.344919	62.297448
648.769368	63.163393
649.193794	64.000399
649.618197	64.822161
650.042576	65.603484
650.466933	66.366021
650.891267	67.100270
651.315577	67.810400
651.739864	68.506581
652.164129	69.169186
652.588370	69.780792
653.012587	70.377196
653.436782	70.942157
653.860953	71.468808
654.285102	71.961773
654.709226	72.424335
655.133328	72.852149
655.557406	73.253051
655.981461	73.619904
656.405493	73.966517
656.829501	74.262424
657.253486	74.546000
657.677448	74.784212
658.101386	74.995848
658.525301	75.165070
658.949192	75.313079
659.373060	75.415237
659.796904	75.497999
660.220725	75.550738
660.644522	75.584621
661.068296	75.585314
661.492046	75.572459
661.915772	75.517323
662.339475	75.455734
662.763154	75.349904
663.186810	75.223614
663.610442	75.079670
664.034050	74.914937
664.457635	74.716642
664.881196	74.494288
665.304733	74.248561
665.728247	74.003094
666.151736	73.722125
666.575202	73.434810
666.998644	73.123385
667.422062	72.803819
667.845457	72.462152
668.268827	72.105518
668.692174	71.741861
669.115496	71.362258
669.538795	70.956628
669.962070	70.557186
670.385321	70.138230
670.808547	69.723907
671.231750	69.300786
671.654929	68.891213
672.078084	68.474191
672.501214	68.065289
672.924321	67.651752
673.347404	67.237827
673.770462	66.815540
674.193496	66.395365
674.616506	65.977101
675.039492	65.570347
675.462454	65.153750
675.885391	64.769906
676.308305	64.392587
676.731194	64.023653
677.154058	63.669019
677.576899	63.322418
677.999715	63.001259
678.422507	62.686911
678.845274	62.393318
679.268017	62.127953
679.690736	61.856936
680.113430	61.626968
680.536100	61.401505
680.958746	61.213080
681.381367	61.032590
681.803963	60.870083
682.226535	60.722833
682.649083	60.596212
683.071605	60.490514
683.494104	60.389544
683.916578	60.298335
684.339027	60.222063
684.761451	60.156933
685.183851	60.100438
685.606227	60.051732
686.028577	60.001258
686.450903	59.972364
686.873204	59.960400
687.295481	59.969545
687.717733	59.993438
688.139959	60.046201
688.562162	60.116169
688.984339	60.202192
689.406492	60.327003
689.828619	60.466903
690.250722	60.644235
690.672800	60.848775
691.094853	61.077514
691.516881	61.343534
691.938884	61.632024
692.360863	61.934710
692.782816	62.287114
693.204744	62.642086
693.626647	63.031308
694.048526	63.420757
694.470379	63.837249
694.892207	64.275202
695.314010	64.731551
695.735788	65.199729
696.157540	65.682784
696.579268	66.187667
697.000970	66.717486
697.422648	67.256285
697.844300	67.808612
698.265926	68.381254
698.687528	68.976039
699.109104	69.585845
699.530655	70.198220
699.952181	70.825636
700.373681	71.463863
700.795156	72.115502
701.216606	72.767872
701.638030	73.433943
702.059429	74.097756
702.480803	74.764184
702.902151	75.433488
703.323473	76.099020
703.744770	76.752314
704.166042	77.400313
704.587288	78.022875
705.008509	78.634857
705.429704	79.243540
705.850873	79.821815
706.272017	80.378139
706.693135	80.911731
707.114228	81.440937
707.535295	81.952185
707.956336	82.440449
708.377352	82.906414
708.798342	83.359614
709.219306	83.784005
709.640245	84.191059
710.061157	84.572722
710.482044	84.938713
710.902905	85.292844
711.323741	85.619930
711.744550	85.919962
712.165334	86.218104
712.586092	86.501473
713.006823	86.760779
713.427529	87.001750
713.848209	87.232069
714.268863	87.441636
714.689492	87.641011
715.110094	87.844502
715.530670	88.016138
715.951220	88.172025
716.371744	88.305067
716.792242	88.430506
717.212714	88.537394
717.633159	88.645012
718.053579	88.727587
718.473973	88.787867
718.894340	88.834168
719.314681	88.882844
719.734996	88.926503
720.155285	88.958964
720.575547	88.980549
720.995784	88.992224
721.415994	89.002374
721.836177	89.003661
722.256335	88.997247
722.676466	88.980453
723.096570	88.951324
723.516649	88.911402
723.936701	88.881284
724.356726	88.837706
724.776725	88.785902
725.196698	88.716343
725.616644	88.639279
726.036564	88.567748
726.456457	88.489070
726.876324	88.400608
727.296164	88.314223
727.715977	88.232419
728.135764	88.123577
728.555525	88.027096
728.975258	87.949905
729.394966	87.879798
729.814646	87.813823
730.234300	87.743872
730.653927	87.665294
731.073527	87.613182
731.493101	87.562578
731.912648	87.514233
732.332168	87.470594
732.751661	87.430577
733.171128	87.394876
733.590568	87.361474
734.009980	87.340560
734.429366	87.318459
734.848726	87.296752
735.268058	87.291450
735.687363	87.290823
736.106641	87.293060
736.525893	87.304353
736.945117	87.289781
737.364314	87.295220
737.783485	87.301196
738.202628	87.317214
738.621744	87.341009
739.040834	87.363510
739.459896	87.391271
739.878931	87.418641
740.297939	87.457453
740.716919	87.487808
741.135873	87.543310
741.554799	87.602685
741.973698	87.650144
742.392570	87.699584
742.811415	87.761519
743.230232	87.817011
743.649022	87.900243
744.067785	87.967058
744.486521	88.062423
744.905229	88.146951
745.323909	88.239270
745.742563	88.318450
746.161189	88.396556
746.579787	88.482644
746.998358	88.558116
747.416902	88.632077
747.835418	88.703829
748.253907	88.760943
748.672368	88.810384
749.090802	88.871803
749.509208	88.927760
749.927586	88.987748
750.345937	89.038524
750.764261	89.086974
751.182556	89.143148
751.600824	89.203214
752.019065	89.258228
752.437277	89.330493
752.855462	89.395925
753.273620	89.456802
753.691749	89.528972
754.109851	89.602093
754.527925	89.696344
754.945971	89.791514
755.363989	89.893188
755.781980	89.989424
756.199943	90.108293
756.617877	90.225120
757.035784	90.355643
757.453663	90.480898
757.871514	90.622225
758.289337	90.776379
758.707132	90.948464
759.124899	91.131569
759.542639	91.311746
759.960350	91.518162
760.378033	91.729541
760.795688	91.959793
761.213314	92.188727
761.630913	92.451411
762.048484	92.699041
762.466026	92.978531
762.883541	93.268973
763.301027	93.566966
763.718485	93.890369
764.135914	94.215261
764.553316	94.543256
764.970689	94.886003
765.388034	95.219004
765.805351	95.569999
766.222639	95.928631
766.639899	96.275569
767.057131	96.628696
767.474334	96.967086
767.891509	97.313729
768.308655	97.655583
768.725773	98.007377
769.142863	98.342621
769.559924	98.665316
769.976957	98.990889
770.393961	99.307135
770.810936	99.630252
771.227883	99.927966
771.644802	100.228652
772.061692	100.529163
772.478553	100.824609
772.895386	101.093377
773.312190	101.376718
773.728965	101.644819
774.145712	101.924290
774.562430	102.164711
774.979119	102.426101
775.395780	102.641455
775.812411	102.847358
776.229014	103.058451
776.645589	103.244252
777.062134	103.414919
777.478651	103.576458
777.895138	103.724927
778.311597	103.851842
778.728027	103.956883
779.144428	104.053738
779.560800	104.148933
779.977143	104.207357
780.393458	104.249636
780.809743	104.270946
781.225999	104.285721
781.642226	104.282602
782.058425	104.277855
782.474594	104.238062
782.890734	104.178386
783.306845	104.093630
783.722926	103.991541
784.138979	103.878374
784.555003	103.746554
784.970997	103.572939
785.386962	103.414523
785.802898	103.227742
786.218805	103.007944
786.634682	102.788052
787.050531	102.551408
787.466349	102.293916
787.882139	102.031911
788.297899	101.765155
788.713630	101.501006
789.129332	101.204266
789.545004	100.912925
789.960647	100.606096
790.376260	100.318535
790.791844	100.017531
791.207399	99.705588
791.622924	99.400537
792.038419	99.104049
792.453885	98.792241
792.869321	98.504533
793.284728	98.231717
793.700106	97.968874
794.115453	97.694575
794.530771	97.404346
794.946060	97.131265
795.361319	96.879400
795.776548	96.627746
796.191747	96.406953
796.606917	96.197824
797.022057	96.007848
797.437167	95.813425
797.852248	95.657847
798.267298	95.477693
798.682319	95.338179
799.097310	95.215959
799.512271	95.092557
799.927203	94.980387
800.342104	94.932510
800.756976	94.865249
801.171818	94.812521
801.586629	94.786008
802.001411	94.756162
802.416163	94.733664
802.830885	94.729081
803.245577	94.707173
803.660238	94.688982
804.074870	94.669862
804.489472	94.660378
804.904043	94.648959
805.318585	94.671578
805.733096	94.670623
806.147577	94.651228
806.562028	94.632929
806.976449	94.628061
807.390840	94.621599
807.805200	94.581955
808.219530	94.545430
808.633830	94.511807
809.048100	94.472329
809.462339	94.401216
809.876548	94.315911
810.290727	94.226522
810.704875	94.101431
811.118993	93.993780
811.533080	93.846330
811.947137	93.691805
812.361164	93.523143
812.775160	93.347420
813.189126	93.126084
813.603061	92.881867
814.016966	92.659086
814.430840	92.378506
814.844684	92.100914
815.258497	91.811275
815.672280	91.501322
816.086032	91.178366
816.499753	90.851137
816.913444	90.515481
817.327104	90.160700
817.740733	89.771192
818.154331	89.361187
818.567899	88.945454
818.981436	88.515175
819.394943	88.070534
819.808418	87.591468
820.221863	87.112807
820.635277	86.627440
821.048660	86.141728
821.462013	85.635520
821.875334	85.102413
822.288625	84.586377
822.701884	84.059508
823.115113	83.528653
823.528311	83.000310
823.941478	82.444872
824.354614	81.928531
824.767718	81.382849
825.180792	80.826233
825.593835	80.258959
826.006847	79.722331
826.419827	79.222387
826.832777	78.693678
827.245695	78.206177
827.658582	77.750803
828.071438	77.295639
828.484263	76.859166
828.897057	76.455761
829.309819	76.086242
829.722551	75.758375
830.135251	75.449995
830.547919	75.180639
830.960557	74.922357
831.373163	74.706369
831.785738	74.548534
832.198281	74.382031
832.610793	74.278234
833.023274	74.169489
833.435723	74.094520
833.848141	74.034523
834.260528	73.987135
834.672883	73.962807
835.085206	73.943339
835.497498	73.934520
835.909758	73.940289
836.321987	73.961186
836.734185	73.987847
837.146350	73.992525
837.558485	74.026442
837.970587	74.055032
838.382658	74.098709
838.794697	74.120921
839.206705	74.132858
839.618681	74.150391
840.030625	74.161453
840.442538	74.158905
840.854418	74.164334
841.266267	74.172983
841.678084	74.169800
842.089870	74.145920
842.501623	74.129160
842.913345	74.089337
843.325035	74.053918
843.736693	74.006209
844.148319	73.962714
844.559913	73.887110
844.971475	73.819911
845.383005	73.716297
845.794504	73.618597
846.205970	73.522204
846.617404	73.408044
847.028806	73.267343
847.440176	73.126628
847.851514	72.959149
848.262820	72.802397
848.674094	72.616505
849.085336	72.414301
849.496546	72.213355
849.907723	71.999404
850.318868	71.748572
850.729981	71.495167
851.141062	71.236590
851.552110	70.963699
851.963127	70.685420
852.374111	70.391387
852.785062	70.090433
853.195982	69.768713
853.606869	69.437383
854.017723	69.099115
854.428546	68.723069
854.839336	68.338222
855.250093	67.913052
855.660818	67.501214
856.071511	67.067348
856.482171	66.632501
856.892799	66.162071
857.303394	65.702243
857.713956	65.227273
858.124486	64.759333
858.534984	64.266591
858.945449	63.768539
859.355881	63.255625
859.766280	62.800539
860.176647	62.310772
860.586982	61.836803
860.997283	61.365913
861.407552	60.916869
861.817789	60.493261
862.227992	60.078874
862.638163	59.678022
863.048301	59.304465
863.458406	58.980607
863.868478	58.660507
864.278518	58.358301
864.688524	58.094477
865.098498	57.840635
865.508439	57.626584
865.918347	57.434765
866.328222	57.269784
866.738064	57.121960
867.147873	57.022158
867.557649	56.941229
867.967392	56.890951
868.377102	56.860365
868.786779	56.828689
869.196423	56.830099
869.606034	56.851681
870.015612	56.839689
870.425156	56.881905
870.834668	56.899218
871.244146	56.986722
871.653591	57.056509
872.063003	57.120505
872.472382	57.162068
872.881728	57.205561
873.291040	57.260799
873.700319	57.302024
874.109564	57.360198
874.518777	57.381016
874.927956	57.401427
875.337102	57.418811
875.746214	57.437890
876.155293	57.425599
876.564338	57.394225
876.973350	57.384854
877.382329	57.342073
877.791274	57.316315
878.200186	57.265730
878.609064	57.201972
879.017909	57.133699
879.426720	57.088903
879.835497	57.011175
880.244241	56.924242
880.652952	56.855532
881.061629	56.790047
881.470272	56.727466
881.878881	56.656326
882.287457	56.590190
882.695999	56.550298
883.104507	56.487863
883.512982	56.450785
883.921423	56.383549
884.329830	56.321932
884.738203	56.274431
885.146543	56.236172
885.554849	56.196502
885.963120	56.161627
886.371358	56.121873
886.779563	56.062870
887.187733	56.008872
887.595869	55.933563
888.003971	55.876744
888.412040	55.787611
888.820074	55.705964
889.228074	55.613776
889.636041	55.517087
890.043973	55.395374
890.451871	55.261449
890.859736	55.112068
891.267566	54.978122
891.675362	54.831682
892.083124	54.633820
892.490851	54.455167
892.898545	54.248987
893.306204	54.014395
893.713829	53.759477
894.121420	53.483519
894.528977	53.221191
894.936499	52.929723
895.343987	52.639985
895.751441	52.329969
896.158860	51.991482
896.566246	51.651436
896.973596	51.311083
897.380913	50.990250
897.788195	50.626239
898.195442	50.276247
898.602655	49.919818
899.009834	49.568905
899.416978	49.222724
899.824088	48.891431
900.231163	48.576237
900.638204	48.263018
901.045210	47.969528
901.452181	47.679716
901.859118	47.397575
902.266021	47.125900
902.672888	46.869065
903.079721	46.645068
903.486520	46.404136
903.893283	46.159326
904.300012	45.930154
904.706707	45.705836
905.113366	45.492982
905.519991	45.311674
905.926581	45.134561
906.333136	44.969530
906.739656	44.816070
907.146142	44.656956
907.552592	44.525402
907.959008	44.336008
908.365389	44.177723
908.771735	44.044024
909.178046	43.909073
909.584322	43.758556
909.990563	43.555963
910.396769	43.391442
910.802940	43.247410
911.209076	43.085553
911.615177	42.939695
912.021243	42.789502
912.427274	42.633694
912.833270	42.469417
913.239231	42.284845
913.645156	42.105035
914.051046	41.931993
914.456902	41.763053
914.862721	41.578814
915.268506	41.413252
915.674256	41.230957
916.079970	41.089057
916.485649	40.926592
916.891292	40.747405
917.296901	40.593314
917.702474	40.458963
918.108011	40.322890
918.513514	40.187042
918.918980	40.030498
919.324412	39.888053
919.729808	39.740600
920.135169	39.581096
920.540494	39.485697
920.945783	39.378870
921.351037	39.265688
921.756256	39.155993
922.161439	39.067270
922.566586	38.996725
922.971698	38.926255
923.376775	38.831064
923.781815	38.747796
924.186820	38.663550
924.591790	38.567753
924.996723	38.464899
925.401621	38.373694
925.806484	38.302231
926.211310	38.212827
926.616101	38.116350
927.020856	38.016991
927.425575	37.914176
927.830259	37.803795
928.234906	37.687475
928.639518	37.544685
929.044094	37.393961
929.448634	37.261249
929.853138	37.130492
930.257606	36.968958
930.662038	36.802659
931.066434	36.629155
931.470795	36.458516
931.875119	36.293042
932.279407	36.109951
932.683659	35.930279
933.087875	35.737642
933.492055	35.518939
933.896199	35.329060
934.300307	35.136472
934.704379	34.925352
935.108414	34.715526
935.512414	34.509451
935.916377	34.308204
936.320304	34.094572
936.724195	33.889618
937.128049	33.679195
937.531867	33.513545
937.935649	33.334741
938.339395	33.125457
938.743104	32.954621
939.146777	32.788149
939.550414	32.607162
939.954014	32.423808
940.357578	32.229634
940.761105	32.055184
941.164596	31.878778
941.568050	31.747768
941.971468	31.595278
942.374850	31.444589
942.778195	31.292234
943.181503	31.155841
943.584775	31.014302
943.988010	30.882784
944.391209	30.760074
944.794371	30.614679
945.197496	30.478176
945.600585	30.333776
946.003637	30.219674
946.406653	30.079671
946.809632	29.936517
947.212574	29.776749
947.615479	29.647543
948.018347	29.515090
948.421179	29.363269
948.823974	29.242164
949.226732	29.084113
949.629453	28.955748
950.032138	28.788615
950.434785	28.627856
950.837396	28.462444
951.239969	28.279955
951.642506	28.102365
952.045006	27.958474
952.447469	27.802491
952.849895	27.651296
953.252283	27.513532
953.654635	27.369309
954.056950	27.195861
954.459227	27.043798
954.861468	26.843685
955.263671	26.668958
955.665838	26.474846
956.067967	26.324015
956.470059	26.146772
956.872114	26.013257
957.274131	25.863891
957.676112	25.729844
958.078055	25.626133
958.479961	25.504564
958.881829	25.379363
959.283661	25.239447
959.685455	25.132810
960.087211	25.004789
960.488931	24.891208
960.890613	24.798301
961.292257	24.676943
961.693864	24.596736
962.095434	24.509296
962.496966	24.430324
962.898461	24.354524
963.299918	24.331142
963.701338	24.301977
964.102720	24.288675
964.504065	24.300799
964.905372	24.284774
965.306641	24.267269
965.707873	24.195254
966.109068	24.191169
966.510224	24.208198
966.911343	24.177471
967.312425	24.222391
967.713468	24.226940
968.114474	24.226791
968.515442	24.213177
968.916373	24.220641
969.317265	24.201548
969.718120	24.216080
970.118937	24.217575
970.519716	24.195314
970.920458	24.160359
971.321161	24.144434
971.721827	24.148886
972.122454	24.148121
972.523044	24.178541
972.923596	24.184894
973.324110	24.175938
973.724585	24.216685
974.125023	24.205144
974.525423	24.173640
974.925785	24.201314
975.326108	24.215011
975.726394	24.176657
976.126642	24.227576
976.526851	24.230303
976.927022	24.171502
977.327155	24.210895
977.727250	24.254221
978.127307	24.309714
978.527325	24.350335
978.927306	24.380320
979.327248	24.424474
979.727151	24.450630
980.127017	24.524062
980.526844	24.568840
980.926633	24.656069
981.326383	24.671401
981.726095	24.719792
982.125769	24.768258
982.525404	24.845856
982.925001	24.892523
983.324560	25.011030
983.724079	25.054212
984.123561	25.164705
984.523004	25.275803
984.922408	25.308201
985.321774	25.348166
985.721102	25.455197
986.120390	25.529556
986.519641	25.762250
986.918852	25.907082
987.318025	26.110331
987.717159	26.231567
988.116255	26.420300
988.515312	26.545273
988.914330	26.688266
989.313310	26.775640
989.712250	26.896719
990.111152	26.982997
990.510015	27.122772
990.908840	27.200336
991.307625	27.345464
991.706372	27.578702
992.105080	27.733048
992.503749	27.863537
992.902379	28.045683
993.300970	28.249678
993.699522	28.602033
994.098035	28.853466
994.496510	29.045195
994.894945	29.242211
995.293341	29.453013
995.691698	29.633915
996.090016	30.030379
996.488296	30.284884
996.886535	30.680819
997.284736	31.072170
997.682898	31.468004
998.081021	31.848993
998.479104	32.174257
998.877148	32.419167
999.275153	33.006587
999.673119	33.290816
1000.071046	33.697840
1000.468933	34.094771
1000.866781	34.493770
1001.264590	34.825056
1001.662359	35.510241
1002.060089	36.036312
1002.457780	36.605375
1002.855431	37.155270
1003.253043	37.719472
1003.650615	38.226538
1004.048148	38.842660
1004.445642	39.422667
1004.843096	39.920646
1005.240511	40.670820
1005.637886	41.333947
1006.035221	41.901006
1006.432517	42.619231
1006.829774	43.453100
1007.226991	44.250171
1007.624168	45.121417
1008.021306	45.977374
1008.418404	46.632507
1008.815462	47.590562
1009.212481	48.194884
1009.609460	49.143544
1010.006399	50.199306
1010.403298	51.230055
1010.800158	52.226009
1011.196978	53.144051
1011.593758	54.052326
1011.990498	54.967285
1012.387199	56.201813
1012.783860	57.483384
1013.180480	58.706007
1013.577061	60.145717
1013.973602	61.594507
1014.370103	62.895535
1014.766564	63.671578
1015.162985	64.590690
1015.559366	65.719617
1015.955708	66.699534
1016.352009	67.370914
1016.748270	68.430565
1017.144491	69.802667
1017.540671	70.845183
1017.936812	71.980090
1018.332913	73.214516
1018.728973	73.840011
1019.124994	74.988972
1019.520974	76.047431
1019.916914	77.288251
1020.312814	78.469784
