Time1=100ms:Average1=5:Objective=10X:Aperture=1: (11/21/2018 10:34:11 AM)
11/21/2018 10:34:11 AM
Reflectance
10X
Ap#: 1
Avg1: 5.000000
Avg2: 0.000000
Int.Time1:100.000000

350.166136	97.686256
350.601937	98.872324
351.037728	99.746786
351.473509	100.596635
351.909281	101.075481
352.345042	101.051066
352.780794	100.941246
353.216536	100.971548
353.652267	101.610498
354.087989	101.432978
354.523701	101.523297
354.959403	101.280906
355.395095	101.153540
355.830777	100.836903
356.266449	101.269873
356.702110	101.442019
357.137762	100.918164
357.573404	101.109778
358.009035	100.648508
358.444656	101.402946
358.880268	101.605781
359.315869	101.387772
359.751459	101.369311
360.187040	101.692013
360.622610	101.939198
361.058170	102.379258
361.493720	102.112962
361.929260	101.713822
362.364789	102.125712
362.800308	101.399736
363.235816	101.039984
363.671314	101.667846
364.106802	101.187362
364.542279	101.486350
364.977746	100.837369
365.413203	100.493007
365.848649	100.452899
366.284084	100.252143
366.719509	99.838661
367.154924	99.828335
367.590328	100.040347
368.025721	100.464834
368.461104	100.434783
368.896477	100.514268
369.331838	100.888620
369.767189	100.856855
370.202530	100.975364
370.637859	101.364366
371.073178	101.006177
371.508486	101.062562
371.943784	100.838843
372.379071	100.930048
372.814347	100.839921
373.249612	100.570417
373.684866	99.941228
374.120110	99.931426
374.555343	99.804840
374.990565	99.814688
375.425776	100.146900
375.860976	99.970723
376.296165	100.077920
376.731343	100.262697
377.166511	99.534703
377.601667	99.902724
378.036812	99.806277
378.471946	99.951588
378.907070	99.729834
379.342182	99.288051
379.777283	99.366967
380.212373	99.568387
380.647452	99.275777
381.082520	98.985205
381.517576	99.079434
381.952622	99.327460
382.387656	99.252602
382.822679	99.347209
383.257691	98.763218
383.692692	98.170847
384.127681	97.728772
384.562659	97.701476
384.997626	97.168476
385.432581	97.381110
385.867525	97.293729
386.302458	97.319996
386.737379	97.524473
387.172289	98.051088
387.607188	97.920015
388.042075	97.592750
388.476951	97.642528
388.911815	97.510529
389.346668	97.016317
389.781509	96.715227
390.216338	96.523271
390.651157	96.689108
391.085963	96.702284
391.520758	96.615158
391.955541	96.463906
392.390313	96.702995
392.825073	96.788655
393.259821	96.999634
393.694558	96.795691
394.129283	96.374098
394.563996	96.587564
394.998698	96.046490
395.433388	95.493151
395.868066	95.294816
396.302732	95.371215
396.737386	95.914379
397.172029	96.245687
397.606659	95.788093
398.041278	95.294488
398.475885	95.806742
398.910480	95.109763
399.345063	93.806633
399.779634	92.819798
400.214194	91.641534
400.648741	90.493463
401.083276	88.975014
401.517799	87.417697
401.952310	84.750916
402.386809	82.698389
402.821296	80.439353
403.255771	78.081618
403.690234	75.191322
404.124684	72.095960
404.559123	68.860850
404.993549	65.649282
405.427963	62.501309
405.862365	59.454439
406.296754	56.968562
406.731131	54.209743
407.165496	51.551861
407.599849	49.386311
408.034190	47.260297
408.468518	45.372288
408.902833	43.488482
409.337137	41.659354
409.771428	39.956471
410.205706	38.268779
410.639973	36.860547
411.074226	35.689064
411.508467	34.711518
411.942696	33.753826
412.376912	33.023882
412.811116	32.459749
413.245307	32.028858
413.679486	31.600149
414.113652	31.191216
414.547805	30.805169
414.981946	30.400488
415.416074	30.189665
415.850190	29.926386
416.284293	29.650605
416.718383	29.557699
417.152460	29.438376
417.586525	29.435270
418.020577	29.421598
418.454616	29.444846
418.888643	29.417088
419.322656	29.415680
419.756657	29.342828
420.190645	29.333782
420.624620	29.365953
421.058582	29.328166
421.492531	29.347981
421.926468	29.401404
422.360391	29.518223
422.794301	29.661022
423.228199	29.864284
423.662083	30.142334
424.095955	30.414377
424.529813	30.712512
424.963658	30.926776
425.397491	31.180700
425.831310	31.335528
426.265116	31.488327
426.698909	31.626544
427.132689	31.794524
427.566455	31.938969
428.000209	32.171317
428.433949	32.439619
428.867676	32.697821
429.301389	32.942536
429.735090	33.210677
430.168777	33.401387
430.602451	33.573733
431.036111	33.628221
431.469759	33.724901
431.903392	33.774006
432.337013	33.846180
432.770620	33.930890
433.204213	34.077261
433.637794	34.276208
434.071360	34.513257
434.504914	34.798767
434.938453	35.099248
435.371979	35.399319
435.805492	35.687463
436.238991	35.950610
436.672477	36.197879
437.105949	36.376799
437.539407	36.548531
437.972852	36.636785
438.406283	36.774412
438.839700	36.877812
439.273104	37.097819
439.706494	37.310621
440.139871	37.541925
440.573233	37.766358
441.006582	38.022194
441.439917	38.238835
441.873238	38.391606
442.306546	38.495972
442.739839	38.575042
443.173119	38.611428
443.606385	38.618585
444.039636	38.649523
444.472874	38.718388
444.906099	38.807860
445.339309	38.908801
445.772505	39.060355
446.205687	39.245714
446.638855	39.431807
447.072009	39.627103
447.505149	39.802814
447.938275	39.983000
448.371387	40.143824
448.804485	40.255152
449.237569	40.349623
449.670638	40.449576
450.103694	40.451197
450.536735	40.448564
450.969762	40.471960
451.402774	40.529947
451.835773	40.584295
452.268757	40.653986
452.701727	40.717966
453.134683	40.806774
453.567624	40.887227
454.000551	40.935924
454.433464	40.950257
454.866362	40.901814
455.299246	40.851114
455.732116	40.772139
456.164971	40.664777
456.597811	40.584665
457.030638	40.513293
457.463449	40.420547
457.896246	40.342888
458.329029	40.260240
458.761797	40.202338
459.194551	40.126885
459.627290	40.058579
460.060014	39.993377
460.492724	39.908447
460.925419	39.830353
461.358099	39.744232
461.790765	39.641886
462.223416	39.540988
462.656052	39.420877
463.088674	39.277642
463.521281	39.186690
463.953873	39.076113
464.386450	38.913138
464.819012	38.791168
465.251560	38.687286
465.684093	38.610804
466.116611	38.544308
466.549114	38.486683
466.981602	38.454121
467.414075	38.428540
467.846533	38.426851
468.278977	38.452397
468.711405	38.467810
469.143818	38.504200
469.576216	38.548511
470.008600	38.580282
470.440968	38.618429
470.873321	38.659165
471.305659	38.713575
471.737982	38.760604
472.170289	38.832174
472.602582	38.920994
473.034859	39.014890
473.467122	39.169676
473.899369	39.363710
474.331600	39.598069
474.763817	39.842722
475.196018	40.165914
475.628204	40.520084
476.060375	40.900462
476.492530	41.297458
476.924670	41.694382
477.356795	42.082183
477.788904	42.500960
478.220998	42.887369
478.653076	43.251804
479.085139	43.593104
479.517186	43.935536
479.949219	44.298997
480.381235	44.683262
480.813236	45.108511
481.245221	45.578292
481.677191	46.051122
482.109146	46.553321
482.541084	47.053593
482.973008	47.550522
483.404915	48.008355
483.836807	48.428855
484.268683	48.826188
484.700544	49.170472
485.132388	49.474988
485.564217	49.722640
485.996031	49.973788
486.427828	50.165988
486.859610	50.320864
487.291376	50.430336
487.723126	50.554269
488.154860	50.690350
488.586579	50.804003
489.018281	50.955546
489.449968	51.159389
489.881639	51.406288
490.313293	51.675099
490.744932	51.996096
491.176555	52.295497
491.608162	52.568577
492.039753	52.830804
492.471328	53.046776
492.902886	53.177231
493.334429	53.228848
493.765956	53.202307
494.197466	53.149853
494.628960	53.062925
495.060439	53.015217
495.491901	52.975021
495.923347	52.982691
496.354776	53.046461
496.786190	53.190869
497.217587	53.388733
497.648968	53.599111
498.080332	53.841333
498.511681	54.081648
498.943013	54.310367
499.374328	54.485574
499.805628	54.626022
500.236911	54.711580
500.668177	54.776753
501.099427	54.770721
501.530661	54.740481
501.961878	54.677318
502.393079	54.560573
502.824264	54.430297
503.255431	54.291632
503.686583	54.164791
504.117717	54.076045
504.548835	54.030867
504.979937	54.099373
505.411022	54.206742
505.842090	54.407172
506.273142	54.690600
506.704177	55.050331
507.135195	55.446133
507.566197	55.847827
507.997182	56.209955
508.428150	56.562702
508.859102	56.858343
509.290036	57.104734
509.720954	57.292413
510.151855	57.455187
510.582739	57.578186
511.013607	57.728692
511.444457	57.913547
511.875291	58.151629
512.306107	58.483145
512.736907	58.894882
513.167690	59.408012
513.598456	60.002644
514.029205	60.661101
514.459936	61.355288
514.890651	62.035403
515.321349	62.726590
515.752030	63.403181
516.182693	63.996322
516.613340	64.531221
517.043969	65.005783
517.474582	65.385626
517.905177	65.702532
518.335755	65.917217
518.766315	66.095920
519.196859	66.201913
519.627385	66.263322
520.057894	66.316161
520.488386	66.381286
520.918860	66.467092
521.349318	66.618159
521.779757	66.817262
522.210180	67.119779
522.640585	67.470943
523.070973	67.921983
523.501343	68.409724
523.931696	68.957873
524.362031	69.537781
524.792349	70.099664
525.222650	70.636806
525.652933	71.105438
526.083198	71.514639
526.513446	71.827680
526.943677	72.033889
527.373890	72.173481
527.804085	72.264432
528.234262	72.373134
528.664422	72.451634
529.094565	72.571372
529.524689	72.772635
529.954796	73.048742
530.384885	73.400483
530.814957	73.840866
531.245011	74.371415
531.675047	74.970527
532.105065	75.619436
532.535065	76.295856
532.965048	76.959803
533.395013	77.587171
533.824959	78.160450
534.254888	78.682336
534.684799	79.100515
535.114693	79.426635
535.544568	79.660317
535.974425	79.807366
536.404264	79.854028
536.834086	79.805690
537.263889	79.723933
537.693674	79.581186
538.123441	79.423372
538.553190	79.260626
538.982921	79.132487
539.412634	79.048048
539.842329	79.026551
540.272006	79.082457
540.701664	79.198702
541.131304	79.406083
541.560926	79.654594
541.990530	79.976626
542.420116	80.339666
542.849683	80.725073
543.279232	81.086344
543.708763	81.407593
544.138275	81.687247
544.567769	81.920257
544.997245	82.086212
545.426702	82.172618
545.856141	82.200820
546.285562	82.189035
546.714964	82.142383
547.144347	82.084665
547.573713	82.024773
548.003059	82.015410
548.432387	82.036256
548.861697	82.108183
549.290988	82.264232
549.720260	82.477731
550.149514	82.806043
550.578750	83.171894
551.007966	83.607360
551.437164	84.079532
551.866344	84.581960
552.295504	85.080064
552.724646	85.541828
553.153769	85.956959
553.582874	86.313026
554.011960	86.588761
554.441027	86.747690
554.870075	86.793828
555.299104	86.722854
555.728115	86.544384
556.157106	86.255900
556.586079	85.907884
557.015033	85.530061
557.443968	85.113468
557.872884	84.660985
558.301781	84.228672
558.730659	83.842372
559.159518	83.493022
559.588358	83.215964
560.017180	83.008006
560.445982	82.853666
560.874765	82.758437
561.303528	82.734516
561.732273	82.739906
562.160999	82.782489
562.589705	82.851401
563.018393	82.920287
563.447061	82.987263
563.875710	83.050321
564.304340	83.081905
564.732950	83.086431
565.161542	83.058390
565.590114	82.990051
566.018666	82.904819
566.447200	82.813035
566.875714	82.693036
567.304208	82.568419
567.732684	82.454387
568.161140	82.354218
568.589576	82.285931
569.017993	82.246513
569.446391	82.255743
569.874769	82.309944
570.303128	82.420640
570.731467	82.588272
571.159787	82.830947
571.588087	83.122994
572.016368	83.446038
572.444629	83.829992
572.872870	84.228562
573.301092	84.627431
573.729294	85.008911
574.157476	85.366983
574.585639	85.624773
575.013782	85.828454
575.441906	85.932960
575.870009	85.951446
576.298093	85.869524
576.726157	85.692792
577.154202	85.435061
577.582226	85.122152
578.010231	84.775033
578.438216	84.373474
578.866181	83.975388
579.294126	83.569837
579.722051	83.174477
580.149957	82.825193
580.577842	82.494519
581.005707	82.209612
581.433553	81.951204
581.861378	81.738756
582.289184	81.535026
582.716969	81.357714
583.144734	81.203065
583.572479	81.049521
584.000205	80.897120
584.427910	80.728390
584.855594	80.563824
585.283259	80.403136
585.710904	80.222734
586.138528	80.048709
586.566132	79.865120
586.993716	79.690150
587.421280	79.509989
587.848823	79.352078
588.276346	79.199021
588.703849	79.046963
589.131332	78.895769
589.558794	78.774677
589.986236	78.644646
590.413657	78.517886
590.841058	78.403911
591.268438	78.297202
591.695799	78.227695
592.123138	78.178221
592.550458	78.171106
592.977756	78.207518
593.405034	78.272440
593.832292	78.395373
594.259529	78.551905
594.686746	78.774213
595.113942	79.016827
595.541117	79.297286
595.968272	79.595085
596.395406	79.881836
596.822519	80.157630
597.249612	80.410067
597.676684	80.635538
598.103735	80.792659
598.530766	80.886356
598.957775	80.900311
599.384764	80.836463
599.811733	80.704415
600.238680	80.515936
600.665606	80.272510
601.092512	79.990496
601.519397	79.678204
601.946261	79.369302
602.373104	79.041978
602.799926	78.730184
603.226727	78.416733
603.653507	78.117626
604.080266	77.818481
604.507004	77.520690
604.933721	77.240506
605.360417	76.943191
605.787092	76.626897
606.213746	76.294521
606.640379	75.922867
607.066991	75.534166
607.493581	75.111563
607.920150	74.664450
608.346699	74.212896
608.773226	73.749514
609.199731	73.276524
609.626216	72.808949
610.052679	72.352035
610.479121	71.930672
610.905542	71.513623
611.331941	71.128486
611.758319	70.773706
612.184676	70.459288
612.611011	70.166320
613.037325	69.911340
613.463617	69.671290
613.889888	69.446054
614.316138	69.238911
614.742366	69.023767
615.168573	68.824257
615.594758	68.633067
616.020921	68.437768
616.447063	68.262938
616.873184	68.102713
617.299283	67.956130
617.725360	67.842881
618.151416	67.751133
618.577450	67.692247
619.003462	67.661410
619.429453	67.664599
619.855422	67.728281
620.281369	67.798560
620.707295	67.909959
621.133199	68.023599
621.559081	68.140652
621.984941	68.252480
622.410779	68.350456
622.836596	68.427981
623.262391	68.473706
623.688163	68.468341
624.113914	68.442002
624.539644	68.375600
624.965351	68.282852
625.391036	68.150369
625.816699	68.016902
626.242340	67.849117
626.667960	67.680899
627.093557	67.521253
627.519132	67.363033
627.944685	67.231373
628.370216	67.098914
628.795725	66.984061
629.221212	66.867895
629.646677	66.765503
630.072119	66.662614
630.497540	66.573607
630.922938	66.462930
631.348314	66.354407
631.773668	66.232932
632.198999	66.088580
632.624308	65.919459
633.049595	65.724695
633.474860	65.534300
633.900102	65.324503
634.325322	65.120447
634.750520	64.913708
635.175695	64.733965
635.600848	64.568457
636.025978	64.444271
636.451086	64.355941
636.876171	64.319701
637.301234	64.311734
637.726275	64.355435
638.151293	64.425007
638.576288	64.540474
639.001261	64.671938
639.426211	64.836700
639.851139	65.009432
640.276044	65.179477
640.700927	65.360705
641.125787	65.532262
641.550624	65.680170
641.975438	65.801427
642.400230	65.910104
642.824999	65.984321
643.249745	66.035173
643.674469	66.066272
644.099169	66.085308
644.523847	66.076471
644.948502	66.052731
645.373135	66.033169
645.797744	66.009426
646.222330	65.987503
646.646894	65.953375
647.071435	65.924068
647.495953	65.887939
647.920447	65.845059
648.344919	65.784915
648.769368	65.722900
649.193794	65.627557
649.618197	65.514876
650.042576	65.346733
650.466933	65.169475
650.891267	64.936440
651.315577	64.685684
651.739864	64.401117
652.164129	64.099845
652.588370	63.760654
653.012587	63.413281
653.436782	63.051108
653.860953	62.670379
654.285102	62.292180
654.709226	61.919850
655.133328	61.566334
655.557406	61.213692
655.981461	60.886820
656.405493	60.575095
656.829501	60.267208
657.253486	59.970192
657.677448	59.674557
658.101386	59.398852
658.525301	59.115273
658.949192	58.829541
659.373060	58.546223
659.796904	58.267103
660.220725	57.975546
660.644522	57.688489
661.068296	57.399003
661.492046	57.124316
661.915772	56.841730
662.339475	56.590925
662.763154	56.361721
663.186810	56.176630
663.610442	56.017921
664.034050	55.925352
664.457635	55.879901
664.881196	55.894858
665.304733	55.953296
665.728247	56.085343
666.151736	56.265459
666.575202	56.506153
666.998644	56.790450
667.422062	57.113041
667.845457	57.463293
668.268827	57.839366
668.692174	58.236158
669.115496	58.636386
669.538795	59.036091
669.962070	59.419206
670.385321	59.777983
670.808547	60.109828
671.231750	60.391172
671.654929	60.648351
672.078084	60.871250
672.501214	61.041015
672.924321	61.162894
673.347404	61.251735
673.770462	61.289712
674.193496	61.300151
674.616506	61.286361
675.039492	61.256460
675.462454	61.202137
675.885391	61.133543
676.308305	61.051585
676.731194	60.963627
677.154058	60.855851
677.576899	60.740817
677.999715	60.621311
678.422507	60.498478
678.845274	60.356518
679.268017	60.226636
679.690736	60.074730
680.113430	59.935657
680.536100	59.781033
680.958746	59.637726
681.381367	59.490413
681.803963	59.339558
682.226535	59.186667
682.649083	59.044276
683.071605	58.902921
683.494104	58.773642
683.916578	58.659403
684.339027	58.562439
684.761451	58.468482
685.183851	58.377732
685.606227	58.293975
686.028577	58.210642
686.450903	58.125183
686.873204	58.048920
687.295481	57.968425
687.717733	57.865339
688.139959	57.752744
688.562162	57.610314
688.984339	57.435846
689.406492	57.240303
689.828619	57.000637
690.250722	56.732047
690.672800	56.427714
691.094853	56.089367
691.516881	55.723932
691.938884	55.338766
692.360863	54.911371
692.782816	54.490037
693.204744	54.046389
693.626647	53.618064
694.048526	53.182131
694.470379	52.758425
694.892207	52.359566
695.314010	51.986409
695.735788	51.630948
696.157540	51.319968
696.579268	51.048481
697.000970	50.804816
697.422648	50.596691
697.844300	50.415676
698.265926	50.279170
698.687528	50.178943
699.109104	50.109517
699.530655	50.061201
699.952181	50.036904
700.373681	50.022363
700.795156	50.018186
701.216606	50.017087
701.638030	50.016683
702.059429	50.016843
702.480803	50.008728
702.902151	49.999304
703.323473	49.979458
703.744770	49.935944
704.166042	49.879340
704.587288	49.802294
705.008509	49.709821
705.429704	49.616326
705.850873	49.496403
706.272017	49.365746
706.693135	49.212769
707.114228	49.058137
707.535295	48.892868
707.956336	48.714030
708.377352	48.539841
708.798342	48.366910
709.219306	48.200174
709.640245	48.034671
710.061157	47.885235
710.482044	47.756029
710.902905	47.642669
711.323741	47.552551
711.744550	47.488903
712.165334	47.456903
712.586092	47.453225
713.006823	47.476637
713.427529	47.536536
713.848209	47.630402
714.268863	47.763195
714.689492	47.927798
715.110094	48.131214
715.530670	48.361456
715.951220	48.612077
716.371744	48.891409
716.792242	49.200133
717.212714	49.529658
717.633159	49.884740
718.053579	50.230040
718.473973	50.573335
718.894340	50.922561
719.314681	51.258879
719.734996	51.588235
720.155285	51.888844
720.575547	52.162625
720.995784	52.410698
721.415994	52.619945
721.836177	52.785947
722.256335	52.905257
722.676466	52.972107
723.096570	52.991344
723.516649	52.958974
723.936701	52.893985
724.356726	52.756856
724.776725	52.568196
725.196698	52.329602
725.616644	52.053799
726.036564	51.741365
726.456457	51.390973
726.876324	51.015525
727.296164	50.605978
727.715977	50.190610
728.135764	49.757864
728.555525	49.323895
728.975258	48.903456
729.394966	48.488579
729.814646	48.086104
730.234300	47.699775
730.653927	47.323602
731.073527	46.996323
731.493101	46.695080
731.912648	46.418798
732.332168	46.184800
732.751661	45.987796
733.171128	45.845926
733.590568	45.741087
734.009980	45.680194
734.429366	45.658435
734.848726	45.680836
735.268058	45.741950
735.687363	45.840734
736.106641	45.973044
736.525893	46.129650
736.945117	46.312610
737.364314	46.524487
737.783485	46.753561
738.202628	47.002794
738.621744	47.264824
739.040834	47.535536
739.459896	47.818987
739.878931	48.098384
740.297939	48.388601
740.716919	48.675487
741.135873	48.961482
741.554799	49.233894
741.973698	49.502077
742.392570	49.756597
742.811415	50.006321
743.230232	50.239485
743.649022	50.473076
744.067785	50.691411
744.486521	50.904676
744.905229	51.114516
745.323909	51.317793
745.742563	51.518240
746.161189	51.702034
746.579787	51.905281
746.998358	52.108000
747.416902	52.303209
747.835418	52.501376
748.253907	52.699415
748.672368	52.895135
749.090802	53.104328
749.509208	53.314476
749.927586	53.515719
750.345937	53.723970
750.764261	53.939318
751.182556	54.155516
751.600824	54.366243
752.019065	54.581287
752.437277	54.801365
752.855462	55.011140
753.273620	55.201570
753.691749	55.388191
754.109851	55.553618
754.527925	55.718020
754.945971	55.848748
755.363989	55.963509
755.781980	56.046929
756.199943	56.106069
756.617877	56.130256
757.035784	56.117366
757.453663	56.069534
757.871514	55.968956
758.289337	55.816757
758.707132	55.611120
759.124899	55.360846
759.542639	55.030972
759.960350	54.650555
760.378033	54.212254
760.795688	53.714422
761.213314	53.152821
761.630913	52.557088
762.048484	51.889457
762.466026	51.191079
762.883541	50.450189
763.301027	49.667802
763.718485	48.856322
764.135914	48.020263
764.553316	47.170897
764.970689	46.309492
765.388034	45.436299
765.805351	44.580372
766.222639	43.740305
766.639899	42.891294
767.057131	42.065539
767.474334	41.247516
767.891509	40.474867
768.308655	39.730128
768.725773	39.022057
769.142863	38.361627
769.559924	37.738869
769.976957	37.164402
770.393961	36.623736
770.810936	36.139410
771.227883	35.697437
771.644802	35.302210
772.061692	34.952740
772.478553	34.648334
772.895386	34.394002
773.312190	34.190201
773.728965	34.041852
774.145712	33.949212
774.562430	33.900547
774.979119	33.906210
775.395780	33.954172
775.812411	34.063278
776.229014	34.225138
776.645589	34.426472
777.062134	34.676870
777.478651	34.973453
777.895138	35.301558
778.311597	35.670453
778.728027	36.064720
779.144428	36.481575
779.560800	36.931741
779.977143	37.401248
780.393458	37.893935
780.809743	38.388814
781.225999	38.899106
781.642226	39.405601
782.058425	39.899395
782.474594	40.382843
782.890734	40.846820
783.306845	41.299141
783.722926	41.720994
784.138979	42.121190
784.555003	42.489980
784.970997	42.829485
785.386962	43.139452
785.802898	43.406502
786.218805	43.644940
786.634682	43.851427
787.050531	44.017661
787.466349	44.149860
787.882139	44.264553
788.297899	44.354884
788.713630	44.424049
789.129332	44.460242
789.545004	44.478863
789.960647	44.489968
790.376260	44.490527
790.791844	44.491085
791.207399	44.473626
791.622924	44.467606
792.038419	44.480367
792.453885	44.499481
792.869321	44.516059
793.284728	44.560838
793.700106	44.622634
794.115453	44.686415
794.530771	44.777151
794.946060	44.871117
795.361319	44.979396
795.776548	45.089539
796.191747	45.204261
796.606917	45.328702
797.022057	45.455226
797.437167	45.563162
797.852248	45.652842
798.267298	45.729630
798.682319	45.789983
799.097310	45.829156
799.512271	45.830146
799.927203	45.812993
800.342104	45.764821
800.756976	45.667347
801.171818	45.527058
801.586629	45.340372
802.001411	45.119806
802.416163	44.859941
802.830885	44.548426
803.245577	44.198654
803.660238	43.805228
804.074870	43.391110
804.489472	42.921718
804.904043	42.421338
805.318585	41.891967
805.733096	41.347268
806.147577	40.761281
806.562028	40.152501
806.976449	39.538806
807.390840	38.913977
807.805200	38.281982
808.219530	37.656447
808.633830	37.047097
809.048100	36.455808
809.462339	35.867199
809.876548	35.298185
810.290727	34.764795
810.704875	34.264893
811.118993	33.808994
811.533080	33.374407
811.947137	32.976653
812.361164	32.619673
812.775160	32.303198
813.189126	32.044784
813.603061	31.827835
814.016966	31.666971
814.430840	31.560291
814.844684	31.510053
815.258497	31.516362
815.672280	31.576458
816.086032	31.683344
816.499753	31.849725
816.913444	32.066741
817.327104	32.337890
817.740733	32.662636
818.154331	33.039813
818.567899	33.457339
818.981436	33.920737
819.394943	34.427947
819.808418	34.970795
820.221863	35.545057
820.635277	36.172955
821.048660	36.827170
821.462013	37.507916
821.875334	38.206206
822.288625	38.948327
822.701884	39.693228
823.115113	40.462731
823.528311	41.241126
823.941478	42.005214
824.354614	42.787130
824.767718	43.554213
825.180792	44.304773
825.593835	45.034652
826.006847	45.722262
826.419827	46.391991
826.832777	47.010924
827.245695	47.578961
827.658582	48.092656
828.071438	48.551046
828.484263	48.923830
828.897057	49.237975
829.309819	49.476935
829.722551	49.647524
830.135251	49.765140
830.547919	49.797530
830.960557	49.747114
831.373163	49.655874
831.785738	49.505036
832.198281	49.288280
832.610793	49.045120
833.023274	48.749057
833.435723	48.408935
833.848141	48.048291
834.260528	47.651757
834.672883	47.249080
835.085206	46.822178
835.497498	46.404667
835.909758	45.974671
836.321987	45.545140
836.734185	45.137345
837.146350	44.724533
837.558485	44.336466
837.970587	43.976568
838.382658	43.630245
838.794697	43.301932
839.206705	43.001661
839.618681	42.719718
840.030625	42.456121
840.442538	42.219091
840.854418	42.002661
841.266267	41.842956
841.678084	41.710168
842.089870	41.604874
842.501623	41.527594
842.913345	41.468555
843.325035	41.440051
843.736693	41.432343
844.148319	41.441277
844.559913	41.472496
844.971475	41.525790
845.383005	41.572587
845.794504	41.637818
846.205970	41.712558
846.617404	41.790837
847.028806	41.875000
847.440176	41.949812
847.851514	42.016164
848.262820	42.090797
848.674094	42.151032
849.085336	42.201472
849.496546	42.227087
849.907723	42.256784
850.318868	42.252668
850.729981	42.229722
851.141062	42.199080
851.552110	42.162428
851.963127	42.101243
852.374111	42.027740
852.785062	41.955097
853.195982	41.850928
853.606869	41.739691
854.017723	41.596653
854.428546	41.452750
854.839336	41.289987
855.250093	41.102784
855.660818	40.900124
856.071511	40.675709
856.482171	40.451305
856.892799	40.223859
857.303394	39.991028
857.713956	39.759418
858.124486	39.521493
858.534984	39.282254
858.945449	39.038953
859.355881	38.789841
859.766280	38.545973
860.176647	38.291210
860.586982	38.054672
860.997283	37.823452
861.407552	37.593060
861.817789	37.380632
862.227992	37.191279
862.638163	36.995120
863.048301	36.822521
863.458406	36.676508
863.868478	36.537502
864.278518	36.401340
864.688524	36.294916
865.098498	36.203276
865.508439	36.117927
865.918347	36.083537
866.328222	36.069135
866.738064	36.077466
867.147873	36.084424
867.557649	36.113188
867.967392	36.172095
868.377102	36.272526
868.786779	36.390981
869.196423	36.541768
869.606034	36.692137
870.015612	36.850159
870.425156	37.045465
870.834668	37.251706
871.244146	37.483819
871.653591	37.740677
872.063003	38.002215
872.472382	38.273118
872.881728	38.556125
873.291040	38.847017
873.700319	39.129463
874.109564	39.420712
874.518777	39.698619
874.927956	39.965393
875.337102	40.238638
875.746214	40.501062
876.155293	40.735176
876.564338	40.947749
876.973350	41.166581
877.382329	41.338784
877.791274	41.496921
878.200186	41.642675
878.609064	41.743771
879.017909	41.810551
879.426720	41.862361
879.835497	41.881245
880.244241	41.877723
880.652952	41.861413
881.061629	41.810201
881.470272	41.728725
881.878881	41.632588
882.287457	41.506601
882.695999	41.391879
883.104507	41.226327
883.512982	41.051975
883.921423	40.860012
884.329830	40.632899
884.738203	40.394504
885.146543	40.168589
885.554849	39.941196
885.963120	39.716319
886.371358	39.480460
886.779563	39.253546
887.187733	39.034684
887.595869	38.822491
888.003971	38.610619
888.412040	38.409863
888.820074	38.214279
889.228074	38.055408
889.636041	37.892286
890.043973	37.752162
890.451871	37.621798
890.859736	37.502192
891.267566	37.402940
891.675362	37.344033
892.083124	37.278765
892.490851	37.255685
892.898545	37.219529
893.306204	37.182852
893.713829	37.157707
894.121420	37.146258
894.528977	37.143958
894.936499	37.154110
895.343987	37.173565
895.751441	37.204714
896.158860	37.239706
896.566246	37.274814
896.973596	37.326729
897.380913	37.390487
897.788195	37.436120
898.195442	37.485031
898.602655	37.523918
899.009834	37.570366
899.416978	37.610729
899.824088	37.650129
900.231163	37.672934
900.638204	37.696061
901.045210	37.718958
901.452181	37.760992
901.859118	37.770028
902.266021	37.784494
902.672888	37.789447
903.079721	37.784437
903.486520	37.765852
903.893283	37.751413
904.300012	37.678650
904.706707	37.627063
905.113366	37.546373
905.519991	37.471024
905.926581	37.395780
906.333136	37.301133
906.739656	37.212447
907.146142	37.098856
907.552592	37.000486
907.959008	36.861986
908.365389	36.695286
908.771735	36.552379
909.178046	36.392204
909.584322	36.212148
909.990563	36.021382
910.396769	35.820121
910.802940	35.624221
911.209076	35.410009
911.615177	35.189607
912.021243	34.974111
912.427274	34.747820
912.833270	34.518613
913.239231	34.286778
913.645156	34.047324
914.051046	33.793942
914.456902	33.547064
914.862721	33.301318
915.268506	33.057948
915.674256	32.828547
916.079970	32.613733
916.485649	32.381796
916.891292	32.190256
917.296901	31.976405
917.702474	31.787871
918.108011	31.640575
918.513514	31.480818
918.918980	31.336608
919.324412	31.197416
919.729808	31.055838
920.135169	30.933789
920.540494	30.824988
920.945783	30.766248
921.351037	30.686063
921.756256	30.646610
922.161439	30.621483
922.566586	30.601291
922.971698	30.606496
923.376775	30.611949
923.781815	30.631468
924.186820	30.675149
924.591790	30.698915
924.996723	30.727362
925.401621	30.782664
925.806484	30.838130
926.211310	30.919778
926.616101	30.999786
927.020856	31.066466
927.425575	31.133654
927.830259	31.230855
928.234906	31.295802
928.639518	31.354950
929.044094	31.407638
929.448634	31.464640
929.853138	31.521263
930.257606	31.569173
930.662038	31.600292
931.066434	31.596498
931.470795	31.606014
931.875119	31.607812
932.279407	31.628472
932.683659	31.636457
933.087875	31.616887
933.492055	31.586245
933.896199	31.541499
934.300307	31.471478
934.704379	31.403046
935.108414	31.325810
935.512414	31.246244
935.916377	31.139431
936.320304	31.025273
936.724195	30.888676
937.128049	30.778808
937.531867	30.649097
937.935649	30.499994
938.339395	30.344035
938.743104	30.172823
939.146777	30.006283
939.550414	29.868366
939.954014	29.698201
940.357578	29.487695
940.761105	29.326916
941.164596	29.148458
941.568050	29.003533
941.971468	28.815204
942.374850	28.614320
942.778195	28.431394
943.181503	28.234053
943.584775	28.086783
943.988010	27.919865
944.391209	27.750900
944.794371	27.565477
945.197496	27.383579
945.600585	27.209365
946.003637	27.024358
946.406653	26.879192
946.809632	26.724933
947.212574	26.559386
947.615479	26.419715
948.018347	26.275203
948.421179	26.147465
948.823974	25.996415
949.226732	25.842090
949.629453	25.708530
950.032138	25.593409
950.434785	25.470625
950.837396	25.359256
951.239969	25.225802
951.642506	25.095632
952.045006	24.951848
952.447469	24.842470
952.849895	24.716551
953.252283	24.591955
953.654635	24.486088
954.056950	24.364362
954.459227	24.249358
954.861468	24.160972
955.263671	24.019861
955.665838	23.927577
956.067967	23.818081
956.470059	23.709369
956.872114	23.654403
957.274131	23.588423
957.676112	23.492896
958.078055	23.401786
958.479961	23.339464
958.881829	23.238566
959.283661	23.172618
959.685455	23.099042
960.087211	23.010536
960.488931	22.927856
960.890613	22.853740
961.292257	22.795966
961.693864	22.772685
962.095434	22.706090
962.496966	22.672036
962.898461	22.578303
963.299918	22.528937
963.701338	22.503113
964.102720	22.505491
964.504065	22.511416
964.905372	22.491655
965.306641	22.503694
965.707873	22.497445
966.109068	22.489593
966.510224	22.479861
966.911343	22.485934
967.312425	22.490452
967.713468	22.497339
968.114474	22.499746
968.515442	22.507194
968.916373	22.520810
969.317265	22.485894
969.718120	22.480672
970.118937	22.521089
970.519716	22.529859
970.920458	22.518546
971.321161	22.526547
971.721827	22.515339
972.122454	22.534296
972.523044	22.544661
972.923596	22.537823
973.324110	22.533757
973.724585	22.572119
974.125023	22.556666
974.525423	22.567323
974.925785	22.570223
975.326108	22.645034
975.726394	22.656949
976.126642	22.665140
976.526851	22.676802
976.927022	22.652204
977.327155	22.672868
977.727250	22.680547
978.127307	22.706469
978.527325	22.734686
978.927306	22.761822
979.327248	22.773248
979.727151	22.822029
980.127017	22.905252
980.526844	22.893780
980.926633	22.956470
981.326383	22.986352
981.726095	23.008296
982.125769	23.050023
982.525404	23.091806
982.925001	23.134983
983.324560	23.185528
983.724079	23.229554
984.123561	23.330316
984.523004	23.418438
984.922408	23.481603
985.321774	23.523632
985.721102	23.609686
986.120390	23.703676
986.519641	23.830274
986.918852	23.902126
987.318025	23.985289
987.717159	24.066084
988.116255	24.147541
988.515312	24.290490
988.914330	24.341838
989.313310	24.443257
989.712250	24.595185
990.111152	24.728870
990.510015	24.845408
990.908840	25.000404
991.307625	25.131564
991.706372	25.328137
992.105080	25.509025
992.503749	25.634384
992.902379	25.871418
993.300970	26.048906
993.699522	26.377013
994.098035	26.654504
994.496510	26.894572
994.894945	27.057286
995.293341	27.306190
995.691698	27.561540
996.090016	27.886584
996.488296	28.120734
996.886535	28.382124
997.284736	28.676505
997.682898	28.997386
998.081021	29.313714
998.479104	29.618196
998.877148	30.020746
999.275153	30.574140
999.673119	30.917836
1000.071046	31.271422
1000.468933	31.813243
1000.866781	32.113021
1001.264590	32.568472
1001.662359	33.096778
1002.060089	33.457032
1002.457780	34.002829
1002.855431	34.500402
1003.253043	34.874587
1003.650615	35.401583
1004.048148	36.086263
1004.445642	36.482744
1004.843096	36.975830
1005.240511	37.641309
1005.637886	38.135236
1006.035221	38.477618
1006.432517	39.025082
1006.829774	39.568675
1007.226991	40.278728
1007.624168	41.066889
1008.021306	41.830802
1008.418404	42.473342
1008.815462	43.232208
1009.212481	44.092570
1009.609460	45.001503
1010.006399	46.063053
1010.403298	47.126314
1010.800158	47.911399
1011.196978	48.718672
1011.593758	49.598837
1011.990498	50.645297
1012.387199	51.865787
1012.783860	52.971626
1013.180480	54.452236
1013.577061	55.379273
1013.973602	56.697492
1014.370103	58.264702
1014.766564	58.757405
1015.162985	59.622793
1015.559366	60.724281
1015.955708	61.652922
1016.352009	62.122217
1016.748270	63.219199
1017.144491	64.533333
1017.540671	65.476055
1017.936812	66.881146
1018.332913	68.177709
1018.728973	69.021066
1019.124994	70.313189
1019.520974	71.162055
1019.916914	72.131148
1020.312814	73.332101
