Time1=100ms:Average1=5:Objective=10X:Aperture=1: (11/21/2018 10:32:46 AM)
11/21/2018 10:32:46 AM
Reflectance
10X
Ap#: 1
Avg1: 5.000000
Avg2: 0.000000
Int.Time1:100.000000

350.166136	106.682092
350.601937	108.333333
351.037728	108.920919
351.473509	109.194053
351.909281	109.294524
352.345042	109.360436
352.780794	109.253938
353.216536	109.090909
353.652267	109.484044
354.087989	109.393970
354.523701	109.657507
354.959403	109.145070
355.395095	109.964200
355.830777	109.714058
356.266449	110.308969
356.702110	110.124174
357.137762	109.880240
357.573404	109.428114
358.009035	108.959393
358.444656	109.399739
358.880268	109.263348
359.315869	109.171360
359.751459	109.001208
360.187040	108.903213
360.622610	108.615291
361.058170	109.405186
361.493720	109.101991
361.929260	109.035595
362.364789	109.764036
362.800308	109.118572
363.235816	108.420840
363.671314	108.733448
364.106802	108.422218
364.542279	108.493428
364.977746	108.635997
365.413203	108.441493
365.848649	108.343398
366.284084	108.310640
366.719509	108.359383
367.154924	108.845804
367.590328	109.219286
368.025721	109.074373
368.461104	109.221436
368.896477	108.611475
369.331838	109.209330
369.767189	108.901210
370.202530	108.607340
370.637859	108.758026
371.073178	108.477784
371.508486	108.857994
371.943784	108.358828
372.379071	108.815672
372.814347	108.705534
373.249612	108.644768
373.684866	108.365168
374.120110	109.061520
374.555343	108.918813
374.990565	108.758412
375.425776	109.068651
375.860976	108.890407
376.296165	108.999708
376.731343	109.058183
377.166511	108.559519
377.601667	108.677043
378.036812	108.785355
378.471946	108.830364
378.907070	108.664608
379.342182	108.264383
379.777283	108.171878
380.212373	108.536351
380.647452	107.899752
381.082520	107.340668
381.517576	107.696688
381.952622	107.701051
382.387656	107.455061
382.822679	107.473983
383.257691	106.816465
383.692692	106.637752
384.127681	106.333051
384.562659	106.460462
384.997626	106.172723
385.432581	106.655952
385.867525	106.478076
386.302458	106.530150
386.737379	106.513554
387.172289	106.603595
387.607188	106.135955
388.042075	105.541395
388.476951	105.372405
388.911815	105.587272
389.346668	105.240093
389.781509	104.945718
390.216338	105.173373
390.651157	105.266070
391.085963	105.241341
391.520758	105.049669
391.955541	104.516306
392.390313	104.789816
392.825073	104.839890
393.259821	105.442737
393.694558	105.002739
394.129283	104.749292
394.563996	105.022075
394.998698	104.548366
395.433388	104.246575
395.868066	104.445053
396.302732	104.113462
396.737386	104.362843
397.172029	104.512439
397.606659	104.478827
398.041278	104.358790
398.475885	104.224719
398.910480	103.453507
399.345063	102.507258
399.779634	101.498780
400.214194	100.301594
400.648741	98.962463
401.083276	97.221077
401.517799	95.053798
401.952310	92.585952
402.386809	89.512122
402.821296	86.543899
403.255771	83.557726
403.690234	79.962734
404.124684	76.313131
404.559123	72.497322
404.993549	68.444295
405.427963	64.585734
405.862365	60.754791
406.296754	57.649424
406.731131	54.018294
407.165496	50.863025
407.599849	48.044672
408.034190	45.438387
408.468518	42.896741
408.902833	40.444155
409.337137	38.178029
409.771428	36.175033
410.205706	34.223572
410.639973	32.504311
411.074226	30.967622
411.508467	29.533909
411.942696	28.241537
412.376912	27.072190
412.811116	26.032394
413.245307	25.103822
413.679486	24.211537
414.113652	23.483666
414.547805	22.682695
414.981946	22.053724
415.416074	21.378494
415.850190	20.817490
416.284293	20.223368
416.718383	19.751206
417.152460	19.275012
417.586525	18.868310
418.020577	18.477561
418.454616	18.134215
418.888643	17.838551
419.322656	17.577711
419.756657	17.303197
420.190645	17.057414
420.624620	16.829763
421.058582	16.600677
421.492531	16.373506
421.926468	16.170805
422.360391	15.988770
422.794301	15.799332
423.228199	15.649866
423.662083	15.522199
424.095955	15.424004
424.529813	15.310388
424.963658	15.181194
425.397491	15.100915
425.831310	15.012411
426.265116	14.901245
426.698909	14.801806
427.132689	14.717565
427.566455	14.590295
428.000209	14.536931
428.433949	14.447958
428.867676	14.396581
429.301389	14.333241
429.735090	14.258208
430.168777	14.172371
430.602451	14.104917
431.036111	14.012972
431.469759	13.946303
431.903392	13.880980
432.337013	13.819963
432.770620	13.718300
433.204213	13.630253
433.637794	13.583740
434.071360	13.504377
434.504914	13.451964
434.938453	13.416686
435.371979	13.378494
435.805492	13.336238
436.238991	13.288115
436.672477	13.253713
437.105949	13.201468
437.539407	13.140760
437.972852	13.066366
438.406283	12.998389
438.839700	12.923716
439.273104	12.851865
439.706494	12.778809
440.139871	12.705923
440.573233	12.632388
441.006582	12.574458
441.439917	12.509760
441.873238	12.443923
442.306546	12.375042
442.739839	12.309219
443.173119	12.257395
443.606385	12.182276
444.039636	12.112043
444.472874	12.067487
444.906099	12.016382
445.339309	11.965230
445.772505	11.913761
446.205687	11.884779
446.638855	11.835803
447.072009	11.770705
447.505149	11.721893
447.938275	11.672492
448.371387	11.614859
448.804485	11.553353
449.237569	11.496767
449.670638	11.442778
450.103694	11.369272
450.536735	11.300781
450.969762	11.238600
451.402774	11.192207
451.835773	11.146755
452.268757	11.097589
452.701727	11.053334
453.134683	11.018924
453.567624	11.003280
454.000551	10.976292
454.433464	10.941210
454.866362	10.908922
455.299246	10.897342
455.732116	10.889278
456.164971	10.864588
456.597811	10.849104
457.030638	10.841123
457.463449	10.823378
457.896246	10.785535
458.329029	10.744561
458.761797	10.715219
459.194551	10.655913
459.627290	10.599775
460.060014	10.550256
460.492724	10.501921
460.925419	10.449331
461.358099	10.399183
461.790765	10.335921
462.223416	10.277818
462.656052	10.219160
463.088674	10.169724
463.521281	10.128015
463.953873	10.081470
464.386450	10.029678
464.819012	9.995943
465.251560	9.948014
465.684093	9.905233
466.116611	9.865134
466.549114	9.818165
466.981602	9.766549
467.414075	9.715007
467.846533	9.667339
468.278977	9.610763
468.711405	9.546956
469.143818	9.474968
469.576216	9.404382
470.008600	9.332594
470.440968	9.272784
470.873321	9.217405
471.305659	9.149182
471.737982	9.091737
472.170289	9.024574
472.602582	8.980922
473.034859	8.940073
473.467122	8.905228
473.899369	8.874650
474.331600	8.857842
474.763817	8.834913
475.196018	8.833134
475.628204	8.834974
476.060375	8.843239
476.492530	8.855697
476.924670	8.868979
477.356795	8.890959
477.788904	8.924160
478.220998	8.954685
478.653076	8.999684
479.085139	9.045121
479.517186	9.096888
479.949219	9.159615
480.381235	9.218827
480.813236	9.284116
481.245221	9.367616
481.677191	9.446302
482.109146	9.524994
482.541084	9.619712
482.973008	9.726470
483.404915	9.828651
483.836807	9.940463
484.268683	10.057059
484.700544	10.207240
485.132388	10.358868
485.564217	10.521556
485.996031	10.694772
486.427828	10.870176
486.859610	11.052594
487.291376	11.244433
487.723126	11.435715
488.154860	11.638058
488.586579	11.837165
489.018281	12.047919
489.449968	12.260437
489.881639	12.464914
490.313293	12.677444
490.744932	12.893347
491.176555	13.112613
491.608162	13.323007
492.039753	13.536032
492.471328	13.740636
492.902886	13.934281
493.334429	14.120831
493.765956	14.302462
494.197466	14.490414
494.628960	14.646558
495.060439	14.823037
495.491901	14.987739
495.923347	15.137858
496.354776	15.266997
496.786190	15.409109
497.217587	15.536327
497.648968	15.658682
498.080332	15.763882
498.511681	15.865578
498.943013	15.950809
499.374328	16.021333
499.805628	16.077643
500.236911	16.120298
500.668177	16.152655
501.099427	16.167957
501.530661	16.166094
501.961878	16.152054
502.393079	16.125699
502.824264	16.074660
503.255431	16.023249
503.686583	15.951740
504.117717	15.870479
504.548835	15.769183
504.979937	15.670427
505.411022	15.558478
505.842090	15.443508
506.273142	15.327874
506.704177	15.218091
507.135195	15.102993
507.566197	14.992031
507.997182	14.881019
508.428150	14.772781
508.859102	14.675523
509.290036	14.583225
509.720954	14.516350
510.151855	14.451963
510.582739	14.412316
511.013607	14.395196
511.444457	14.406368
511.875291	14.449979
512.306107	14.530199
512.736907	14.636101
513.167690	14.792700
513.598456	14.993294
514.029205	15.231345
514.459936	15.523846
514.890651	15.866038
515.321349	16.263251
515.752030	16.718015
516.182693	17.227894
516.613340	17.804978
517.043969	18.449276
517.474582	19.153433
517.905177	19.926032
518.335755	20.755258
518.766315	21.652164
519.196859	22.598258
519.627385	23.590334
520.057894	24.614292
520.488386	25.687855
520.918860	26.787833
521.349318	27.957180
521.779757	29.170249
522.210180	30.425147
522.640585	31.703623
523.070973	33.020684
523.501343	34.367121
523.931696	35.736073
524.362031	37.130406
524.792349	38.563548
525.222650	40.000252
525.652933	41.451387
526.083198	42.926169
526.513446	44.398238
526.943677	45.850917
527.373890	47.325550
527.804085	48.773560
528.234262	50.231580
528.664422	51.672682
529.094565	53.086445
529.524689	54.495979
529.954796	55.877006
530.384885	57.235971
530.814957	58.573025
531.245011	59.883176
531.675047	61.149235
532.105065	62.389871
532.535065	63.628836
532.965048	64.825662
533.395013	65.981290
533.824959	67.090681
534.254888	68.168878
534.684799	69.223493
535.114693	70.233474
535.544568	71.204966
535.974425	72.160179
536.404264	73.050943
536.834086	73.915247
537.263889	74.755012
537.693674	75.562388
538.123441	76.305956
538.553190	77.039595
538.982921	77.731588
539.412634	78.397056
539.842329	79.028763
540.272006	79.651714
540.701664	80.225708
541.131304	80.783518
541.560926	81.304288
541.990530	81.800470
542.420116	82.294393
542.849683	82.774037
543.279232	83.240719
543.708763	83.669973
544.138275	84.096041
544.567769	84.525345
544.997245	84.940543
545.426702	85.337280
545.856141	85.717711
546.285562	86.099434
546.714964	86.472447
547.144347	86.826626
547.573713	87.191474
548.003059	87.533209
548.432387	87.862683
548.861697	88.191277
549.290988	88.495166
549.720260	88.811452
550.149514	89.117568
550.578750	89.410075
551.007966	89.659396
551.437164	89.916119
551.866344	90.135845
552.295504	90.345680
552.724646	90.533794
553.153769	90.731825
553.582874	90.899316
554.011960	91.060915
554.441027	91.205442
554.870075	91.333950
555.299104	91.451019
555.728115	91.555290
556.157106	91.624230
556.586079	91.683033
557.015033	91.763246
557.443968	91.819494
557.872884	91.841582
558.301781	91.878384
558.730659	91.925610
559.159518	91.963309
559.588358	92.027332
560.017180	92.083319
560.445982	92.172780
560.874765	92.252397
561.303528	92.369779
561.732273	92.481626
562.160999	92.602448
562.589705	92.758185
563.018393	92.902092
563.447061	93.080756
563.875710	93.247327
564.304340	93.449110
564.732950	93.634311
565.161542	93.840097
565.590114	94.040223
566.018666	94.258122
566.447200	94.469808
566.875714	94.674785
567.304208	94.866798
567.732684	95.066518
568.161140	95.253739
568.589576	95.438012
569.017993	95.594059
569.446391	95.752927
569.874769	95.884933
570.303128	95.999388
570.731467	96.093803
571.159787	96.168115
571.588087	96.234332
572.016368	96.266209
572.444629	96.297902
572.872870	96.280763
573.301092	96.262589
573.729294	96.210410
574.157476	96.154593
574.585639	96.048325
575.013782	95.947539
575.441906	95.840540
575.870009	95.728948
576.298093	95.619967
576.726157	95.466904
577.154202	95.347297
577.582226	95.223736
578.010231	95.138406
578.438216	95.034332
578.866181	94.982400
579.294126	94.905573
579.722051	94.850514
580.149957	94.826112
580.577842	94.797083
581.005707	94.799198
581.433553	94.798594
581.861378	94.825830
582.289184	94.853607
582.716969	94.898571
583.144734	94.968302
583.572479	95.040410
584.000205	95.126241
584.427910	95.219757
584.855594	95.302360
585.283259	95.396460
585.710904	95.495290
586.138528	95.585191
586.566132	95.690262
586.993716	95.797069
587.421280	95.883008
587.848823	95.969222
588.276346	96.052197
588.703849	96.112475
589.131332	96.149597
589.558794	96.175111
589.986236	96.202181
590.413657	96.203081
590.841058	96.208448
591.268438	96.177284
591.695799	96.148357
592.123138	96.068835
592.550458	96.012632
592.977756	95.924716
593.405034	95.803836
593.832292	95.698247
594.259529	95.554313
594.686746	95.422127
595.113942	95.255200
595.541117	95.103789
595.968272	94.927557
596.395406	94.763084
596.822519	94.597735
597.249612	94.425971
597.676684	94.264999
598.103735	94.099130
598.530766	93.938082
598.957775	93.767097
599.384764	93.609565
599.811733	93.427764
600.238680	93.239170
600.665606	93.060366
601.092512	92.886175
601.519397	92.697280
601.946261	92.521420
602.373104	92.333994
602.799926	92.155573
603.226727	91.951521
603.653507	91.729101
604.080266	91.477043
604.507004	91.196237
604.933721	90.907914
605.360417	90.603550
605.787092	90.260048
606.213746	89.900125
606.640379	89.526252
607.066991	89.129175
607.493581	88.716343
607.920150	88.290851
608.346699	87.845036
608.773226	87.373461
609.199731	86.899203
609.626216	86.376011
610.052679	85.825896
610.479121	85.253303
610.905542	84.648735
611.331941	84.027783
611.758319	83.373616
612.184676	82.674249
612.611011	81.945286
613.037325	81.195074
613.463617	80.408680
613.889888	79.583181
614.316138	78.720403
614.742366	77.807129
615.168573	76.851481
615.594758	75.851277
616.020921	74.799230
616.447063	73.718161
616.873184	72.596491
617.299283	71.429452
617.725360	70.242244
618.151416	69.006664
618.577450	67.751474
619.003462	66.456676
619.429453	65.124413
619.855422	63.779175
620.281369	62.398105
620.707295	60.993631
621.133199	59.561346
621.559081	58.110790
621.984941	56.638058
622.410779	55.156105
622.836596	53.664972
623.262391	52.169558
623.688163	50.671295
624.113914	49.175526
624.539644	47.674273
624.965351	46.181112
625.391036	44.704554
625.816699	43.258943
626.242340	41.836458
626.667960	40.443555
627.093557	39.096174
627.519132	37.784459
627.944685	36.538487
628.370216	35.349652
628.795725	34.237249
629.221212	33.204736
629.646677	32.256934
630.072119	31.401913
630.497540	30.648748
630.922938	30.001954
631.348314	29.468282
631.773668	29.038661
632.198999	28.718380
632.624308	28.512842
633.049595	28.406769
633.474860	28.403576
633.900102	28.500373
634.325322	28.682544
634.750520	28.955025
635.175695	29.317781
635.600848	29.743683
636.025978	30.235975
636.451086	30.787878
636.876171	31.399458
637.301234	32.061636
637.726275	32.768780
638.151293	33.525386
638.576288	34.324537
639.001261	35.148763
639.426211	36.000621
639.851139	36.891142
640.276044	37.793569
640.700927	38.736052
641.125787	39.685504
641.550624	40.637186
641.975438	41.601528
642.400230	42.561267
642.824999	43.516597
643.249745	44.467807
643.674469	45.403640
644.099169	46.317147
644.523847	47.213912
644.948502	48.086933
645.373135	48.932412
645.797744	49.750862
646.222330	50.531354
646.646894	51.293188
647.071435	52.023996
647.495953	52.728918
647.920447	53.398721
648.344919	54.030558
648.769368	54.643311
649.193794	55.231863
649.618197	55.802061
650.042576	56.335907
650.466933	56.861127
650.891267	57.371777
651.315577	57.871977
651.739864	58.356835
652.164129	58.839078
652.588370	59.301655
653.012587	59.756100
653.436782	60.210181
653.860953	60.642927
654.285102	61.073537
654.709226	61.498314
655.133328	61.912485
655.557406	62.332784
655.981461	62.749580
656.405493	63.148550
656.829501	63.537882
657.253486	63.917592
657.677448	64.279249
658.101386	64.623739
658.525301	64.950414
658.949192	65.263940
659.373060	65.564350
659.796904	65.843054
660.220725	66.100249
660.644522	66.352453
661.068296	66.581980
661.492046	66.802322
661.915772	66.998398
662.339475	67.179273
662.763154	67.339554
663.186810	67.496690
663.610442	67.618661
664.034050	67.735971
664.457635	67.818548
664.881196	67.887496
665.304733	67.916072
665.728247	67.941817
666.151736	67.925803
666.575202	67.889960
666.998644	67.811132
667.422062	67.713658
667.845457	67.582614
668.268827	67.425576
668.692174	67.214985
669.115496	66.969729
669.538795	66.694513
669.962070	66.367954
670.385321	66.014309
670.808547	65.619210
671.231750	65.187591
671.654929	64.735542
672.078084	64.244874
672.501214	63.726742
672.924321	63.175664
673.347404	62.596113
673.770462	61.969625
674.193496	61.333944
674.616506	60.670651
675.039492	59.988136
675.462454	59.294946
675.885391	58.599597
676.308305	57.887906
676.731194	57.187416
677.154058	56.461626
677.576899	55.744970
677.999715	55.024849
678.422507	54.320567
678.845274	53.617578
679.268017	52.932663
679.690736	52.257905
680.113430	51.618687
680.536100	50.984478
680.958746	50.386128
681.381367	49.805632
681.803963	49.268840
682.226535	48.759957
682.649083	48.290001
683.071605	47.868728
683.494104	47.481054
683.916578	47.144462
684.339027	46.857350
684.761451	46.617445
685.183851	46.432733
685.606227	46.284308
686.028577	46.187547
686.450903	46.143223
686.873204	46.158773
687.295481	46.222153
687.717733	46.336288
688.139959	46.500300
688.562162	46.709852
688.984339	46.956992
689.406492	47.256849
689.828619	47.584077
690.250722	47.971466
690.672800	48.387976
691.094853	48.847924
691.516881	49.344643
691.938884	49.882625
692.360863	50.447551
692.782816	51.054211
693.204744	51.680838
693.626647	52.343229
694.048526	53.016839
694.470379	53.709902
694.892207	54.413236
695.314010	55.134746
695.735788	55.867073
696.157540	56.597555
696.579268	57.340836
697.000970	58.084727
697.422648	58.829503
697.844300	59.567204
698.265926	60.306850
698.687528	61.054921
699.109104	61.787751
699.530655	62.513988
699.952181	63.233969
700.373681	63.939531
700.795156	64.644041
701.216606	65.343728
701.638030	66.024430
702.059429	66.702840
702.480803	67.371842
702.902151	68.052786
703.323473	68.725520
703.744770	69.389311
704.166042	70.043673
704.587288	70.692742
705.008509	71.323546
705.429704	71.956418
705.850873	72.556250
706.272017	73.150608
706.693135	73.727796
707.114228	74.296695
707.535295	74.848455
707.956336	75.381847
708.377352	75.907271
708.798342	76.400710
709.219306	76.890005
709.640245	77.352020
710.061157	77.804725
710.482044	78.231996
710.902905	78.645348
711.323741	79.034173
711.744550	79.417359
712.165334	79.796891
712.586092	80.159993
713.006823	80.508292
713.427529	80.853667
713.848209	81.205650
714.268863	81.539748
714.689492	81.884879
715.110094	82.225250
715.530670	82.545866
715.951220	82.856332
716.371744	83.151489
716.792242	83.444235
717.212714	83.729963
717.633159	84.000566
718.053579	84.256321
718.473973	84.491942
718.894340	84.720636
719.314681	84.939794
719.734996	85.129919
720.155285	85.304493
720.575547	85.462305
720.995784	85.604008
721.415994	85.727854
721.836177	85.827630
722.256335	85.910263
722.676466	85.977608
723.096570	85.994095
723.516649	86.004830
723.936701	86.018235
724.356726	85.994042
724.776725	85.933680
725.196698	85.843171
725.616644	85.729914
726.036564	85.596352
726.456457	85.437717
726.876324	85.235976
727.296164	85.010638
727.715977	84.765152
728.135764	84.487843
728.555525	84.199766
728.975258	83.890204
729.394966	83.561478
729.814646	83.218598
730.234300	82.860163
730.653927	82.483455
731.073527	82.104965
731.493101	81.711579
731.912648	81.298923
732.332168	80.874572
732.751661	80.451413
733.171128	80.031358
733.590568	79.600791
734.009980	79.177326
734.429366	78.741100
734.848726	78.319554
735.268058	77.891955
735.687363	77.465819
736.106641	77.064240
736.525893	76.665062
736.945117	76.262566
737.364314	75.881474
737.783485	75.516148
738.202628	75.160777
738.621744	74.829177
739.040834	74.513260
739.459896	74.213134
739.878931	73.949517
740.297939	73.710705
740.716919	73.497635
741.135873	73.314422
741.554799	73.165006
741.973698	73.045053
742.392570	72.964195
742.811415	72.925548
743.230232	72.900051
743.649022	72.927013
744.067785	72.978941
744.486521	73.059605
744.905229	73.182857
745.323909	73.334733
745.742563	73.520747
746.161189	73.722908
746.579787	73.969473
746.998358	74.236758
747.416902	74.515690
747.835418	74.821039
748.253907	75.149852
748.672368	75.481114
749.090802	75.834552
749.509208	76.196508
749.927586	76.561842
750.345937	76.941767
750.764261	77.325749
751.182556	77.726381
751.600824	78.128976
752.019065	78.536679
752.437277	78.958480
752.855462	79.358083
753.273620	79.752499
753.691749	80.134333
754.109851	80.526398
754.527925	80.909731
754.945971	81.269944
755.363989	81.617875
755.781980	81.939602
756.199943	82.251080
756.617877	82.541509
757.035784	82.805434
757.453663	83.059609
757.871514	83.289323
758.289337	83.490403
758.707132	83.681969
759.124899	83.858969
759.542639	83.988893
759.960350	84.113579
760.378033	84.211963
760.795688	84.283637
761.213314	84.334607
761.630913	84.382374
762.048484	84.385983
762.466026	84.393978
762.883541	84.392554
763.301027	84.359850
763.718485	84.325124
764.135914	84.287116
764.553316	84.236999
764.970689	84.184793
765.388034	84.128880
765.805351	84.082119
766.222639	84.059459
766.639899	84.029460
767.057131	84.002898
767.474334	83.989644
767.891509	84.014713
768.308655	84.048626
768.725773	84.102994
769.142863	84.191647
769.559924	84.284956
769.976957	84.414871
770.393961	84.564902
770.810936	84.743573
771.227883	84.953720
771.644802	85.171181
772.061692	85.419528
772.478553	85.688046
772.895386	85.979446
773.312190	86.315184
773.728965	86.663690
774.145712	87.030272
774.562430	87.412640
774.979119	87.839418
775.395780	88.262268
775.812411	88.692866
776.229014	89.155008
776.645589	89.640611
777.062134	90.130563
777.478651	90.635154
777.895138	91.154947
778.311597	91.674016
778.728027	92.195528
779.144428	92.728494
779.560800	93.275614
779.977143	93.820853
780.393458	94.355411
780.809743	94.892261
781.225999	95.414335
781.642226	95.944185
782.058425	96.453251
782.474594	96.933001
782.890734	97.398522
783.306845	97.846656
783.722926	98.267054
784.138979	98.664012
784.555003	99.036752
784.970997	99.353994
785.386962	99.656542
785.802898	99.888275
786.218805	100.076844
786.634682	100.253222
787.050531	100.391114
787.466349	100.472573
787.882139	100.506272
788.297899	100.508263
788.713630	100.493709
789.129332	100.413823
789.545004	100.278693
789.960647	100.092695
790.376260	99.894411
790.791844	99.643306
791.207399	99.354302
791.622924	99.037377
792.038419	98.675728
792.453885	98.299636
792.869321	97.877154
793.284728	97.459374
793.700106	96.987579
794.115453	96.495479
794.530771	95.941307
794.946060	95.373714
795.361319	94.796910
795.776548	94.189423
796.191747	93.564605
796.606917	92.928562
797.022057	92.269931
797.437167	91.586736
797.852248	90.906808
798.267298	90.205558
798.682319	89.515084
799.097310	88.823233
799.512271	88.119786
799.927203	87.428074
800.342104	86.774418
800.756976	86.123205
801.171818	85.499743
801.586629	84.884936
802.001411	84.331515
802.416163	83.797951
802.830885	83.310541
803.245577	82.836871
803.660238	82.409423
804.074870	82.027648
804.489472	81.688163
804.904043	81.389315
805.318585	81.134512
805.733096	80.938670
806.147577	80.743376
806.562028	80.591003
806.976449	80.476513
807.390840	80.415413
807.805200	80.362074
808.219530	80.355380
808.633830	80.386057
809.048100	80.456799
809.462339	80.538858
809.876548	80.624483
810.290727	80.740048
810.704875	80.868695
811.118993	81.033025
811.533080	81.213234
811.947137	81.398223
812.361164	81.590117
812.775160	81.795647
813.189126	82.006853
813.603061	82.221840
814.016966	82.441870
814.430840	82.660745
814.844684	82.863912
815.258497	83.086616
815.672280	83.304822
816.086032	83.511648
816.499753	83.706732
816.913444	83.880051
817.327104	84.030535
817.740733	84.170723
818.154331	84.288242
818.567899	84.373403
818.981436	84.450016
819.394943	84.506319
819.808418	84.522698
820.221863	84.502163
820.635277	84.479142
821.048660	84.408005
821.462013	84.308448
821.875334	84.164035
822.288625	84.001183
822.701884	83.822531
823.115113	83.604950
823.528311	83.358032
823.941478	83.067416
824.354614	82.742198
824.767718	82.383899
825.180792	81.995043
825.593835	81.543760
826.006847	81.042866
826.419827	80.536411
826.832777	79.966127
827.245695	79.375390
827.658582	78.758808
828.071438	78.085265
828.484263	77.362475
828.897057	76.614890
829.309819	75.842893
829.722551	75.061424
830.135251	74.270614
830.547919	73.446361
830.960557	72.604006
831.373163	71.763005
831.785738	70.919648
832.198281	70.073819
832.610793	69.260013
833.023274	68.438301
833.435723	67.625376
833.848141	66.840149
834.260528	66.054568
834.672883	65.290242
835.085206	64.546109
835.497498	63.836115
835.909758	63.147970
836.321987	62.483204
836.734185	61.836373
837.146350	61.214602
837.558485	60.644952
837.970587	60.075438
838.382658	59.561071
838.794697	59.070108
839.206705	58.596326
839.618681	58.159786
840.030625	57.725204
840.442538	57.327633
840.854418	56.968995
841.266267	56.643601
841.678084	56.335123
842.089870	56.063907
842.501623	55.806336
842.913345	55.565020
843.325035	55.363903
843.736693	55.175982
844.148319	55.012774
844.559913	54.878309
844.971475	54.744416
845.383005	54.636249
845.794504	54.546103
846.205970	54.462065
846.617404	54.403041
847.028806	54.338018
847.440176	54.300703
847.851514	54.257729
848.262820	54.231282
848.674094	54.212300
849.085336	54.208697
849.496546	54.211341
849.907723	54.212055
850.318868	54.182530
850.729981	54.177394
851.141062	54.153478
851.552110	54.132575
851.963127	54.116560
852.374111	54.076510
852.785062	54.070212
853.195982	54.026859
853.606869	53.963790
854.017723	53.898924
854.428546	53.846445
854.839336	53.742318
855.250093	53.627164
855.660818	53.507905
856.071511	53.358531
856.482171	53.207984
856.892799	53.043122
857.303394	52.855790
857.713956	52.666566
858.124486	52.453821
858.534984	52.236901
858.945449	52.018902
859.355881	51.762492
859.766280	51.529831
860.176647	51.247650
860.586982	50.975181
860.997283	50.677943
861.407552	50.390194
861.817789	50.076440
862.227992	49.770052
862.638163	49.443409
863.048301	49.111197
863.458406	48.772256
863.868478	48.428704
864.278518	48.077948
864.688524	47.734904
865.098498	47.383272
865.508439	47.008328
865.918347	46.668682
866.328222	46.324689
866.738064	45.992406
867.147873	45.653121
867.557649	45.340015
867.967392	45.041584
868.377102	44.757642
868.786779	44.490989
869.196423	44.252952
869.606034	44.026447
870.015612	43.803091
870.425156	43.619138
870.834668	43.443237
871.244146	43.299416
871.653591	43.180527
872.063003	43.082367
872.472382	43.002035
872.881728	42.936742
873.291040	42.902739
873.700319	42.872614
874.109564	42.856345
874.518777	42.855687
874.927956	42.855598
875.337102	42.873531
875.746214	42.923397
876.155293	42.953803
876.564338	42.998238
876.973350	43.059907
877.382329	43.098193
877.791274	43.162239
878.200186	43.233258
878.609064	43.279085
879.017909	43.358040
879.426720	43.423542
879.835497	43.478991
880.244241	43.532538
880.652952	43.589088
881.061629	43.631628
881.470272	43.679876
881.878881	43.718850
882.287457	43.737061
882.695999	43.762605
883.104507	43.785641
883.512982	43.788635
883.921423	43.796755
884.329830	43.782540
884.738203	43.771390
885.146543	43.772683
885.554849	43.774194
885.963120	43.759340
886.371358	43.751181
886.779563	43.757653
887.187733	43.756924
887.595869	43.765626
888.003971	43.794626
888.412040	43.801855
888.820074	43.818560
889.228074	43.853314
889.636041	43.880313
890.043973	43.903515
890.451871	43.951607
890.859736	43.991213
891.267566	44.040779
891.675362	44.076093
892.083124	44.099594
892.490851	44.146440
892.898545	44.198124
893.306204	44.238410
893.713829	44.282834
894.121420	44.304730
894.528977	44.319162
894.936499	44.337474
895.343987	44.362192
895.751441	44.360998
896.158860	44.355389
896.566246	44.333305
896.973596	44.311994
897.380913	44.277670
897.788195	44.206134
898.195442	44.144415
898.602655	44.044647
899.009834	43.954076
899.416978	43.810793
899.824088	43.680656
900.231163	43.519490
900.638204	43.363705
901.045210	43.185078
901.452181	43.002938
901.859118	42.784197
902.266021	42.561368
902.672888	42.347359
903.079721	42.103208
903.486520	41.864118
903.893283	41.643924
904.300012	41.387480
904.706707	41.153763
905.113366	40.927402
905.519991	40.706138
905.926581	40.496253
906.333136	40.277073
906.739656	40.088607
907.146142	39.903425
907.552592	39.741176
907.959008	39.580208
908.365389	39.455687
908.771735	39.337448
909.178046	39.215438
909.584322	39.097718
909.990563	39.007720
910.396769	38.908555
910.802940	38.817621
911.209076	38.749751
911.615177	38.674339
912.021243	38.634129
912.427274	38.586338
912.833270	38.540654
913.239231	38.463172
913.645156	38.401297
914.051046	38.338377
914.456902	38.279542
914.862721	38.214764
915.268506	38.141776
915.674256	38.081548
916.079970	38.001228
916.485649	37.885557
916.891292	37.791025
917.296901	37.675312
917.702474	37.553078
918.108011	37.407080
918.513514	37.235685
918.918980	37.087238
919.324412	36.899497
919.729808	36.698421
920.135169	36.504778
920.540494	36.305654
920.945783	36.090866
921.351037	35.883542
921.756256	35.690041
922.161439	35.491230
922.566586	35.256519
922.971698	35.052784
923.376775	34.838980
923.781815	34.635469
924.186820	34.439032
924.591790	34.218484
924.996723	34.013713
925.401621	33.804765
925.806484	33.617067
926.211310	33.437328
926.616101	33.298719
927.020856	33.137635
927.425575	32.994766
927.830259	32.863398
928.234906	32.725780
928.639518	32.621027
929.044094	32.517776
929.448634	32.445400
929.853138	32.389531
930.257606	32.334740
930.662038	32.305073
931.066434	32.287769
931.470795	32.257599
931.875119	32.274946
932.279407	32.313733
932.683659	32.334639
933.087875	32.355997
933.492055	32.348393
933.896199	32.358666
934.300307	32.358857
934.704379	32.370423
935.108414	32.389950
935.512414	32.407251
935.916377	32.406354
936.320304	32.396473
936.724195	32.391054
937.128049	32.394541
937.531867	32.373782
937.935649	32.346465
938.339395	32.288924
938.743104	32.243995
939.146777	32.182561
939.550414	32.138007
939.954014	32.077944
940.357578	31.991583
940.761105	31.930455
941.164596	31.830630
941.568050	31.763885
941.971468	31.653203
942.374850	31.533806
942.778195	31.415244
943.181503	31.303301
943.584775	31.181468
943.988010	31.068172
944.391209	30.941290
944.794371	30.811261
945.197496	30.676086
945.600585	30.568733
946.003637	30.473650
946.406653	30.380579
946.809632	30.254108
947.212574	30.135819
947.615479	30.046925
948.018347	29.950130
948.421179	29.835003
948.823974	29.753498
949.226732	29.614204
949.629453	29.523709
950.032138	29.416559
950.434785	29.343562
950.837396	29.288683
951.239969	29.177631
951.642506	29.063081
952.045006	28.950992
952.447469	28.845620
952.849895	28.757860
953.252283	28.645299
953.654635	28.551433
954.056950	28.432191
954.459227	28.315838
954.861468	28.164352
955.263671	28.045272
955.665838	27.864508
956.067967	27.744074
956.470059	27.599017
956.872114	27.474815
957.274131	27.314455
957.676112	27.169529
958.078055	27.002792
958.479961	26.831452
958.881829	26.622156
959.283661	26.449982
959.685455	26.248119
960.087211	26.052831
960.488931	25.837469
960.890613	25.682942
961.292257	25.463856
961.693864	25.322031
962.095434	25.134920
962.496966	24.975572
962.898461	24.798306
963.299918	24.617066
963.701338	24.474494
964.102720	24.344011
964.504065	24.226598
964.905372	24.078608
965.306641	23.992806
965.707873	23.870343
966.109068	23.764730
966.510224	23.679424
966.911343	23.567148
967.312425	23.533453
967.713468	23.441042
968.114474	23.437104
968.515442	23.365313
968.916373	23.332447
969.317265	23.264007
969.718120	23.214653
970.118937	23.170535
970.519716	23.166131
970.920458	23.151070
971.321161	23.124295
971.721827	23.117617
972.122454	23.124581
972.523044	23.137485
972.923596	23.142556
973.324110	23.117545
973.724585	23.157205
974.125023	23.145844
974.525423	23.146587
974.925785	23.183451
975.326108	23.222150
975.726394	23.231778
976.126642	23.253303
976.526851	23.295879
976.927022	23.299000
977.327155	23.357670
977.727250	23.360068
978.127307	23.396093
978.527325	23.439908
978.927306	23.483683
979.327248	23.535992
979.727151	23.585553
980.127017	23.699836
980.526844	23.724019
980.926633	23.827069
981.326383	23.851539
981.726095	23.893270
982.125769	23.945676
982.525404	24.020921
982.925001	24.051113
983.324560	24.119788
983.724079	24.241879
984.123561	24.408493
984.523004	24.549668
984.922408	24.627541
985.321774	24.685802
985.721102	24.858156
986.120390	24.958732
986.519641	25.174816
986.918852	25.330116
987.318025	25.552658
987.717159	25.700437
988.116255	25.918649
988.515312	26.181094
988.914330	26.323589
989.313310	26.524734
989.712250	26.789071
990.111152	27.040240
990.510015	27.290411
990.908840	27.499152
991.307625	27.751291
991.706372	28.051085
992.105080	28.293364
992.503749	28.490872
992.902379	28.717598
993.300970	28.959368
993.699522	29.346212
994.098035	29.688880
994.496510	29.971102
994.894945	30.347739
995.293341	30.549044
995.691698	30.795287
996.090016	31.137828
996.488296	31.291004
996.886535	31.656638
997.284736	32.005995
997.682898	32.443063
998.081021	32.883850
998.479104	33.226316
998.877148	33.633558
999.275153	34.157979
999.673119	34.404230
1000.071046	34.826723
1000.468933	35.158927
1000.866781	35.423260
1001.264590	35.772120
1001.662359	36.294766
1002.060089	36.588358
1002.457780	36.853685
1002.855431	37.261464
1003.253043	37.712871
1003.650615	38.081061
1004.048148	38.679703
1004.445642	39.124414
1004.843096	39.509319
1005.240511	40.234302
1005.637886	40.831512
1006.035221	41.206863
1006.432517	41.804773
1006.829774	42.449727
1007.226991	42.771033
1007.624168	43.653020
1008.021306	44.426917
1008.418404	45.063011
1008.815462	46.052319
1009.212481	46.650426
1009.609460	47.640990
1010.006399	48.656624
1010.403298	49.388975
1010.800158	50.533143
1011.196978	51.292617
1011.593758	52.174419
1011.990498	53.076415
1012.387199	54.086227
1012.783860	55.419223
1013.180480	56.628738
1013.577061	58.150620
1013.973602	59.660922
1014.370103	61.342292
1014.766564	62.357588
1015.162985	63.282504
1015.559366	64.379612
1015.955708	65.417712
1016.352009	66.177167
1016.748270	67.235666
1017.144491	68.533333
1017.540671	69.457400
1017.936812	70.620372
1018.332913	71.974687
1018.728973	72.655927
1019.124994	74.047934
1019.520974	75.826087
1019.916914	76.895492
1020.312814	78.395860
