Time1=100ms:Average1=5:Objective=10X:Aperture=1: (11/21/2018 10:28:55 AM)
11/21/2018 10:28:55 AM
Reflectance
10X
Ap#: 1
Avg1: 5.000000
Avg2: 0.000000
Int.Time1:100.000000

350.166136	104.858862
350.601937	106.030199
351.037728	106.729646
351.473509	107.003130
351.909281	107.429699
352.345042	107.535944
352.780794	107.470524
353.216536	108.010310
353.652267	108.310965
354.087989	108.100308
354.523701	107.905217
354.959403	107.546420
355.395095	107.935561
355.830777	107.801136
356.266449	107.939206
356.702110	107.891047
357.137762	107.415170
357.573404	107.248550
358.009035	106.884166
358.444656	107.165047
358.880268	107.517061
359.315869	107.502011
359.751459	108.004430
360.187040	108.117635
360.622610	107.968892
361.058170	108.937468
361.493720	108.421373
361.929260	108.163472
362.364789	108.563873
362.800308	107.931839
363.235816	107.209208
363.671314	107.712524
364.106802	107.436104
364.542279	107.563195
364.977746	107.395077
365.413203	107.364926
365.848649	106.934380
366.284084	106.636409
366.719509	105.929212
367.154924	106.270827
367.590328	106.405084
368.025721	106.952304
368.461104	106.966633
368.896477	106.947666
369.331838	107.341210
369.767189	107.247984
370.202530	106.958270
370.637859	107.514045
371.073178	107.232516
371.508486	107.269116
371.943784	106.602191
372.379071	106.520234
372.814347	106.877470
373.249612	106.264752
373.684866	106.131844
374.120110	106.681034
374.555343	106.401249
374.990565	106.827270
375.425776	106.992459
375.860976	106.762955
376.296165	106.691341
376.731343	106.606344
377.166511	106.165180
377.601667	106.342412
378.036812	106.557536
378.471946	107.116576
378.907070	107.159398
379.342182	107.350394
379.777283	107.644351
380.212373	108.210244
380.647452	107.871164
381.082520	107.501897
381.517576	107.962418
381.952622	107.985223
382.387656	108.098392
382.822679	108.164617
383.257691	107.401813
383.692692	107.486328
384.127681	107.030440
384.562659	107.273931
384.997626	106.974988
385.432581	107.563581
385.867525	107.619048
386.302458	107.558743
386.737379	107.803087
387.172289	108.003784
387.607188	107.743216
388.042075	106.976305
388.476951	106.800038
388.911815	107.028545
389.346668	106.629371
389.781509	106.411803
390.216338	106.656777
390.651157	106.400443
391.085963	106.319086
391.520758	106.190213
391.955541	105.487358
392.390313	105.156150
392.825073	104.967978
393.259821	105.031101
393.694558	104.281541
394.129283	104.055165
394.563996	104.378219
394.998698	103.678960
395.433388	103.643836
395.868066	103.605330
396.302732	103.438526
396.737386	103.935648
397.172029	104.294534
397.606659	104.198335
398.041278	103.530259
398.475885	103.298876
398.910480	102.346957
399.345063	100.923727
399.779634	100.008714
400.214194	98.604050
400.648741	97.165753
401.083276	95.316237
401.517799	93.367593
401.952310	90.473221
402.386809	87.976208
402.821296	85.137389
403.255771	82.085804
403.690234	78.685034
404.124684	75.119949
404.559123	71.176050
404.993549	67.147409
405.427963	63.475437
405.862365	59.889519
406.296754	56.566441
406.731131	53.252499
407.165496	50.229612
407.599849	47.583945
408.034190	44.922236
408.468518	42.409278
408.902833	39.959192
409.337137	37.599408
409.771428	35.464820
410.205706	33.521501
410.639973	31.573595
411.074226	29.912447
411.508467	28.566186
411.942696	27.323275
412.376912	26.208565
412.811116	25.261111
413.245307	24.414199
413.679486	23.586502
414.113652	22.828138
414.547805	22.090659
414.981946	21.391941
415.416074	20.784195
415.850190	20.144354
416.284293	19.561068
416.718383	19.125689
417.152460	18.659256
417.586525	18.248474
418.020577	17.924191
418.454616	17.641587
418.888643	17.305537
419.322656	17.029160
419.756657	16.731171
420.190645	16.454076
420.624620	16.194268
421.058582	15.881681
421.492531	15.633641
421.926468	15.406233
422.360391	15.197266
422.794301	15.040689
423.228199	14.935506
423.662083	14.823383
424.095955	14.747517
424.529813	14.676827
424.963658	14.570756
425.397491	14.489259
425.831310	14.384308
426.265116	14.251871
426.698909	14.127841
427.132689	14.027011
427.566455	13.916458
428.000209	13.861070
428.433949	13.807215
428.867676	13.769336
429.301389	13.714388
429.735090	13.673623
430.168777	13.615939
430.602451	13.552461
431.036111	13.470702
431.469759	13.384337
431.903392	13.247931
432.337013	13.164130
432.770620	13.059692
433.204213	13.002436
433.637794	12.952835
434.071360	12.923872
434.504914	12.908993
434.938453	12.908816
435.371979	12.909248
435.805492	12.914117
436.238991	12.895767
436.672477	12.873405
437.105949	12.858730
437.539407	12.838203
437.972852	12.790452
438.406283	12.738329
438.839700	12.673968
439.273104	12.651636
439.706494	12.637084
440.139871	12.616010
440.573233	12.582795
441.006582	12.558991
441.439917	12.529605
441.873238	12.495340
442.306546	12.440714
442.739839	12.389663
443.173119	12.327803
443.606385	12.246856
444.039636	12.176646
444.472874	12.134843
444.906099	12.091140
445.339309	12.070699
445.772505	12.062192
446.205687	12.050369
446.638855	12.024751
447.072009	12.007447
447.505149	11.991283
447.938275	11.976537
448.371387	11.956885
448.804485	11.930131
449.237569	11.915459
449.670638	11.877961
450.103694	11.825000
450.536735	11.765409
450.969762	11.716182
451.402774	11.682091
451.835773	11.649883
452.268757	11.638456
452.701727	11.621512
453.134683	11.591093
453.567624	11.593638
454.000551	11.598415
454.433464	11.586013
454.866362	11.554016
455.299246	11.536778
455.732116	11.512379
456.164971	11.485334
456.597811	11.469065
457.030638	11.468567
457.463449	11.477203
457.896246	11.467486
458.329029	11.484985
458.761797	11.502019
459.194551	11.520891
459.627290	11.557270
460.060014	11.592832
460.492724	11.638433
460.925419	11.688850
461.358099	11.746878
461.790765	11.802396
462.223416	11.856051
462.656052	11.895055
463.088674	11.961920
463.521281	12.041641
463.953873	12.121673
464.386450	12.191867
464.819012	12.278579
465.251560	12.382505
465.684093	12.501865
466.116611	12.629454
466.549114	12.790381
466.981602	12.939354
467.414075	13.100790
467.846533	13.269040
468.278977	13.440185
468.711405	13.616491
469.143818	13.798598
469.576216	13.979397
470.008600	14.159591
470.440968	14.340663
470.873321	14.505493
471.305659	14.685126
471.737982	14.862888
472.170289	15.033699
472.602582	15.206243
473.034859	15.388561
473.467122	15.587712
473.899369	15.809041
474.331600	16.035318
474.763817	16.279283
475.196018	16.531691
475.628204	16.805359
476.060375	17.084530
476.492530	17.373731
476.924670	17.653055
477.356795	17.923178
477.788904	18.196244
478.220998	18.456638
478.653076	18.708433
479.085139	18.939871
479.517186	19.173730
479.949219	19.400725
480.381235	19.644204
480.813236	19.896657
481.245221	20.173966
481.677191	20.447661
482.109146	20.733952
482.541084	21.009471
482.973008	21.271992
483.404915	21.517942
483.836807	21.754601
484.268683	21.989240
484.700544	22.195748
485.132388	22.374221
485.564217	22.540082
485.996031	22.694600
486.427828	22.836645
486.859610	22.960347
487.291376	23.056142
487.723126	23.155105
488.154860	23.244831
488.586579	23.344251
489.018281	23.456837
489.449968	23.593195
489.881639	23.737250
490.313293	23.898703
490.744932	24.082434
491.176555	24.267758
491.608162	24.446604
492.039753	24.603341
492.471328	24.731246
492.902886	24.822474
493.334429	24.881330
493.765956	24.895542
494.197466	24.900699
494.628960	24.871731
495.060439	24.860372
495.491901	24.850065
495.923347	24.856614
496.354776	24.903630
496.786190	24.979277
497.217587	25.073432
497.648968	25.167614
498.080332	25.273671
498.511681	25.382196
498.943013	25.489744
499.374328	25.571769
499.805628	25.627100
500.236911	25.658622
500.668177	25.683920
501.099427	25.686726
501.530661	25.678534
501.961878	25.653936
502.393079	25.624342
502.824264	25.585368
503.255431	25.557291
503.686583	25.534557
504.117717	25.523761
504.548835	25.544632
504.979937	25.606461
505.411022	25.707285
505.842090	25.860316
506.273142	26.051563
506.704177	26.291054
507.135195	26.546674
507.566197	26.822354
507.997182	27.094704
508.428150	27.353642
508.859102	27.586385
509.290036	27.816840
509.720954	28.006316
510.151855	28.192508
510.582739	28.364733
511.013607	28.554715
511.444457	28.777859
511.875291	29.016188
512.306107	29.322957
512.736907	29.676037
513.167690	30.078547
513.598456	30.548314
514.029205	31.026749
514.459936	31.539929
514.890651	32.067023
515.321349	32.597614
515.752030	33.118572
516.182693	33.607999
516.613340	34.076097
517.043969	34.509573
517.474582	34.916782
517.905177	35.280737
518.335755	35.617101
518.766315	35.936071
519.196859	36.205677
519.627385	36.475666
520.057894	36.738271
520.488386	37.003807
520.918860	37.277654
521.349318	37.600590
521.779757	37.956857
522.210180	38.374165
522.640585	38.816219
523.070973	39.314081
523.501343	39.836265
523.931696	40.390757
524.362031	40.964175
524.792349	41.522257
525.222650	42.074877
525.652933	42.566525
526.083198	43.013929
526.513446	43.417968
526.943677	43.732554
527.373890	44.026753
527.804085	44.273696
528.234262	44.500325
528.664422	44.728505
529.094565	44.946054
529.524689	45.214016
529.954796	45.507927
530.384885	45.833500
530.814957	46.204107
531.245011	46.617276
531.675047	47.049221
532.105065	47.504021
532.535065	47.968863
532.965048	48.412571
533.395013	48.801080
533.824959	49.153445
534.254888	49.452651
534.684799	49.666047
535.114693	49.822683
535.544568	49.908429
535.974425	49.937417
536.404264	49.894658
536.834086	49.800756
537.263889	49.667471
537.693674	49.494079
538.123441	49.307123
538.553190	49.130631
538.982921	48.962888
539.412634	48.832259
539.842329	48.735139
540.272006	48.701052
540.701664	48.707719
541.131304	48.761155
541.560926	48.868922
541.990530	48.995519
542.420116	49.178203
542.849683	49.365277
543.279232	49.560369
543.708763	49.743658
544.138275	49.898213
544.567769	50.026618
544.997245	50.127619
545.426702	50.182268
545.856141	50.223768
546.285562	50.253485
546.714964	50.280559
547.144347	50.297446
547.573713	50.334935
548.003059	50.399976
548.432387	50.505443
548.861697	50.648859
549.290988	50.834091
549.720260	51.091712
550.149514	51.412945
550.578750	51.783903
551.007966	52.203029
551.437164	52.668421
551.866344	53.137160
552.295504	53.625464
552.724646	54.105314
553.153769	54.565705
553.582874	54.987397
554.011960	55.366146
554.441027	55.689909
554.870075	55.942976
555.299104	56.145464
555.728115	56.282938
556.157106	56.361651
556.586079	56.390834
557.015033	56.417878
557.443968	56.427518
557.872884	56.430248
558.301781	56.449464
558.730659	56.503775
559.159518	56.593442
559.588358	56.714488
560.017180	56.888213
560.445982	57.129995
560.874765	57.415618
561.303528	57.754450
561.732273	58.121087
562.160999	58.522826
562.589705	58.956198
563.018393	59.396580
563.447061	59.847502
563.875710	60.301012
564.304340	60.748926
564.732950	61.162562
565.161542	61.578147
565.590114	61.965265
566.018666	62.342514
566.447200	62.694268
566.875714	63.031726
567.304208	63.362267
567.732684	63.687419
568.161140	64.013606
568.589576	64.343917
569.017993	64.688818
569.446391	65.067716
569.874769	65.485321
570.303128	65.923808
570.731467	66.400619
571.159787	66.923055
571.588087	67.479924
572.016368	68.064648
572.444629	68.675170
572.872870	69.284659
573.301092	69.887802
573.729294	70.454889
574.157476	70.975186
574.585639	71.435401
575.013782	71.825312
575.441906	72.139195
575.870009	72.363162
576.298093	72.489502
576.726157	72.513598
577.154202	72.463888
577.582226	72.358072
578.010231	72.218626
578.438216	72.022987
578.866181	71.818231
579.294126	71.591331
579.722051	71.404222
580.149957	71.236042
580.577842	71.073947
581.005707	70.967799
581.433553	70.882850
581.861378	70.854411
582.289184	70.846568
582.716969	70.862656
583.144734	70.888158
583.572479	70.945887
584.000205	71.008828
584.427910	71.083141
584.855594	71.163712
585.283259	71.256314
585.710904	71.366467
586.138528	71.477901
586.566132	71.608857
586.993716	71.760942
587.421280	71.930398
587.848823	72.117945
588.276346	72.321400
588.703849	72.522128
589.131332	72.728999
589.558794	72.948378
589.986236	73.176138
590.413657	73.414854
590.841058	73.652336
591.268438	73.889230
591.695799	74.154861
592.123138	74.454800
592.550458	74.791193
592.977756	75.136033
593.405034	75.523011
593.832292	75.966125
594.259529	76.430768
594.686746	76.946759
595.113942	77.470143
595.541117	78.025454
595.968272	78.585613
596.395406	79.151761
596.822519	79.683787
597.249612	80.200083
597.676684	80.659666
598.103735	81.062152
598.530766	81.397224
598.957775	81.642843
599.384764	81.838863
599.811733	81.953206
600.238680	82.009467
600.665606	82.006823
601.092512	81.972022
601.519397	81.901553
601.946261	81.845193
602.373104	81.778829
602.799926	81.745418
603.226727	81.713998
603.653507	81.692857
604.080266	81.688825
604.507004	81.693203
604.933721	81.716723
605.360417	81.732738
605.787092	81.725882
606.213746	81.708650
606.640379	81.670852
607.066991	81.621824
607.493581	81.558126
607.920150	81.476904
608.346699	81.376484
608.773226	81.280784
609.199731	81.176257
609.626216	81.070138
610.052679	80.984568
610.479121	80.906541
610.905542	80.848986
611.331941	80.805516
611.758319	80.789127
612.184676	80.784272
612.611011	80.786156
613.037325	80.814768
613.463617	80.837854
613.889888	80.882549
614.316138	80.915195
614.742366	80.934680
615.168573	80.944756
615.594758	80.949099
616.020921	80.927636
616.447063	80.921434
616.873184	80.932639
617.299283	80.939411
617.725360	80.988989
618.151416	81.062349
618.577450	81.163477
619.003462	81.304654
619.429453	81.479417
619.855422	81.710759
620.281369	81.960306
620.707295	82.229979
621.133199	82.516953
621.559081	82.830770
621.984941	83.112590
622.410779	83.390362
622.836596	83.637080
623.262391	83.845586
623.688163	84.016085
624.113914	84.155224
624.539644	84.261590
624.965351	84.311049
625.391036	84.337537
625.816699	84.357255
626.242340	84.333779
626.667960	84.305551
627.093557	84.266264
627.519132	84.234281
627.944685	84.225447
628.370216	84.200069
628.795725	84.206780
629.221212	84.217601
629.646677	84.228169
630.072119	84.209308
630.497540	84.206296
630.922938	84.167121
631.348314	84.102375
631.773668	84.005827
632.198999	83.880468
632.624308	83.720553
633.049595	83.503965
633.474860	83.263955
633.900102	82.999376
634.325322	82.721692
634.750520	82.422399
635.175695	82.136791
635.600848	81.854315
636.025978	81.605630
636.451086	81.376196
636.876171	81.188085
637.301234	81.039175
637.726275	80.921341
638.151293	80.848754
638.576288	80.810207
639.001261	80.802192
639.426211	80.820171
639.851139	80.862410
640.276044	80.910601
640.700927	80.964082
641.125787	81.015511
641.550624	81.067441
641.975438	81.106694
642.400230	81.115630
642.824999	81.119626
643.249745	81.127757
643.674469	81.117013
644.099169	81.114002
644.523847	81.112383
644.948502	81.121088
645.373135	81.149239
645.797744	81.200370
646.222330	81.290205
646.646894	81.395699
647.071435	81.530155
647.495953	81.685731
647.920447	81.861132
648.344919	82.059486
648.769368	82.274533
649.193794	82.492510
649.618197	82.725637
650.042576	82.932966
650.466933	83.132944
650.891267	83.316536
651.315577	83.486049
651.739864	83.652236
652.164129	83.788616
652.588370	83.897093
653.012587	84.007179
653.436782	84.082264
653.860953	84.130666
654.285102	84.170783
654.709226	84.205376
655.133328	84.218696
655.557406	84.232630
655.981461	84.234938
656.405493	84.215434
656.829501	84.171452
657.253486	84.108259
657.677448	83.996990
658.101386	83.867517
658.525301	83.689012
658.949192	83.461065
659.373060	83.175258
659.796904	82.852751
660.220725	82.470485
660.644522	82.048581
661.068296	81.578282
661.492046	81.069717
661.915772	80.534079
662.339475	79.988347
662.763154	79.428209
663.186810	78.885394
663.610442	78.353519
664.034050	77.861253
664.457635	77.408365
664.881196	76.993780
665.304733	76.646135
665.728247	76.372699
666.151736	76.150000
666.575202	76.024843
666.998644	75.966311
667.422062	75.969170
667.845457	76.029539
668.268827	76.157744
668.692174	76.333919
669.115496	76.548745
669.538795	76.791494
669.962070	77.054946
670.385321	77.331354
670.808547	77.614036
671.231750	77.879581
671.654929	78.143540
672.078084	78.407106
672.501214	78.652194
672.924321	78.879028
673.347404	79.104360
673.770462	79.295437
674.193496	79.487675
674.616506	79.672612
675.039492	79.846586
675.462454	80.012639
675.885391	80.176277
676.308305	80.332125
676.731194	80.501194
677.154058	80.660421
677.576899	80.821354
677.999715	80.982313
678.422507	81.129716
678.845274	81.280176
679.268017	81.425860
679.690736	81.534176
680.113430	81.661706
680.536100	81.751720
680.958746	81.820218
681.381367	81.855742
681.803963	81.871261
682.226535	81.859253
682.649083	81.837752
683.071605	81.802190
683.494104	81.751652
683.916578	81.698231
684.339027	81.629038
684.761451	81.547686
685.183851	81.457719
685.606227	81.355175
686.028577	81.233978
686.450903	81.095527
686.873204	80.948550
687.295481	80.787955
687.717733	80.596353
688.139959	80.391235
688.562162	80.147608
688.984339	79.878372
689.406492	79.577157
689.828619	79.234403
690.250722	78.869522
690.672800	78.478082
691.094853	78.057706
691.516881	77.618836
691.938884	77.161205
692.360863	76.679903
692.782816	76.220051
693.204744	75.748013
693.626647	75.316776
694.048526	74.909866
694.470379	74.542918
694.892207	74.236879
695.314010	73.990151
695.735788	73.812411
696.157540	73.707219
696.579268	73.676650
697.000970	73.728529
697.422648	73.864566
697.844300	74.076745
698.265926	74.377677
698.687528	74.766072
699.109104	75.241524
699.530655	75.775216
699.952181	76.383852
700.373681	77.040855
700.795156	77.740050
701.216606	78.483188
701.638030	79.254663
702.059429	80.044754
702.480803	80.833474
702.902151	81.617970
703.323473	82.366108
703.744770	83.069598
704.166042	83.745037
704.587288	84.354386
705.008509	84.902303
705.429704	85.420443
705.850873	85.867365
706.272017	86.239713
706.693135	86.540712
707.114228	86.775866
707.535295	86.957972
707.956336	87.066082
708.377352	87.112823
708.798342	87.102703
709.219306	87.041569
709.640245	86.936078
710.061157	86.787027
710.482044	86.604912
710.902905	86.396786
711.323741	86.160581
711.744550	85.889795
712.165334	85.606142
712.586092	85.320776
713.006823	85.011291
713.427529	84.700489
713.848209	84.413083
714.268863	84.113085
714.689492	83.827863
715.110094	83.568049
715.530670	83.327556
715.951220	83.097698
716.371744	82.904167
716.792242	82.758544
717.212714	82.628481
717.633159	82.559066
718.053579	82.514381
718.473973	82.471545
718.894340	82.451301
719.314681	82.459063
719.734996	82.468537
720.155285	82.499895
720.575547	82.514481
720.995784	82.532957
721.415994	82.544888
721.836177	82.523370
722.256335	82.486327
722.676466	82.415708
723.096570	82.300933
723.516649	82.143622
723.936701	81.975369
724.356726	81.735374
724.776725	81.463875
725.196698	81.136712
725.616644	80.763331
726.036564	80.372077
726.456457	79.944980
726.876324	79.482977
727.296164	78.993448
727.715977	78.497659
728.135764	77.987566
728.555525	77.491812
728.975258	77.017654
729.394966	76.562608
729.814646	76.125704
730.234300	75.719804
730.653927	75.319404
731.073527	74.973210
731.493101	74.667711
731.912648	74.403418
732.332168	74.186743
732.751661	74.036578
733.171128	73.937767
733.590568	73.888421
734.009980	73.897192
734.429366	73.958492
734.848726	74.062360
735.268058	74.212139
735.687363	74.395866
736.106641	74.628224
736.525893	74.900521
736.945117	75.170350
737.364314	75.484418
737.783485	75.817136
738.202628	76.173034
738.621744	76.553226
739.040834	76.921213
739.459896	77.290809
739.878931	77.657774
740.297939	78.021259
740.716919	78.367377
741.135873	78.688052
741.554799	78.987497
741.973698	79.252562
742.392570	79.466624
742.811415	79.653519
743.230232	79.796309
743.649022	79.925730
744.067785	80.003613
744.486521	80.059324
744.905229	80.073521
745.323909	80.069597
745.742563	80.027877
746.161189	79.953834
746.579787	79.877980
746.998358	79.778551
747.416902	79.661566
747.835418	79.565856
748.253907	79.452208
748.672368	79.347413
749.090802	79.262330
749.509208	79.181374
749.927586	79.122959
750.345937	79.078758
750.764261	79.058105
751.182556	79.054757
751.600824	79.072822
752.019065	79.128446
752.437277	79.206694
752.855462	79.293286
753.273620	79.408666
753.691749	79.524406
754.109851	79.655396
754.527925	79.800248
754.945971	79.923164
755.363989	80.080961
755.781980	80.206927
756.199943	80.332705
756.617877	80.432751
757.035784	80.513298
757.453663	80.546314
757.871514	80.545407
758.289337	80.488432
758.707132	80.381971
759.124899	80.227789
759.542639	79.993787
759.960350	79.695379
760.378033	79.320681
760.795688	78.868506
761.213314	78.363371
761.630913	77.792598
762.048484	77.134728
762.466026	76.431093
762.883541	75.672556
763.301027	74.857467
763.718485	74.014170
764.135914	73.131407
764.553316	72.217073
764.970689	71.282820
765.388034	70.355602
765.805351	69.437790
766.222639	68.519404
766.639899	67.618369
767.057131	66.729396
767.474334	65.862546
767.891509	65.062484
768.308655	64.291853
768.725773	63.579763
769.142863	62.916421
769.559924	62.301544
769.976957	61.748346
770.393961	61.270186
770.810936	60.862876
771.227883	60.509569
771.644802	60.231899
772.061692	60.014417
772.478553	59.854415
772.895386	59.765192
773.312190	59.746199
773.728965	59.798800
774.145712	59.915737
774.562430	60.086024
774.979119	60.326693
775.395780	60.609331
775.812411	60.942242
776.229014	61.330117
776.645589	61.746856
777.062134	62.195549
777.478651	62.680389
777.895138	63.188908
778.311597	63.708963
778.728027	64.224037
779.144428	64.752612
779.560800	65.293534
779.977143	65.827136
780.393458	66.345243
780.809743	66.836865
781.225999	67.311776
781.642226	67.755503
782.058425	68.170287
782.474594	68.546689
782.890734	68.885601
783.306845	69.172410
783.722926	69.414678
784.138979	69.615479
784.555003	69.753041
784.970997	69.838029
785.386962	69.906407
785.802898	69.915169
786.218805	69.886247
786.634682	69.810499
787.050531	69.701085
787.466349	69.568041
787.882139	69.409311
788.297899	69.248083
788.713630	69.087870
789.129332	68.916739
789.545004	68.758797
789.960647	68.614338
790.376260	68.503910
790.791844	68.405945
791.207399	68.329110
791.622924	68.301953
792.038419	68.326507
792.453885	68.378481
792.869321	68.475060
793.284728	68.640123
793.700106	68.856802
794.115453	69.106853
794.530771	69.409326
794.946060	69.746299
795.361319	70.140605
795.776548	70.547844
796.191747	70.985892
796.606917	71.455862
797.022057	71.933679
797.437167	72.427699
797.852248	72.927454
798.267298	73.410072
798.682319	73.881721
799.097310	74.338324
799.512271	74.751801
799.927203	75.137361
800.342104	75.503224
800.756976	75.798753
801.171818	76.040164
801.586629	76.210549
802.001411	76.322940
802.416163	76.368477
802.830885	76.365953
803.245577	76.288326
803.660238	76.163064
804.074870	75.971765
804.489472	75.734302
804.904043	75.439167
805.318585	75.096177
805.733096	74.722557
806.147577	74.302182
806.562028	73.841455
806.976449	73.348546
807.390840	72.822799
807.805200	72.284909
808.219530	71.721007
808.633830	71.172528
809.048100	70.638120
809.462339	70.078431
809.876548	69.540666
810.290727	69.009551
810.704875	68.499181
811.118993	68.019193
811.533080	67.563096
811.947137	67.138823
812.361164	66.751352
812.775160	66.392297
813.189126	66.067442
813.603061	65.793129
814.016966	65.566112
814.430840	65.397948
814.844684	65.286769
815.258497	65.227759
815.672280	65.225335
816.086032	65.261982
816.499753	65.358037
816.913444	65.523024
817.327104	65.729647
817.740733	65.964830
818.154331	66.279318
818.567899	66.631127
818.981436	67.008169
819.394943	67.439877
819.808418	67.897489
820.221863	68.385692
820.635277	68.908561
821.048660	69.452621
821.462013	70.019103
821.875334	70.589702
822.288625	71.177465
822.701884	71.775043
823.115113	72.379606
823.528311	72.945755
823.941478	73.485265
824.354614	73.998921
824.767718	74.465801
825.180792	74.881058
825.593835	75.233345
826.006847	75.519093
826.419827	75.769698
826.832777	75.923164
827.245695	76.004096
827.658582	75.998647
828.071438	75.906341
828.484263	75.711517
828.897057	75.436601
829.309819	75.067746
829.722551	74.612729
830.135251	74.087014
830.547919	73.490589
830.960557	72.794411
831.373163	72.046631
831.785738	71.259320
832.198281	70.411003
832.610793	69.552450
833.023274	68.666543
833.435723	67.765444
833.848141	66.871046
834.260528	65.961948
834.672883	65.068882
835.085206	64.203060
835.497498	63.363103
835.909758	62.547022
836.321987	61.798760
836.734185	61.089997
837.146350	60.443860
837.558485	59.855051
837.970587	59.327482
838.382658	58.865025
838.794697	58.450111
839.206705	58.082374
839.618681	57.772242
840.030625	57.519953
840.442538	57.319595
840.854418	57.164924
841.266267	57.053955
841.678084	56.993476
842.089870	56.979182
842.501623	57.000906
842.913345	57.030592
843.325035	57.100287
843.736693	57.185718
844.148319	57.303225
844.559913	57.422390
844.971475	57.565516
845.383005	57.715956
845.794504	57.882654
846.205970	58.057868
846.617404	58.245596
847.028806	58.410315
847.440176	58.575776
847.851514	58.725786
848.262820	58.864816
848.674094	58.991191
849.085336	59.096859
849.496546	59.197610
849.907723	59.279574
850.318868	59.315233
850.729981	59.334977
851.141062	59.345653
851.552110	59.328771
851.963127	59.284414
852.374111	59.243826
852.785062	59.180464
853.195982	59.101265
853.606869	58.997837
854.017723	58.909167
854.428546	58.798921
854.839336	58.653200
855.250093	58.499857
855.660818	58.375187
856.071511	58.223912
856.482171	58.088695
856.892799	57.917839
857.303394	57.767917
857.713956	57.616454
858.124486	57.476971
858.534984	57.322217
858.945449	57.150872
859.355881	56.950963
859.766280	56.799582
860.176647	56.618240
860.586982	56.444189
860.997283	56.268384
861.407552	56.096030
861.817789	55.934083
862.227992	55.768616
862.638163	55.572505
863.048301	55.412601
863.458406	55.256557
863.868478	55.078524
864.278518	54.919767
864.688524	54.781962
865.098498	54.633685
865.508439	54.497015
865.918347	54.377941
866.328222	54.283699
866.738064	54.178747
867.147873	54.091516
867.557649	54.037606
867.967392	53.996680
868.377102	53.968055
868.786779	53.963978
869.196423	53.989517
869.606034	54.058102
870.015612	54.124579
870.425156	54.243124
870.834668	54.353851
871.244146	54.507964
871.653591	54.705871
872.063003	54.929863
872.472382	55.149012
872.881728	55.391451
873.291040	55.642798
873.700319	55.912631
874.109564	56.189040
874.518777	56.460658
874.927956	56.724235
875.337102	57.024473
875.746214	57.314362
876.155293	57.580979
876.564338	57.851648
876.973350	58.111905
877.382329	58.319746
877.791274	58.543236
878.200186	58.728107
878.609064	58.866644
879.017909	58.991166
879.426720	59.104118
879.835497	59.160055
880.244241	59.184669
880.652952	59.175265
881.061629	59.126570
881.470272	59.053585
881.878881	58.922253
882.287457	58.767675
882.695999	58.610933
883.104507	58.384771
883.512982	58.164949
883.921423	57.900185
884.329830	57.586773
884.738203	57.248469
885.146543	56.927720
885.554849	56.592349
885.963120	56.271731
886.371358	55.942074
886.779563	55.625867
887.187733	55.313573
887.595869	55.031006
888.003971	54.741354
888.412040	54.471754
888.820074	54.266762
889.228074	54.075754
889.636041	53.911667
890.043973	53.793831
890.451871	53.691890
890.859736	53.631617
891.267566	53.629384
891.675362	53.646149
892.083124	53.694284
892.490851	53.801515
892.898545	53.956661
893.306204	54.147551
893.713829	54.370556
894.121420	54.637015
894.528977	54.940339
894.936499	55.258307
895.343987	55.603575
895.751441	55.989535
896.158860	56.370846
896.566246	56.811093
896.973596	57.275566
897.380913	57.764464
897.788195	58.253932
898.195442	58.778231
898.602655	59.282460
899.009834	59.791036
899.416978	60.299682
899.824088	60.805805
900.231163	61.283960
900.638204	61.781109
901.045210	62.251158
901.452181	62.680376
901.859118	63.078484
902.266021	63.473776
902.672888	63.830033
903.079721	64.162340
903.486520	64.443593
903.893283	64.692262
904.300012	64.881119
904.706707	65.052930
905.113366	65.184257
905.519991	65.268236
905.926581	65.300392
906.333136	65.285757
906.739656	65.213693
907.146142	65.117192
907.552592	65.022434
907.959008	64.840717
908.365389	64.625295
908.771735	64.410754
909.178046	64.106619
909.584322	63.778087
909.990563	63.432607
910.396769	63.035863
910.802940	62.603752
911.209076	62.162746
911.615177	61.713827
912.021243	61.266987
912.427274	60.801193
912.833270	60.337942
913.239231	59.822996
913.645156	59.328530
914.051046	58.825004
914.456902	58.334561
914.862721	57.824116
915.268506	57.338803
915.674256	56.845353
916.079970	56.371178
916.485649	55.892602
916.891292	55.457749
917.296901	54.982744
917.702474	54.557631
918.108011	54.125161
918.513514	53.716388
918.918980	53.328057
919.324412	52.969104
919.729808	52.612433
920.135169	52.239445
920.540494	51.947664
920.945783	51.667506
921.351037	51.396546
921.756256	51.176939
922.161439	50.958180
922.566586	50.746307
922.971698	50.581532
923.376775	50.427817
923.781815	50.283165
924.186820	50.152323
924.591790	50.025608
924.996723	49.911689
925.401621	49.803795
925.806484	49.727264
926.211310	49.660982
926.616101	49.614831
927.020856	49.577779
927.425575	49.542418
927.830259	49.523154
928.234906	49.504443
928.639518	49.475044
929.044094	49.445711
929.448634	49.429427
929.853138	49.416122
930.257606	49.385184
930.662038	49.351846
931.066434	49.329907
931.470795	49.298784
931.875119	49.286765
932.279407	49.264637
932.683659	49.250918
933.087875	49.192408
933.492055	49.132358
933.896199	49.067103
934.300307	49.004917
934.704379	48.963285
935.108414	48.894941
935.512414	48.840047
935.916377	48.763331
936.320304	48.689976
936.724195	48.600614
937.128049	48.489898
937.531867	48.375866
937.935649	48.267561
938.339395	48.149181
938.743104	48.035134
939.146777	47.896148
939.550414	47.742705
939.954014	47.603766
940.357578	47.425268
940.761105	47.266117
941.164596	47.129683
941.568050	47.012150
941.971468	46.824472
942.374850	46.692166
942.778195	46.539930
943.181503	46.411090
943.584775	46.253760
943.988010	46.117549
944.391209	45.944265
944.794371	45.794157
945.197496	45.646654
945.600585	45.516099
946.003637	45.404872
946.406653	45.306000
946.809632	45.194635
947.212574	45.072331
947.615479	44.994760
948.018347	44.872089
948.421179	44.777671
948.823974	44.699081
949.226732	44.601064
949.629453	44.518237
950.032138	44.489513
950.434785	44.452698
950.837396	44.426892
951.239969	44.350015
951.642506	44.297591
952.045006	44.266776
952.447469	44.215041
952.849895	44.189098
953.252283	44.155178
953.654635	44.135329
954.056950	44.082575
954.459227	44.070703
954.861468	43.991010
955.263671	43.935449
955.665838	43.878583
956.067967	43.847086
956.470059	43.815897
956.872114	43.797934
957.274131	43.811594
957.676112	43.762384
958.078055	43.726780
958.479961	43.695836
958.881829	43.629714
959.283661	43.547259
959.685455	43.438718
960.087211	43.369965
960.488931	43.287506
960.890613	43.233476
961.292257	43.111774
961.693864	43.095190
962.095434	43.050077
962.496966	42.952002
962.898461	42.844900
963.299918	42.781522
963.701338	42.742291
964.102720	42.730337
964.504065	42.672945
964.905372	42.627713
965.306641	42.598530
965.707873	42.571643
966.109068	42.499388
966.510224	42.485663
966.911343	42.466365
967.312425	42.518554
967.713468	42.534285
968.114474	42.548674
968.515442	42.540647
968.916373	42.565187
969.317265	42.573809
969.718120	42.573581
970.118937	42.607592
970.519716	42.651267
970.920458	42.651376
971.321161	42.659318
971.721827	42.673692
972.122454	42.756706
972.523044	42.816347
972.923596	42.905207
973.324110	42.909134
973.724585	43.015489
974.125023	43.016103
974.525423	43.012482
974.925785	43.052963
975.326108	43.053149
975.726394	43.041189
976.126642	43.034071
976.526851	42.999286
976.927022	42.974928
977.327155	42.969872
977.727250	42.951486
978.127307	42.891662
978.527325	42.910140
978.927306	42.857403
979.327248	42.799689
979.727151	42.775202
980.127017	42.701013
980.526844	42.626043
980.926633	42.613777
981.326383	42.478723
981.726095	42.410041
982.125769	42.288822
982.525404	42.229026
982.925001	42.084574
983.324560	41.982131
983.724079	41.805332
984.123561	41.815140
984.523004	41.692058
984.922408	41.544100
985.321774	41.481464
985.721102	41.435617
986.120390	41.348807
986.519641	41.263047
986.918852	41.207170
987.318025	41.187563
987.717159	41.208356
988.116255	41.161880
988.515312	41.136638
988.914330	41.063230
989.313310	41.053507
989.712250	41.107708
990.111152	41.104940
990.510015	41.106419
990.908840	41.079937
991.307625	41.085834
991.706372	41.195128
992.105080	41.290968
992.503749	41.352999
992.902379	41.433538
993.300970	41.454311
993.699522	41.707853
994.098035	41.887843
994.496510	42.068843
994.894945	42.233166
995.293341	42.461444
995.691698	42.587839
996.090016	43.041820
996.488296	43.183920
996.886535	43.508440
997.284736	43.806779
997.682898	43.877623
998.081021	44.170788
998.479104	44.468043
998.877148	44.745231
999.275153	45.176599
999.673119	45.230123
1000.071046	45.459986
1000.468933	45.733627
1000.866781	45.918513
1001.264590	46.169361
1001.662359	46.589412
1002.060089	46.773600
1002.457780	47.191576
1002.855431	47.636364
1003.253043	47.953795
1003.650615	48.335476
1004.048148	48.862770
1004.445642	49.087488
1004.843096	49.344787
1005.240511	49.729508
1005.637886	50.327925
1006.035221	50.648787
1006.432517	51.083917
1006.829774	51.492568
1007.226991	51.825410
1007.624168	52.428333
1008.021306	53.031054
1008.418404	53.284402
1008.815462	54.166073
1009.212481	54.801462
1009.609460	55.564460
1010.006399	56.458042
1010.403298	57.148194
1010.800158	57.865230
1011.196978	58.608038
1011.593758	59.401163
1011.990498	60.651900
1012.387199	61.549374
1012.783860	62.953732
1013.180480	64.600423
1013.577061	66.022062
1013.973602	66.981925
1014.370103	68.342725
1014.766564	68.859183
1015.162985	69.678973
1015.559366	70.664066
1015.955708	71.584797
1016.352009	72.079583
1016.748270	73.069585
1017.144491	74.549333
1017.540671	75.838926
1017.936812	76.848367
1018.332913	78.096345
1018.728973	78.837946
1019.124994	80.076459
1019.520974	81.470356
1019.916914	82.462432
1020.312814	83.736832
