Time1=100ms:Average1=5:Objective=10X:Aperture=1: (11/21/2018 10:24:16 AM)
11/21/2018 10:24:16 AM
Reflectance
10X
Ap#: 1
Avg1: 5.000000
Avg2: 0.000000
Int.Time1:100.000000

350.166136	105.765849
350.601937	106.890291
351.037728	107.830152
351.473509	107.932316
351.909281	108.258510
352.345042	108.497769
352.780794	108.223521
353.216536	108.307723
353.652267	108.281141
354.087989	108.100308
354.523701	107.945042
354.959403	107.457055
355.395095	107.488067
355.830777	106.824748
356.266449	106.529347
356.702110	106.689365
357.137762	106.526946
357.573404	106.128774
358.009035	105.597127
358.444656	105.742058
358.880268	106.292654
359.315869	106.144409
359.751459	105.849778
360.187040	105.347971
360.622610	105.251995
361.058170	105.815963
361.493720	105.424624
361.929260	105.040057
362.364789	105.644833
362.800308	105.274369
363.235816	104.715267
363.671314	104.548671
364.106802	103.863957
364.542279	104.054601
364.977746	103.742938
365.413203	103.420867
365.848649	103.351449
366.284084	102.945033
366.719509	102.571342
367.154924	102.857720
367.590328	103.026024
368.025721	102.637429
368.461104	102.669363
368.896477	102.329333
369.331838	102.423508
369.767189	102.479839
370.202530	102.202112
370.637859	101.976324
371.073178	101.544132
371.508486	101.737835
371.943784	100.996743
372.379071	100.672801
372.814347	100.711462
373.249612	100.914634
373.684866	100.323244
374.120110	100.764107
374.555343	100.692818
374.990565	100.926558
375.425776	100.695329
375.860976	100.165902
376.296165	100.282458
376.731343	100.194590
377.166511	99.961225
377.601667	100.038911
378.036812	100.048431
378.471946	99.593338
378.907070	99.257044
379.342182	98.576102
379.777283	98.618838
380.212373	98.446192
380.647452	98.113208
381.082520	97.894537
381.517576	98.082946
381.952622	98.238136
382.387656	98.230842
382.822679	98.552507
383.257691	98.074018
383.692692	98.104846
384.127681	98.077467
384.562659	98.458191
384.997626	98.093440
385.432581	98.364376
385.867525	98.613861
386.302458	98.820421
386.737379	98.597515
387.172289	99.470199
387.607188	99.489458
388.042075	99.207024
388.476951	99.088945
388.911815	99.223210
389.346668	99.263403
389.781509	99.118493
390.216338	99.573521
390.651157	99.667989
391.085963	100.073692
391.520758	99.926416
391.955541	100.119091
392.390313	100.338859
392.825073	100.933211
393.259821	101.536773
393.694558	101.278072
394.129283	101.159923
394.563996	101.434879
394.998698	101.619841
395.433388	101.465753
395.868066	101.501460
396.302732	101.536848
396.737386	101.704236
397.172029	101.529871
397.606659	101.253167
398.041278	101.013148
398.475885	100.903371
398.910480	100.321256
399.345063	99.067476
399.779634	98.283374
400.214194	97.475226
400.648741	96.161957
401.083276	94.186526
401.517799	92.476313
401.952310	90.208155
402.386809	88.036440
402.821296	85.557892
403.255771	82.874084
403.690234	79.763093
404.124684	76.805556
404.559123	73.473396
404.993549	70.121304
405.427963	67.162459
405.862365	64.083887
406.296754	61.391884
406.731131	58.489683
407.165496	56.025337
407.599849	53.691349
408.034190	51.580926
408.468518	49.545990
408.902833	47.595884
409.337137	45.931827
409.771428	44.357754
410.205706	42.865444
410.639973	41.560552
411.074226	40.436318
411.508467	39.326071
411.942696	38.504519
412.376912	37.641808
412.811116	36.864094
413.245307	36.136288
413.679486	35.496588
414.113652	34.893663
414.547805	34.401143
414.981946	33.890110
415.416074	33.464110
415.850190	33.119639
416.284293	32.765948
416.718383	32.499647
417.152460	32.178830
417.586525	31.962940
418.020577	31.756660
418.454616	31.590189
418.888643	31.411326
419.322656	31.310750
419.756657	31.155662
420.190645	31.037503
420.624620	30.927910
421.058582	30.821519
421.492531	30.725122
421.926468	30.591472
422.360391	30.511458
422.794301	30.415281
423.228199	30.359688
423.662083	30.340202
424.095955	30.311383
424.529813	30.309441
424.963658	30.273096
425.397491	30.233762
425.831310	30.221779
426.265116	30.196452
426.698909	30.173290
427.132689	30.165916
427.566455	30.127564
428.000209	30.131926
428.433949	30.114927
428.867676	30.101552
429.301389	30.079929
429.735090	30.035964
430.168777	29.972566
430.602451	29.952025
431.036111	29.862778
431.469759	29.807196
431.903392	29.723004
432.337013	29.678428
432.770620	29.568701
433.204213	29.518362
433.637794	29.461240
434.071360	29.409734
434.504914	29.389442
434.938453	29.361479
435.371979	29.324424
435.805492	29.272655
436.238991	29.198254
436.672477	29.128071
437.105949	29.039270
437.539407	28.978444
437.972852	28.876841
438.406283	28.791359
438.839700	28.660923
439.273104	28.555871
439.706494	28.437101
440.139871	28.293080
440.573233	28.127559
441.006582	27.992312
441.439917	27.829108
441.873238	27.662768
442.306546	27.493044
442.739839	27.297512
443.173119	27.125118
443.606385	26.948384
444.039636	26.773958
444.472874	26.608172
444.906099	26.438210
445.339309	26.273379
445.772505	26.109008
446.205687	25.969298
446.638855	25.799170
447.072009	25.621240
447.505149	25.448387
447.938275	25.248262
448.371387	25.048822
448.804485	24.864646
449.237569	24.682551
449.670638	24.503999
450.103694	24.309391
450.536735	24.117194
450.969762	23.936798
451.402774	23.748949
451.835773	23.553659
452.268757	23.386976
452.701727	23.221688
453.134683	23.077142
453.567624	22.972345
454.000551	22.860234
454.433464	22.766268
454.866362	22.660939
455.299246	22.587468
455.732116	22.488229
456.164971	22.417528
456.597811	22.350947
457.030638	22.308401
457.463449	22.248539
457.896246	22.188294
458.329029	22.138474
458.761797	22.095638
459.194551	22.054400
459.627290	22.015336
460.060014	21.964936
460.492724	21.948402
460.925419	21.930030
461.358099	21.918222
461.790765	21.913515
462.223416	21.910003
462.656052	21.911677
463.088674	21.933395
463.521281	21.973203
463.953873	22.031798
464.386450	22.059811
464.819012	22.099494
465.251560	22.163252
465.684093	22.234464
466.116611	22.299419
466.549114	22.363173
466.981602	22.429113
467.414075	22.499194
467.846533	22.559386
468.278977	22.629519
468.711405	22.677857
469.143818	22.761780
469.576216	22.828507
470.008600	22.885395
470.440968	22.929575
470.873321	22.983877
471.305659	23.040874
471.737982	23.094468
472.170289	23.133815
472.602582	23.163007
473.034859	23.197419
473.467122	23.253040
473.899369	23.285409
474.331600	23.307161
474.763817	23.338575
475.196018	23.364459
475.628204	23.400191
476.060375	23.438460
476.492530	23.466513
476.924670	23.488781
477.356795	23.505374
477.788904	23.535376
478.220998	23.558845
478.653076	23.573318
479.085139	23.564123
479.517186	23.558784
479.949219	23.539829
480.381235	23.500279
480.813236	23.468336
481.245221	23.435077
481.677191	23.389603
482.109146	23.359006
482.541084	23.287907
482.973008	23.223122
483.404915	23.140760
483.836807	23.051461
484.268683	22.963071
484.700544	22.868153
485.132388	22.754122
485.564217	22.647285
485.996031	22.541284
486.427828	22.437871
486.859610	22.331909
487.291376	22.228143
487.723126	22.129835
488.154860	22.026681
488.586579	21.933931
489.018281	21.834789
489.449968	21.734592
489.881639	21.645355
490.313293	21.548807
490.744932	21.442947
491.176555	21.333083
491.608162	21.222659
492.039753	21.115623
492.471328	21.019092
492.902886	20.920907
493.334429	20.828017
493.765956	20.733216
494.197466	20.647052
494.628960	20.558212
495.060439	20.489993
495.491901	20.410809
495.923347	20.356226
496.354776	20.293895
496.786190	20.255833
497.217587	20.226717
497.648968	20.196431
498.080332	20.177845
498.511681	20.171852
498.943013	20.184533
499.374328	20.202759
499.805628	20.222738
500.236911	20.254794
500.668177	20.295879
501.099427	20.350426
501.530661	20.421513
501.961878	20.492936
502.393079	20.575377
502.824264	20.668611
503.255431	20.758640
503.686583	20.869062
504.117717	20.995833
504.548835	21.130659
504.979937	21.281378
505.411022	21.440929
505.842090	21.605287
506.273142	21.771869
506.704177	21.954725
507.135195	22.150409
507.566197	22.355964
507.997182	22.566119
508.428150	22.784060
508.859102	23.015421
509.290036	23.261047
509.720954	23.525701
510.151855	23.787210
510.582739	24.055659
511.013607	24.346445
511.444457	24.647719
511.875291	24.955685
512.306107	25.267831
512.736907	25.590299
513.167690	25.921814
513.598456	26.269931
514.029205	26.627298
514.459936	26.993685
514.890651	27.374089
515.321349	27.774892
515.752030	28.190551
516.182693	28.612185
516.613340	29.053645
517.043969	29.502108
517.474582	29.955040
517.905177	30.424939
518.335755	30.890959
518.766315	31.373548
519.196859	31.838149
519.627385	32.309388
520.057894	32.786285
520.488386	33.252525
520.918860	33.718474
521.349318	34.204529
521.779757	34.694830
522.210180	35.199220
522.640585	35.698981
523.070973	36.206492
523.501343	36.723863
523.931696	37.247096
524.362031	37.765951
524.792349	38.302274
525.222650	38.864389
525.652933	39.414734
526.083198	39.979711
526.513446	40.547805
526.943677	41.106295
527.373890	41.678851
527.804085	42.264921
528.234262	42.852164
528.664422	43.433354
529.094565	44.035988
529.524689	44.646110
529.954796	45.245468
530.384885	45.837551
530.814957	46.453713
531.245011	47.067122
531.675047	47.678131
532.105065	48.276566
532.535065	48.902669
532.965048	49.527665
533.395013	50.143355
533.824959	50.772824
534.254888	51.398716
534.684799	52.041102
535.114693	52.681394
535.544568	53.315307
535.974425	53.934438
536.404264	54.542678
536.834086	55.140754
537.263889	55.749357
537.693674	56.338677
538.123441	56.908551
538.553190	57.468626
538.982921	58.021256
539.412634	58.568633
539.842329	59.118202
540.272006	59.663139
540.701664	60.195225
541.131304	60.707088
541.560926	61.207329
541.990530	61.697313
542.420116	62.180601
542.849683	62.652093
543.279232	63.132092
543.708763	63.606053
544.138275	64.059054
544.567769	64.508641
544.997245	64.970633
545.426702	65.431956
545.856141	65.890045
546.285562	66.349769
546.714964	66.806465
547.144347	67.252191
547.573713	67.718262
548.003059	68.157384
548.432387	68.594695
548.861697	69.030380
549.290988	69.482504
549.720260	69.937675
550.149514	70.386042
550.578750	70.802575
551.007966	71.238305
551.437164	71.664783
551.866344	72.068060
552.295504	72.476713
552.724646	72.871085
553.153769	73.259192
553.582874	73.641686
554.011960	74.006824
554.441027	74.366061
554.870075	74.715097
555.299104	75.060661
555.728115	75.364129
556.157106	75.656884
556.586079	75.931094
557.015033	76.199540
557.443968	76.449842
557.872884	76.690207
558.301781	76.922424
558.730659	77.152086
559.159518	77.372407
559.588358	77.598771
560.017180	77.827911
560.445982	78.061906
560.874765	78.281326
561.303528	78.522639
561.732273	78.748630
562.160999	78.980321
562.589705	79.203830
563.018393	79.417425
563.447061	79.657936
563.875710	79.907957
564.304340	80.145040
564.732950	80.374228
565.161542	80.613473
565.590114	80.838414
566.018666	81.072012
566.447200	81.307660
566.875714	81.536370
567.304208	81.752433
567.732684	81.981003
568.161140	82.191626
568.589576	82.403544
569.017993	82.615748
569.446391	82.811157
569.874769	83.001430
570.303128	83.186951
570.731467	83.357959
571.159787	83.521514
571.588087	83.667360
572.016368	83.803969
572.444629	83.942960
572.872870	84.052325
573.301092	84.149615
573.729294	84.237412
574.157476	84.314581
574.585639	84.369701
575.013782	84.433189
575.441906	84.480581
575.870009	84.529957
576.298093	84.575866
576.726157	84.619500
577.154202	84.656983
577.582226	84.703806
578.010231	84.761714
578.438216	84.815078
578.866181	84.890403
579.294126	84.969793
579.722051	85.052756
580.149957	85.148888
580.577842	85.253438
581.005707	85.364399
581.433553	85.480891
581.861378	85.611153
582.289184	85.739410
582.716969	85.876531
583.144734	86.019815
583.572479	86.166921
584.000205	86.306098
584.427910	86.436349
584.855594	86.560928
585.283259	86.679187
585.710904	86.802688
586.138528	86.899924
586.566132	87.004939
586.993716	87.095514
587.421280	87.170407
587.848823	87.234517
588.276346	87.278783
588.703849	87.312039
589.131332	87.335737
589.558794	87.355290
589.986236	87.321900
590.413657	87.293075
590.841058	87.243126
591.268438	87.183064
591.695799	87.104456
592.123138	87.022114
592.550458	86.921497
592.977756	86.808244
593.405034	86.687694
593.832292	86.566582
594.259529	86.436287
594.686746	86.314014
595.113942	86.179644
595.541117	86.063610
595.968272	85.938783
596.395406	85.823666
596.822519	85.723045
597.249612	85.641925
597.676684	85.579591
598.103735	85.525779
598.530766	85.495338
598.957775	85.455659
599.384764	85.456741
599.811733	85.456137
600.238680	85.473461
600.665606	85.511458
601.092512	85.563580
601.519397	85.631913
601.946261	85.703725
602.373104	85.776180
602.799926	85.865566
603.226727	85.955622
603.653507	86.031702
604.080266	86.106185
604.507004	86.178301
604.933721	86.244483
605.360417	86.309380
605.787092	86.350402
606.213746	86.384006
606.640379	86.394988
607.066991	86.398263
607.493581	86.379677
607.920150	86.355933
608.346699	86.300534
608.773226	86.235575
609.199731	86.166099
609.626216	86.065522
610.052679	85.950568
610.479121	85.805781
610.905542	85.637381
611.331941	85.446761
611.758319	85.245542
612.184676	85.013557
612.611011	84.771525
613.037325	84.537587
613.463617	84.274217
613.889888	83.997944
614.316138	83.720926
614.742366	83.417395
615.168573	83.117553
615.594758	82.821415
616.020921	82.500984
616.447063	82.213537
616.873184	81.927208
617.299283	81.643591
617.725360	81.378728
618.151416	81.126238
618.577450	80.876128
619.003462	80.634596
619.429453	80.396998
619.855422	80.176367
620.281369	79.963470
620.707295	79.778350
621.133199	79.586501
621.559081	79.419512
621.984941	79.249199
622.410779	79.089265
622.836596	78.933976
623.262391	78.772940
623.688163	78.627936
624.113914	78.498944
624.539644	78.367000
624.965351	78.220289
625.391036	78.087160
625.816699	77.952125
626.242340	77.787097
626.667960	77.623799
627.093557	77.461790
627.519132	77.273791
627.944685	77.089150
628.370216	76.882506
628.795725	76.657005
629.221212	76.419182
629.646677	76.157768
630.072119	75.872023
630.497540	75.581372
630.922938	75.246448
631.348314	74.909001
631.773668	74.540198
632.198999	74.158156
632.624308	73.772112
633.049595	73.365859
633.474860	72.934249
633.900102	72.487508
634.325322	72.035754
634.750520	71.575811
635.175695	71.107925
635.600848	70.625079
636.025978	70.140456
636.451086	69.635162
636.876171	69.131180
637.301234	68.606489
637.726275	68.077096
638.151293	67.535013
638.576288	66.991079
639.001261	66.428555
639.426211	65.853617
639.851139	65.277529
640.276044	64.665660
640.700927	64.053268
641.125787	63.424655
641.550624	62.780276
641.975438	62.137576
642.400230	61.474014
642.824999	60.803057
643.249745	60.128443
643.674469	59.438678
644.099169	58.745503
644.523847	58.040867
644.948502	57.338523
645.373135	56.627977
645.797744	55.915750
646.222330	55.203653
646.646894	54.498824
647.071435	53.781992
647.495953	53.065612
647.920447	52.333433
648.344919	51.605707
648.769368	50.883181
649.193794	50.153528
649.618197	49.432979
650.042576	48.704064
650.466933	47.977980
650.891267	47.261461
651.315577	46.557480
651.739864	45.854142
652.164129	45.159675
652.588370	44.464419
653.012587	43.784438
653.436782	43.116797
653.860953	42.450193
654.285102	41.799379
654.709226	41.165315
655.133328	40.533892
655.557406	39.922262
655.981461	39.328378
656.405493	38.753735
656.829501	38.191850
657.253486	37.662706
657.677448	37.156577
658.101386	36.677689
658.525301	36.235000
658.949192	35.809402
659.373060	35.415213
659.796904	35.065097
660.220725	34.749788
660.644522	34.472344
661.068296	34.236422
661.492046	34.034195
661.915772	33.863182
662.339475	33.737734
662.763154	33.648177
663.186810	33.590270
663.610442	33.569174
664.034050	33.580380
664.457635	33.627884
664.881196	33.695586
665.304733	33.799152
665.728247	33.940348
666.151736	34.095545
666.575202	34.291463
666.998644	34.506674
667.422062	34.753813
667.845457	35.028699
668.268827	35.333316
668.692174	35.664735
669.115496	36.026012
669.538795	36.413836
669.962070	36.844273
670.385321	37.296995
670.808547	37.780913
671.231750	38.279888
671.654929	38.801674
672.078084	39.354022
672.501214	39.930848
672.924321	40.518095
673.347404	41.117772
673.770462	41.723908
674.193496	42.341905
674.616506	42.967857
675.039492	43.592878
675.462454	44.224994
675.885391	44.851462
676.308305	45.481617
676.731194	46.110777
677.154058	46.732749
677.576899	47.343172
677.999715	47.960704
678.422507	48.564461
678.845274	49.155269
679.268017	49.746492
679.690736	50.318292
680.113430	50.901885
680.536100	51.461899
680.958746	52.021983
681.381367	52.568215
681.803963	53.117481
682.226535	53.661716
682.649083	54.199297
683.071605	54.738299
683.494104	55.286225
683.916578	55.829493
684.339027	56.370669
684.761451	56.914643
685.183851	57.457158
685.606227	57.996137
686.028577	58.544429
686.450903	59.096719
686.873204	59.661919
687.295481	60.238674
687.717733	60.807188
688.139959	61.387594
688.562162	61.957642
688.984339	62.526639
689.406492	63.108234
689.828619	63.674625
690.250722	64.247289
690.672800	64.812469
691.094853	65.373130
691.516881	65.936722
691.938884	66.494793
692.360863	67.046623
692.782816	67.604227
693.204744	68.139078
693.626647	68.689221
694.048526	69.210990
694.470379	69.742815
694.892207	70.253758
695.314010	70.757252
695.735788	71.263481
696.157540	71.743939
696.579268	72.211587
697.000970	72.671778
697.422648	73.127719
697.844300	73.560177
698.265926	73.993664
698.687528	74.417697
699.109104	74.834452
699.530655	75.228048
699.952181	75.607804
700.373681	75.968635
700.795156	76.328432
701.216606	76.674441
701.638030	77.002136
702.059429	77.328016
702.480803	77.630543
702.902151	77.935943
703.323473	78.230925
703.744770	78.509262
704.166042	78.776241
704.587288	79.040890
705.008509	79.294518
705.429704	79.542316
705.850873	79.778251
706.272017	79.997542
706.693135	80.215975
707.114228	80.442474
707.535295	80.659856
707.956336	80.880081
708.377352	81.098000
708.798342	81.321435
709.219306	81.546889
709.640245	81.778811
710.061157	82.004217
710.482044	82.239650
710.902905	82.470556
711.323741	82.704719
711.744550	82.951389
712.165334	83.206980
712.586092	83.477652
713.006823	83.745118
713.427529	84.023343
713.848209	84.320822
714.268863	84.627038
714.689492	84.957978
715.110094	85.298349
715.530670	85.640445
715.951220	86.003264
716.371744	86.371345
716.792242	86.765444
717.212714	87.171257
717.633159	87.588717
718.053579	88.015530
718.473973	88.452972
718.894340	88.893001
719.314681	89.371947
719.734996	89.836817
720.155285	90.319598
720.575547	90.794968
720.995784	91.288028
721.415994	91.788000
721.836177	92.275147
722.256335	92.772002
722.676466	93.243683
723.096570	93.712584
723.516649	94.165820
723.936701	94.640872
724.356726	95.075255
724.776725	95.488631
725.196698	95.868319
725.616644	96.238219
726.036564	96.597275
726.456457	96.936609
726.876324	97.235942
727.296164	97.506200
727.715977	97.759897
728.135764	97.987733
728.555525	98.206138
728.975258	98.387368
729.394966	98.561056
729.814646	98.714930
730.234300	98.846974
730.653927	98.945273
731.073527	99.044032
731.493101	99.106641
731.912648	99.162528
732.332168	99.198467
732.751661	99.239198
733.171128	99.264113
733.590568	99.267496
734.009980	99.257391
734.429366	99.232339
734.848726	99.207507
735.268058	99.177307
735.687363	99.149642
736.106641	99.113061
736.525893	99.081241
736.945117	99.025985
737.364314	98.982507
737.783485	98.950636
738.202628	98.919141
738.621744	98.888522
739.040834	98.854352
739.459896	98.819547
739.878931	98.807071
740.297939	98.812766
740.716919	98.809260
741.135873	98.821483
741.554799	98.846366
741.973698	98.885527
742.392570	98.929912
742.811415	99.000929
743.230232	99.080168
743.649022	99.188025
744.067785	99.300744
744.486521	99.460671
744.905229	99.619017
745.323909	99.792655
745.742563	99.970156
746.161189	100.146927
746.579787	100.365993
746.998358	100.587962
747.416902	100.810934
747.835418	101.041153
748.253907	101.267246
748.672368	101.471783
749.090802	101.704437
749.509208	101.922691
749.927586	102.158138
750.345937	102.390131
750.764261	102.606151
751.182556	102.823848
751.600824	103.049369
752.019065	103.270829
752.437277	103.498321
752.855462	103.695834
753.273620	103.888424
753.691749	104.086042
754.109851	104.273181
754.527925	104.454553
754.945971	104.616934
755.363989	104.778720
755.781980	104.909802
756.199943	105.030305
756.617877	105.131002
757.035784	105.219372
757.453663	105.275489
757.871514	105.335940
758.289337	105.372361
758.707132	105.378420
759.124899	105.380835
759.542639	105.340475
759.960350	105.293966
760.378033	105.227120
760.795688	105.134416
761.213314	105.031997
761.630913	104.952305
762.048484	104.813483
762.466026	104.687258
762.883541	104.527075
763.301027	104.344396
763.718485	104.168886
764.135914	103.996678
764.553316	103.803649
764.970689	103.609569
765.388034	103.410652
765.805351	103.231449
766.222639	103.058149
766.639899	102.868183
767.057131	102.670168
767.474334	102.481427
767.891509	102.308237
768.308655	102.134750
768.725773	101.966097
769.142863	101.812388
769.559924	101.667856
769.976957	101.535158
770.393961	101.419950
770.810936	101.309154
771.227883	101.196157
771.644802	101.095548
772.061692	101.009365
772.478553	100.926870
772.895386	100.862453
773.312190	100.809512
773.728965	100.764182
774.145712	100.723689
774.562430	100.706727
774.979119	100.704243
775.395780	100.696240
775.812411	100.704445
776.229014	100.749525
776.645589	100.795110
777.062134	100.840352
777.478651	100.902893
777.895138	100.980651
778.311597	101.063896
778.728027	101.135449
779.144428	101.220835
779.560800	101.316902
779.977143	101.412263
780.393458	101.503723
780.809743	101.601373
781.225999	101.695527
781.642226	101.797326
782.058425	101.887397
782.474594	101.961603
782.890734	102.029943
783.306845	102.062885
783.722926	102.076219
784.138979	102.105075
784.555003	102.122883
784.970997	102.127168
785.386962	102.128204
785.802898	102.082470
786.218805	102.019561
786.634682	101.965589
787.050531	101.901387
787.466349	101.777272
787.882139	101.678449
788.297899	101.545353
788.713630	101.420559
789.129332	101.258285
789.545004	101.071219
789.960647	100.863990
790.376260	100.661494
790.791844	100.431113
791.207399	100.164102
791.622924	99.897300
792.038419	99.602264
792.453885	99.297723
792.869321	98.968159
793.284728	98.637113
793.700106	98.265711
794.115453	97.888332
794.530771	97.474054
794.946060	97.045028
795.361319	96.608404
795.776548	96.140372
796.191747	95.694638
796.606917	95.229335
797.022057	94.735327
797.437167	94.229171
797.852248	93.715431
798.267298	93.178458
798.682319	92.651100
799.097310	92.115738
799.512271	91.558821
799.927203	90.998773
800.342104	90.473524
800.756976	89.916223
801.171818	89.365791
801.586629	88.807217
802.001411	88.267304
802.416163	87.738482
802.830885	87.228925
803.245577	86.700004
803.660238	86.191124
804.074870	85.701927
804.489472	85.211164
804.904043	84.733317
805.318585	84.254002
805.733096	83.821695
806.147577	83.378829
806.562028	82.957038
806.976449	82.527525
807.390840	82.125659
807.805200	81.736243
808.219530	81.359041
808.633830	81.011891
809.048100	80.677000
809.462339	80.344906
809.876548	80.019882
810.290727	79.710918
810.704875	79.390915
811.118993	79.111432
811.533080	78.833110
811.947137	78.569608
812.361164	78.293825
812.775160	78.030730
813.189126	77.751837
813.603061	77.483419
814.016966	77.221796
814.430840	76.956512
814.844684	76.680526
815.258497	76.408783
815.672280	76.138387
816.086032	75.865990
816.499753	75.587524
816.913444	75.311427
817.327104	75.027783
817.740733	74.728068
818.154331	74.445250
818.567899	74.137355
818.981436	73.823875
819.394943	73.517064
819.808418	73.199069
820.221863	72.863023
820.635277	72.535693
821.048660	72.194908
821.462013	71.854036
821.875334	71.505394
822.288625	71.165084
822.701884	70.819632
823.115113	70.479566
823.528311	70.147901
823.941478	69.786047
824.354614	69.425842
824.767718	69.038996
825.180792	68.656868
825.593835	68.261736
826.006847	67.879715
826.419827	67.494512
826.832777	67.110886
827.245695	66.716220
827.658582	66.312296
828.071438	65.918616
828.484263	65.500457
828.897057	65.094600
829.309819	64.688045
829.722551	64.273449
830.135251	63.874162
830.547919	63.486882
830.960557	63.100584
831.373163	62.723251
831.785738	62.363977
832.198281	62.003109
832.610793	61.666020
833.023274	61.337734
833.435723	61.018122
833.848141	60.724799
834.260528	60.419097
834.672883	60.111641
835.085206	59.826125
835.497498	59.564775
835.909758	59.302933
836.321987	59.058675
836.734185	58.823150
837.146350	58.588977
837.558485	58.378638
837.970587	58.174060
838.382658	57.968221
838.794697	57.754942
839.206705	57.562492
839.618681	57.381305
840.030625	57.209121
840.442538	57.049027
840.854418	56.895698
841.266267	56.758775
841.678084	56.616339
842.089870	56.500800
842.501623	56.409000
842.913345	56.324904
843.325035	56.250541
843.736693	56.179852
844.148319	56.129825
844.559913	56.080875
844.971475	56.045427
845.383005	56.015196
845.794504	55.997781
846.205970	55.982467
846.617404	55.960500
847.028806	55.939850
847.440176	55.923008
847.851514	55.905448
848.262820	55.869300
848.674094	55.829675
849.085336	55.766160
849.496546	55.706470
849.907723	55.640895
850.318868	55.553284
850.729981	55.467223
851.141062	55.388846
851.552110	55.298671
851.963127	55.197010
852.374111	55.072250
852.785062	54.954136
853.195982	54.828347
853.606869	54.677082
854.017723	54.527898
854.428546	54.382272
854.839336	54.186981
855.250093	53.982136
855.660818	53.769499
856.071511	53.540338
856.482171	53.312568
856.892799	53.079366
857.303394	52.841507
857.713956	52.607894
858.124486	52.361455
858.534984	52.104598
858.945449	51.865651
859.355881	51.602573
859.766280	51.371319
860.176647	51.124222
860.586982	50.863572
860.997283	50.617914
861.407552	50.377959
861.817789	50.162144
862.227992	49.928306
862.638163	49.690952
863.048301	49.480453
863.458406	49.276408
863.868478	49.045024
864.278518	48.816220
864.688524	48.605028
865.098498	48.400833
865.508439	48.191827
865.918347	47.996126
866.328222	47.820724
866.738064	47.646283
867.147873	47.469434
867.557649	47.329079
867.967392	47.187873
868.377102	47.060700
868.786779	46.936047
869.196423	46.810253
869.606034	46.687705
870.015612	46.571095
870.425156	46.453352
870.834668	46.342366
871.244146	46.254518
871.653591	46.138816
872.063003	46.061908
872.472382	45.962932
872.881728	45.879167
873.291040	45.802635
873.700319	45.728513
874.109564	45.677792
874.518777	45.604737
874.927956	45.552747
875.337102	45.520566
875.746214	45.496454
876.155293	45.455755
876.564338	45.441071
876.973350	45.453249
877.382329	45.451566
877.791274	45.468759
878.200186	45.506012
878.609064	45.554651
879.017909	45.612045
879.426720	45.693836
879.835497	45.765262
880.244241	45.844390
880.652952	45.935011
881.061629	46.037034
881.470272	46.163601
881.878881	46.284015
882.287457	46.411221
882.695999	46.535093
883.104507	46.641344
883.512982	46.751113
883.921423	46.849775
884.329830	46.938320
884.738203	47.007127
885.146543	47.087884
885.554849	47.130699
885.963120	47.187603
886.371358	47.233429
886.779563	47.245634
887.187733	47.262420
887.595869	47.258485
888.003971	47.241627
888.412040	47.215319
888.820074	47.194478
889.228074	47.160999
889.636041	47.115883
890.043973	47.068461
890.451871	46.999934
890.859736	46.941234
891.267566	46.842172
891.675362	46.749763
892.083124	46.627156
892.490851	46.548905
892.898545	46.444012
893.306204	46.333655
893.713829	46.201329
894.121420	46.051958
894.528977	45.927255
894.936499	45.786906
895.343987	45.662483
895.751441	45.542563
896.158860	45.408894
896.566246	45.279411
896.973596	45.154813
897.380913	45.055661
897.788195	44.961100
898.195442	44.904414
898.602655	44.835080
899.009834	44.766542
899.416978	44.716012
899.824088	44.664326
900.231163	44.628770
900.638204	44.627038
901.045210	44.601724
901.452181	44.601879
901.859118	44.623818
902.266021	44.643089
902.672888	44.650702
903.079721	44.682066
903.486520	44.670347
903.893283	44.704140
904.300012	44.707818
904.706707	44.732131
905.113366	44.713203
905.519991	44.712599
905.926581	44.706695
906.333136	44.683444
906.739656	44.664928
907.146142	44.621501
907.552592	44.574592
907.959008	44.490733
908.365389	44.430790
908.771735	44.364153
909.178046	44.302658
909.584322	44.237796
909.990563	44.129875
910.396769	43.996236
910.802940	43.868111
911.209076	43.735262
911.615177	43.630225
912.021243	43.532348
912.427274	43.418854
912.833270	43.313614
913.239231	43.181331
913.645156	43.069656
914.051046	42.929381
914.456902	42.793568
914.862721	42.666132
915.268506	42.549641
915.674256	42.462938
916.079970	42.374338
916.485649	42.265638
916.891292	42.164056
917.296901	42.054513
917.702474	41.988457
918.108011	41.911604
918.513514	41.823754
918.918980	41.765029
919.324412	41.716876
919.729808	41.643126
920.135169	41.578739
920.540494	41.537678
920.945783	41.510480
921.351037	41.475820
921.756256	41.448856
922.161439	41.436089
922.566586	41.403763
922.971698	41.386820
923.376775	41.351055
923.781815	41.335058
924.186820	41.279513
924.591790	41.231808
924.996723	41.173573
925.401621	41.129072
925.806484	41.082631
926.211310	41.040259
926.616101	41.017990
927.020856	40.968909
927.425575	40.925325
927.830259	40.896944
928.234906	40.794554
928.639518	40.739465
929.044094	40.685603
929.448634	40.657469
929.853138	40.604927
930.257606	40.551924
930.662038	40.503978
931.066434	40.470223
931.470795	40.405368
931.875119	40.370376
932.279407	40.363734
932.683659	40.338594
933.087875	40.305811
933.492055	40.251190
933.896199	40.217693
934.300307	40.179566
934.704379	40.140377
935.108414	40.137611
935.512414	40.125774
935.916377	40.139567
936.320304	40.120519
936.724195	40.137541
937.128049	40.123122
937.531867	40.148236
937.935649	40.186224
938.339395	40.224745
938.743104	40.259680
939.146777	40.290810
939.550414	40.322647
939.954014	40.367376
940.357578	40.382202
940.761105	40.453032
941.164596	40.463814
941.568050	40.504587
941.971468	40.508172
942.374850	40.547578
942.778195	40.549228
943.181503	40.567191
943.584775	40.546661
943.988010	40.559194
944.391209	40.512457
944.794371	40.461581
945.197496	40.418497
945.600585	40.392669
946.003637	40.360348
946.406653	40.338207
946.809632	40.267567
947.212574	40.193691
947.615479	40.140954
948.018347	40.096102
948.421179	40.012197
948.823974	39.926751
949.226732	39.821629
949.629453	39.750022
950.032138	39.687138
950.434785	39.573903
950.837396	39.471410
951.239969	39.307699
951.642506	39.170573
952.045006	39.049396
952.447469	38.915325
952.849895	38.770155
953.252283	38.616442
953.654635	38.478921
954.056950	38.311755
954.459227	38.155196
954.861468	37.973961
955.263671	37.817810
955.665838	37.634456
956.067967	37.494427
956.470059	37.324501
956.872114	37.216083
957.274131	37.090865
957.676112	36.961648
958.078055	36.844909
958.479961	36.714748
958.881829	36.553296
959.283661	36.386031
959.685455	36.265960
960.087211	36.083077
960.488931	35.900859
960.890613	35.758363
961.292257	35.602987
961.693864	35.466141
962.095434	35.300241
962.496966	35.133370
962.898461	34.930512
963.299918	34.741426
963.701338	34.620603
964.102720	34.466598
964.504065	34.299658
964.905372	34.096973
965.306641	33.942409
965.707873	33.781908
966.109068	33.610459
966.510224	33.481390
966.911343	33.291952
967.312425	33.193441
967.713468	33.003319
968.114474	32.885464
968.515442	32.713616
968.916373	32.579655
969.317265	32.407164
969.718120	32.283904
970.118937	32.184881
970.519716	32.043343
970.920458	31.930780
971.321161	31.787817
971.721827	31.740408
972.122454	31.630526
972.523044	31.611252
972.923596	31.591216
973.324110	31.536416
973.724585	31.505034
974.125023	31.472182
974.525423	31.409414
974.925785	31.351453
975.326108	31.378082
975.726394	31.384184
976.126642	31.374698
976.526851	31.428524
976.927022	31.493444
977.327155	31.551364
977.727250	31.616861
978.127307	31.688346
978.527325	31.778917
978.927306	31.881116
979.327248	32.015865
979.727151	32.056719
980.127017	32.196437
980.526844	32.267504
980.926633	32.444907
981.326383	32.540666
981.726095	32.656870
982.125769	32.758153
982.525404	32.861334
982.925001	32.969841
983.324560	33.113832
983.724079	33.308990
984.123561	33.461278
984.523004	33.576157
984.922408	33.699843
985.321774	33.773292
985.721102	33.942323
986.120390	34.073010
986.519641	34.287110
986.918852	34.443556
987.318025	34.697426
987.717159	34.826597
988.116255	34.998537
988.515312	35.183157
988.914330	35.293776
989.313310	35.377695
989.712250	35.581297
990.111152	35.690085
990.510015	35.828945
990.908840	36.035599
991.307625	36.156524
991.706372	36.339711
992.105080	36.572246
992.503749	36.850638
992.902379	36.982328
993.300970	37.152050
993.699522	37.417548
994.098035	37.683887
994.496510	37.897344
994.894945	38.052261
995.293341	38.206868
995.691698	38.257942
996.090016	38.594790
996.488296	38.815992
996.886535	39.188245
997.284736	39.423565
997.682898	39.701830
998.081021	39.848028
998.479104	40.203003
998.877148	40.451854
999.275153	40.843317
999.673119	41.042198
1000.071046	41.553778
1000.468933	41.783436
1000.866781	42.083654
1001.264590	42.340183
1001.662359	42.663792
1002.060089	42.900080
1002.457780	43.294044
1002.855431	43.681416
1003.253043	43.861386
1003.650615	44.103119
1004.048148	44.497608
1004.445642	44.737963
1004.843096	44.925743
1005.240511	45.409096
1005.637886	45.855866
1006.035221	46.113193
1006.432517	46.492970
1006.829774	47.071069
1007.226991	47.593194
1007.624168	48.084510
1008.021306	48.735746
1008.418404	49.092923
1008.815462	49.689028
1009.212481	50.153471
1009.609460	50.821396
1010.006399	51.736812
1010.403298	52.510806
1010.800158	53.182368
1011.196978	53.770603
1011.593758	54.674419
1011.990498	55.297437
1012.387199	55.874915
1012.783860	57.131902
1013.180480	58.421540
1013.577061	59.505652
1013.973602	60.978002
1014.370103	62.122526
1014.766564	62.737354
1015.162985	63.507223
1015.559366	64.396574
1015.955708	65.381857
1016.352009	66.158219
1016.748270	67.085049
1017.144491	67.957333
1017.540671	68.888636
1017.936812	69.661284
1018.332913	71.148134
1018.728973	71.816054
1019.124994	72.327599
1019.520974	73.438735
1019.916914	74.829235
1020.312814	76.473850
