Time1=100ms:Average1=5:Objective=10X:Aperture=1: (11/21/2018 12:01:39 PM)
11/21/2018 12:01:39 PM
Reflectance
10X
Ap#: 1
Avg1: 5.000000
Avg2: 0.000000
Int.Time1:100.000000

350.166136	100.192715
350.601937	100.706749
351.037728	101.392984
351.473509	101.061357
351.909281	101.055945
352.345042	101.561862
352.780794	101.697689
353.216536	101.643696
353.652267	101.237852
354.087989	100.858281
354.523701	100.561339
354.959403	100.366487
355.395095	100.786276
355.830777	100.438284
356.266449	100.398162
356.702110	99.949326
357.137762	100.264793
357.573404	100.266475
358.009035	100.389065
358.444656	100.677896
358.880268	100.421811
359.315869	100.741886
359.751459	100.667557
360.187040	100.700309
360.622610	100.980089
361.058170	101.133904
361.493720	101.259680
361.929260	101.539574
362.364789	101.377750
362.800308	101.499589
363.235816	102.059944
363.671314	102.780628
364.106802	102.823119
364.542279	102.675003
364.977746	103.134667
365.413203	103.504238
365.848649	102.685673
366.284084	102.387051
366.719509	102.614848
367.154924	103.100934
367.590328	103.163067
368.025721	103.255528
368.461104	103.783451
368.896477	103.440508
369.331838	103.153153
369.767189	102.535754
370.202530	102.889819
370.637859	102.021836
371.073178	102.724602
371.508486	102.920300
371.943784	102.994620
372.379071	103.152879
372.814347	103.630632
373.249612	103.938530
373.684866	103.363297
374.120110	103.531316
374.555343	103.085483
374.990565	103.271922
375.425776	102.907152
375.860976	103.486497
376.296165	102.850237
376.731343	102.364966
377.166511	102.542714
377.601667	102.582324
378.036812	102.807862
378.471946	102.557698
378.907070	102.293121
379.342182	102.468153
379.777283	102.278834
380.212373	102.313574
380.647452	102.333861
381.082520	102.232319
381.517576	102.278556
381.952622	102.473182
382.387656	102.823506
382.822679	103.378850
383.257691	103.893504
383.692692	103.786369
384.127681	104.474027
384.562659	103.794199
384.997626	103.490678
385.432581	103.026420
385.867525	103.365148
386.302458	103.075115
386.737379	102.909483
387.172289	102.916422
387.607188	102.253302
388.042075	102.733463
388.476951	102.530414
388.911815	102.460611
389.346668	102.161005
389.781509	102.940889
390.216338	102.934559
390.651157	103.123780
391.085963	103.471950
391.520758	103.141515
391.955541	103.490538
392.390313	103.093686
392.825073	103.326848
393.259821	104.237205
393.694558	104.209284
394.129283	103.714928
394.563996	104.044767
394.998698	104.490279
395.433388	104.240196
395.868066	104.212526
396.302732	104.219101
396.737386	104.150044
397.172029	104.003688
397.606659	103.826432
398.041278	103.743857
398.475885	103.249737
398.910480	102.964870
399.345063	101.936611
399.779634	100.992184
400.214194	99.521333
400.648741	98.420981
401.083276	96.579754
401.517799	94.474852
401.952310	92.078297
402.386809	89.589307
402.821296	86.391976
403.255771	82.944418
403.690234	79.664828
404.124684	75.872006
404.559123	71.858391
404.993549	68.384820
405.427963	64.666467
405.862365	60.997790
406.296754	57.820006
406.731131	54.607156
407.165496	51.646338
407.599849	48.994913
408.034190	46.618243
408.468518	44.200535
408.902833	41.882975
409.337137	39.827286
409.771428	38.167880
410.205706	36.412229
410.639973	34.949920
411.074226	33.716356
411.508467	32.602045
411.942696	31.663710
412.376912	30.843984
412.811116	30.181326
413.245307	29.485293
413.679486	28.983719
414.113652	28.435935
414.547805	27.975908
414.981946	27.549827
415.416074	27.183590
415.850190	26.903492
416.284293	26.737654
416.718383	26.545251
417.152460	26.368732
417.586525	26.208797
418.020577	26.126549
418.454616	26.056026
418.888643	26.057027
419.322656	26.102830
419.756657	26.077000
420.190645	26.098153
420.624620	26.119499
421.058582	26.116429
421.492531	26.177514
421.926468	26.221836
422.360391	26.300692
422.794301	26.393339
423.228199	26.492997
423.662083	26.632658
424.095955	26.798134
424.529813	26.930767
424.963658	27.088373
425.397491	27.215572
425.831310	27.381181
426.265116	27.529349
426.698909	27.695115
427.132689	27.831455
427.566455	28.004148
428.000209	28.164225
428.433949	28.324048
428.867676	28.497153
429.301389	28.676942
429.735090	28.808582
430.168777	28.957764
430.602451	29.046874
431.036111	29.181388
431.469759	29.311654
431.903392	29.416207
432.337013	29.516033
432.770620	29.589523
433.204213	29.709098
433.637794	29.803224
434.071360	29.933539
434.504914	30.085157
434.938453	30.202733
435.371979	30.364429
435.805492	30.519755
436.238991	30.678913
436.672477	30.832119
437.105949	30.994006
437.539407	31.090108
437.972852	31.198387
438.406283	31.290310
438.839700	31.394507
439.273104	31.455653
439.706494	31.523169
440.139871	31.609651
440.573233	31.684704
441.006582	31.751056
441.439917	31.804961
441.873238	31.839259
442.306546	31.889911
442.739839	31.913306
443.173119	31.929202
443.606385	31.951549
444.039636	32.025697
444.472874	32.100138
444.906099	32.136504
445.339309	32.184310
445.772505	32.247934
446.205687	32.344592
446.638855	32.414163
447.072009	32.481861
447.505149	32.533319
447.938275	32.581443
448.371387	32.645447
448.804485	32.683058
449.237569	32.699430
449.670638	32.675897
450.103694	32.654589
450.536735	32.625521
450.969762	32.597716
451.402774	32.557182
451.835773	32.532817
452.268757	32.496209
452.701727	32.473424
453.134683	32.444521
453.567624	32.401106
454.000551	32.373706
454.433464	32.337371
454.866362	32.310554
455.299246	32.310276
455.732116	32.256020
456.164971	32.211616
456.597811	32.192076
457.030638	32.156626
457.463449	32.085503
457.896246	32.011248
458.329029	31.945906
458.761797	31.896834
459.194551	31.804631
459.627290	31.705199
460.060014	31.604477
460.492724	31.495476
460.925419	31.398076
461.358099	31.285562
461.790765	31.158019
462.223416	31.010248
462.656052	30.871989
463.088674	30.742539
463.521281	30.589842
463.953873	30.424647
464.386450	30.287633
464.819012	30.137212
465.251560	29.982012
465.684093	29.824549
466.116611	29.660258
466.549114	29.503310
466.981602	29.344268
467.414075	29.163205
467.846533	28.978526
468.278977	28.788070
468.711405	28.574873
469.143818	28.370928
469.576216	28.160054
470.008600	27.924219
470.440968	27.668790
470.873321	27.419602
471.305659	27.149953
471.737982	26.896254
472.170289	26.610887
472.602582	26.341976
473.034859	26.066748
473.467122	25.791363
473.899369	25.522860
474.331600	25.241023
474.763817	24.972083
475.196018	24.713200
475.628204	24.473164
476.060375	24.250184
476.492530	24.022607
476.924670	23.793628
477.356795	23.582317
477.788904	23.355023
478.220998	23.150260
478.653076	22.940790
479.085139	22.761749
479.517186	22.608613
479.949219	22.431537
480.381235	22.279544
480.813236	22.141439
481.245221	22.024143
481.677191	21.919670
482.109146	21.816143
482.541084	21.740145
482.973008	21.655369
483.404915	21.585602
483.836807	21.550040
484.268683	21.536285
484.700544	21.542922
485.132388	21.558113
485.564217	21.611650
485.996031	21.675070
486.427828	21.753769
486.859610	21.858695
487.291376	21.992165
487.723126	22.134866
488.154860	22.305396
488.586579	22.477489
489.018281	22.674002
489.449968	22.869456
489.881639	23.093256
490.313293	23.344236
490.744932	23.618112
491.176555	23.923402
491.608162	24.261838
492.039753	24.618292
492.471328	24.974463
492.902886	25.335453
493.334429	25.725034
493.765956	26.115265
494.197466	26.502380
494.628960	26.898572
495.060439	27.290710
495.491901	27.680254
495.923347	28.062807
496.354776	28.460458
496.786190	28.869090
497.217587	29.267743
497.648968	29.686356
498.080332	30.114412
498.511681	30.565598
498.943013	31.024615
499.374328	31.516392
499.805628	32.039364
500.236911	32.571228
500.668177	33.121860
501.099427	33.686682
501.530661	34.262592
501.961878	34.833262
502.393079	35.399774
502.824264	35.983433
503.255431	36.529148
503.686583	37.045113
504.117717	37.559915
504.548835	38.068852
504.979937	38.550159
505.411022	39.012400
505.842090	39.471019
506.273142	39.922783
506.704177	40.388932
507.135195	40.857631
507.566197	41.354013
507.997182	41.864063
508.428150	42.378831
508.859102	42.901515
509.290036	43.465365
509.720954	44.059313
510.151855	44.661883
510.582739	45.281682
511.013607	45.891510
511.444457	46.518355
511.875291	47.134566
512.306107	47.752184
512.736907	48.347465
513.167690	48.942947
513.598456	49.533753
514.029205	50.104207
514.459936	50.683456
514.890651	51.243187
515.321349	51.809866
515.752030	52.380982
516.182693	52.929465
516.613340	53.504065
517.043969	54.108984
517.474582	54.710198
517.905177	55.307801
518.335755	55.907421
518.766315	56.529473
519.196859	57.160016
519.627385	57.799833
520.057894	58.417140
520.488386	59.034258
520.918860	59.648483
521.349318	60.265833
521.779757	60.894043
522.210180	61.528676
522.640585	62.118022
523.070973	62.705744
523.501343	63.273832
523.931696	63.827632
524.362031	64.372167
524.792349	64.915046
525.222650	65.447719
525.652933	65.967834
526.083198	66.482457
526.513446	66.948859
526.943677	67.424743
527.373890	67.913749
527.804085	68.382663
528.234262	68.852236
528.664422	69.326492
529.094565	69.791339
529.524689	70.261046
529.954796	70.713358
530.384885	71.162253
530.814957	71.602866
531.245011	72.053707
531.675047	72.515351
532.105065	72.966608
532.535065	73.404948
532.965048	73.855465
533.395013	74.304763
533.824959	74.750980
534.254888	75.179496
534.684799	75.595322
535.114693	76.003603
535.544568	76.402371
535.974425	76.802284
536.404264	77.163222
536.834086	77.516789
537.263889	77.870293
537.693674	78.208535
538.123441	78.519848
538.553190	78.813223
538.982921	79.107217
539.412634	79.384478
539.842329	79.700575
540.272006	79.981790
540.701664	80.228466
541.131304	80.490958
541.560926	80.721733
541.990530	80.958117
542.420116	81.182962
542.849683	81.392092
543.279232	81.615726
543.708763	81.824990
544.138275	82.039747
544.567769	82.226824
544.997245	82.408869
545.426702	82.590279
545.856141	82.787739
546.285562	82.973260
546.714964	83.143711
547.144347	83.331070
547.573713	83.532214
548.003059	83.710491
548.432387	83.895414
548.861697	84.096000
549.290988	84.287354
549.720260	84.496180
550.149514	84.696872
550.578750	84.891743
551.007966	85.088563
551.437164	85.309128
551.866344	85.508833
552.295504	85.698313
552.724646	85.908203
553.153769	86.088921
553.582874	86.278845
554.011960	86.452488
554.441027	86.623767
554.870075	86.789470
555.299104	86.921744
555.728115	87.016909
556.157106	87.131820
556.586079	87.209494
557.015033	87.272921
557.443968	87.319389
557.872884	87.349511
558.301781	87.374172
558.730659	87.401493
559.159518	87.394107
559.588358	87.390973
560.017180	87.395385
560.445982	87.367839
560.874765	87.344262
561.303528	87.349185
561.732273	87.346364
562.160999	87.338156
562.589705	87.340420
563.018393	87.352137
563.447061	87.377172
563.875710	87.407313
564.304340	87.458932
564.732950	87.508351
565.161542	87.586952
565.590114	87.666997
566.018666	87.752194
566.447200	87.848891
566.875714	87.949690
567.304208	88.078881
567.732684	88.196284
568.161140	88.334666
568.589576	88.466964
569.017993	88.612411
569.446391	88.747967
569.874769	88.888931
570.303128	89.013459
570.731467	89.133588
571.159787	89.255159
571.588087	89.359532
572.016368	89.443097
572.444629	89.523423
572.872870	89.581053
573.301092	89.605875
573.729294	89.637429
574.157476	89.650195
574.585639	89.623185
575.013782	89.586252
575.441906	89.527699
575.870009	89.457056
576.298093	89.371010
576.726157	89.285705
577.154202	89.194669
577.582226	89.093821
578.010231	88.960086
578.438216	88.830046
578.866181	88.690742
579.294126	88.554184
579.722051	88.413618
580.149957	88.293952
580.577842	88.162611
581.005707	88.045667
581.433553	87.916347
581.861378	87.820785
582.289184	87.730454
582.716969	87.627925
583.144734	87.539384
583.572479	87.475182
584.000205	87.406633
584.427910	87.349967
584.855594	87.285983
585.283259	87.227328
585.710904	87.189496
586.138528	87.137562
586.566132	87.107001
586.993716	87.070266
587.421280	87.030426
587.848823	87.007865
588.276346	86.972207
588.703849	86.934393
589.131332	86.891692
589.558794	86.839735
589.986236	86.764681
590.413657	86.699002
590.841058	86.617599
591.268438	86.530647
591.695799	86.427854
592.123138	86.313906
592.550458	86.193990
592.977756	86.062620
593.405034	85.913125
593.832292	85.755533
594.259529	85.574397
594.686746	85.391804
595.113942	85.192484
595.541117	84.982031
595.968272	84.768212
596.395406	84.554025
596.822519	84.324705
597.249612	84.108701
597.676684	83.869741
598.103735	83.634619
598.530766	83.404794
598.957775	83.160264
599.384764	82.916902
599.811733	82.669161
600.238680	82.424246
600.665606	82.168796
601.092512	81.914194
601.519397	81.661364
601.946261	81.412507
602.373104	81.156571
602.799926	80.889066
603.226727	80.634316
603.653507	80.353008
604.080266	80.060870
604.507004	79.780032
604.933721	79.478984
605.360417	79.181868
605.787092	78.864136
606.213746	78.535533
606.640379	78.190764
607.066991	77.832073
607.493581	77.459347
607.920150	77.078535
608.346699	76.681416
608.773226	76.284776
609.199731	75.884938
609.626216	75.456583
610.052679	75.029618
610.479121	74.572016
610.905542	74.117634
611.331941	73.668646
611.758319	73.182226
612.184676	72.703732
612.611011	72.219694
613.037325	71.715661
613.463617	71.194087
613.889888	70.663146
614.316138	70.108830
614.742366	69.543671
615.168573	68.958084
615.594758	68.372754
616.020921	67.791008
616.447063	67.189400
616.873184	66.582266
617.299283	65.981833
617.725360	65.372599
618.151416	64.768104
618.577450	64.159031
619.003462	63.537860
619.429453	62.928404
619.855422	62.310404
620.281369	61.701732
620.707295	61.098294
621.133199	60.488963
621.559081	59.882087
621.984941	59.279999
622.410779	58.664347
622.836596	58.051818
623.262391	57.434654
623.688163	56.813907
624.113914	56.189365
624.539644	55.544570
624.965351	54.899122
625.391036	54.231968
625.816699	53.554119
626.242340	52.867779
626.667960	52.162651
627.093557	51.439352
627.519132	50.708523
627.944685	49.955729
628.370216	49.195140
628.795725	48.412986
629.221212	47.608137
629.646677	46.791087
630.072119	45.974464
630.497540	45.139368
630.922938	44.302091
631.348314	43.466090
631.773668	42.635774
632.198999	41.811353
632.624308	40.994562
633.049595	40.186717
633.474860	39.390411
633.900102	38.609069
634.325322	37.845268
634.750520	37.106026
635.175695	36.370965
635.600848	35.664176
636.025978	34.981154
636.451086	34.310888
636.876171	33.668484
637.301234	33.037181
637.726275	32.438438
638.151293	31.856476
638.576288	31.284034
639.001261	30.732127
639.426211	30.204397
639.851139	29.680968
640.276044	29.188595
640.700927	28.717784
641.125787	28.278469
641.550624	27.858646
641.975438	27.466065
642.400230	27.098485
642.824999	26.769409
643.249745	26.461746
643.674469	26.189061
644.099169	25.946075
644.523847	25.744370
644.948502	25.567275
645.373135	25.430470
645.797744	25.327118
646.222330	25.261166
646.646894	25.234784
647.071435	25.237949
647.495953	25.277569
647.920447	25.341838
648.344919	25.445562
648.769368	25.574841
649.193794	25.737995
649.618197	25.934804
650.042576	26.159966
650.466933	26.418739
650.891267	26.687238
651.315577	26.990945
651.739864	27.327734
652.164129	27.683855
652.588370	28.062931
653.012587	28.477044
653.436782	28.913288
653.860953	29.377090
654.285102	29.872522
654.709226	30.395097
655.133328	30.950703
655.557406	31.536317
655.981461	32.147985
656.405493	32.791883
656.829501	33.462635
657.253486	34.159841
657.677448	34.867048
658.101386	35.601069
658.525301	36.345060
658.949192	37.103063
659.373060	37.876070
659.796904	38.649773
660.220725	39.426279
660.644522	40.201988
661.068296	40.983403
661.492046	41.771149
661.915772	42.557418
662.339475	43.344057
662.763154	44.120698
663.186810	44.898989
663.610442	45.671091
664.034050	46.451663
664.457635	47.240929
664.881196	48.040575
665.304733	48.849963
665.728247	49.663101
666.151736	50.492503
666.575202	51.330854
666.998644	52.172469
667.422062	53.020008
667.845457	53.879749
668.268827	54.747352
668.692174	55.622270
669.115496	56.494405
669.538795	57.364442
669.962070	58.235659
670.385321	59.113892
670.808547	59.986209
671.231750	60.851522
671.654929	61.713071
672.078084	62.555612
672.501214	63.395544
672.924321	64.230762
673.347404	65.066338
673.770462	65.883765
674.193496	66.684974
674.616506	67.453619
675.039492	68.207149
675.462454	68.926831
675.885391	69.613571
676.308305	70.270063
676.731194	70.914073
677.154058	71.517923
677.576899	72.072753
677.999715	72.595651
678.422507	73.097955
678.845274	73.558086
679.268017	73.980093
679.690736	74.375375
680.113430	74.730280
680.536100	75.068360
680.958746	75.381217
681.381367	75.673310
681.803963	75.940475
682.226535	76.199811
682.649083	76.462457
683.071605	76.706637
683.494104	76.934729
683.916578	77.143518
684.339027	77.342190
684.761451	77.515569
685.183851	77.687977
685.606227	77.847530
686.028577	77.989611
686.450903	78.108670
686.873204	78.228682
687.295481	78.332695
687.717733	78.419074
688.139959	78.498327
688.562162	78.566680
688.984339	78.639812
689.406492	78.704714
689.828619	78.753189
690.250722	78.807556
690.672800	78.882793
691.094853	78.956607
691.516881	79.014585
691.938884	79.087794
692.360863	79.159685
692.782816	79.235720
693.204744	79.329435
693.626647	79.418286
694.048526	79.510214
694.470379	79.596229
694.892207	79.687574
695.314010	79.787291
695.735788	79.879608
696.157540	79.983404
696.579268	80.080699
697.000970	80.193937
697.422648	80.300464
697.844300	80.418803
698.265926	80.532504
698.687528	80.634767
699.109104	80.743286
699.530655	80.851403
699.952181	80.961022
700.373681	81.070981
700.795156	81.196677
701.216606	81.318774
701.638030	81.436125
702.059429	81.556836
702.480803	81.681850
702.902151	81.810476
703.323473	81.936844
703.744770	82.051954
704.166042	82.172257
704.587288	82.311331
705.008509	82.452411
705.429704	82.601747
705.850873	82.755394
706.272017	82.914561
706.693135	83.089683
707.114228	83.271519
707.535295	83.459187
707.956336	83.652242
708.377352	83.840795
708.798342	84.036200
709.219306	84.234226
709.640245	84.445759
710.061157	84.655443
710.482044	84.871702
710.902905	85.096848
711.323741	85.334182
711.744550	85.591991
712.165334	85.861073
712.586092	86.135190
713.006823	86.422034
713.427529	86.726504
713.848209	87.037881
714.268863	87.365670
714.689492	87.715451
715.110094	88.079940
715.530670	88.462491
715.951220	88.866287
716.371744	89.273523
716.792242	89.702266
717.212714	90.141610
717.633159	90.577037
718.053579	91.047504
718.473973	91.537521
718.894340	92.035778
719.314681	92.553617
719.734996	93.072590
720.155285	93.588503
720.575547	94.111638
720.995784	94.649133
721.415994	95.187152
721.836177	95.722879
722.256335	96.259636
722.676466	96.783223
723.096570	97.305811
723.516649	97.810448
723.936701	98.301439
724.356726	98.765978
724.776725	99.210740
725.196698	99.633056
725.616644	100.044254
726.036564	100.428963
726.456457	100.788233
726.876324	101.135336
727.296164	101.452831
727.715977	101.754917
728.135764	102.025451
728.555525	102.278351
728.975258	102.504576
729.394966	102.731967
729.814646	102.935870
730.234300	103.116980
730.653927	103.288816
731.073527	103.438143
731.493101	103.565024
731.912648	103.672199
732.332168	103.742889
732.751661	103.801157
733.171128	103.854632
733.590568	103.897980
734.009980	103.924192
734.429366	103.935439
734.848726	103.928315
735.268058	103.899426
735.687363	103.869580
736.106641	103.828737
736.525893	103.782772
736.945117	103.724265
737.364314	103.655956
737.783485	103.597323
738.202628	103.532171
738.621744	103.482719
739.040834	103.422902
739.459896	103.374457
739.878931	103.314756
740.297939	103.275715
740.716919	103.251950
741.135873	103.242190
741.554799	103.231372
741.973698	103.250246
742.392570	103.275525
742.811415	103.335358
743.230232	103.407977
743.649022	103.515434
744.067785	103.619618
744.486521	103.736756
744.905229	103.887870
745.323909	104.048112
745.742563	104.221727
746.161189	104.400593
746.579787	104.588316
746.998358	104.784267
747.416902	105.001354
747.835418	105.219518
748.253907	105.453738
748.672368	105.683270
749.090802	105.917893
749.509208	106.150716
749.927586	106.399125
750.345937	106.655702
750.764261	106.912900
751.182556	107.158485
751.600824	107.393827
752.019065	107.633804
752.437277	107.864569
752.855462	108.118709
753.273620	108.348818
753.691749	108.563880
754.109851	108.784044
754.527925	109.004345
754.945971	109.203131
755.363989	109.384292
755.781980	109.542222
756.199943	109.680792
756.617877	109.782179
757.035784	109.892734
757.453663	109.990377
757.871514	110.026832
758.289337	110.050691
758.707132	110.039104
759.124899	110.011097
759.542639	109.968462
759.960350	109.891987
760.378033	109.793985
760.795688	109.667567
761.213314	109.525053
761.630913	109.368220
762.048484	109.206095
762.466026	109.016168
762.883541	108.817187
763.301027	108.602152
763.718485	108.373624
764.135914	108.158003
764.553316	107.937332
764.970689	107.747198
765.388034	107.559242
765.805351	107.350463
766.222639	107.168714
766.639899	106.995205
767.057131	106.809408
767.474334	106.631014
767.891509	106.446623
768.308655	106.296377
768.725773	106.139897
769.142863	106.008291
769.559924	105.884814
769.976957	105.755378
770.393961	105.644706
770.810936	105.556677
771.227883	105.499391
771.644802	105.443639
772.061692	105.409960
772.478553	105.381764
772.895386	105.365960
773.312190	105.348816
773.728965	105.377607
774.145712	105.406786
774.562430	105.455262
774.979119	105.497077
775.395780	105.573990
775.812411	105.656083
776.229014	105.761357
776.645589	105.879614
777.062134	106.013282
777.478651	106.165961
777.895138	106.287531
778.311597	106.428463
778.728027	106.584650
779.144428	106.757042
779.560800	106.932715
779.977143	107.114810
780.393458	107.299505
780.809743	107.500986
781.225999	107.691092
781.642226	107.910213
782.058425	108.088075
782.474594	108.277575
782.890734	108.445051
783.306845	108.600020
783.722926	108.761216
784.138979	108.898431
784.555003	109.033686
784.970997	109.150812
785.386962	109.250970
785.802898	109.344216
786.218805	109.419258
786.634682	109.469092
787.050531	109.516019
787.466349	109.541775
787.882139	109.540201
788.297899	109.522580
788.713630	109.509690
789.129332	109.479654
789.545004	109.423969
789.960647	109.336572
790.376260	109.227852
790.791844	109.126553
791.207399	108.970842
791.622924	108.802204
792.038419	108.603938
792.453885	108.401596
792.869321	108.199476
793.284728	107.963034
793.700106	107.716402
794.115453	107.453209
794.530771	107.148125
794.946060	106.882220
795.361319	106.580970
795.776548	106.276411
796.191747	105.967299
796.606917	105.619682
797.022057	105.282539
797.437167	104.957389
797.852248	104.598878
798.267298	104.262268
798.682319	103.885732
799.097310	103.532156
799.512271	103.161523
799.927203	102.778093
800.342104	102.409245
800.756976	102.061962
801.171818	101.719747
801.586629	101.355516
802.001411	101.007376
802.416163	100.668962
802.830885	100.346660
803.245577	100.038433
803.660238	99.722523
804.074870	99.473155
804.489472	99.255620
804.904043	99.031987
805.318585	98.808975
805.733096	98.602134
806.147577	98.443166
806.562028	98.297884
806.976449	98.159249
807.390840	98.047200
807.805200	97.922250
808.219530	97.822515
808.633830	97.772787
809.048100	97.703068
809.462339	97.669921
809.876548	97.623828
810.290727	97.570761
810.704875	97.541980
811.118993	97.472537
811.533080	97.443085
811.947137	97.388467
812.361164	97.357171
812.775160	97.324899
813.189126	97.288013
813.603061	97.233021
814.016966	97.156873
814.430840	97.095909
814.844684	97.026104
815.258497	96.955821
815.672280	96.884538
816.086032	96.788198
816.499753	96.709078
816.913444	96.589094
817.327104	96.435420
817.740733	96.279386
818.154331	96.106391
818.567899	95.916971
818.981436	95.686121
819.394943	95.427170
819.808418	95.180208
820.221863	94.875091
820.635277	94.569890
821.048660	94.245933
821.462013	93.860106
821.875334	93.465049
822.288625	93.031385
822.701884	92.586248
823.115113	92.107780
823.528311	91.618228
823.941478	91.131836
824.354614	90.629066
824.767718	90.104067
825.180792	89.543058
825.593835	88.974576
826.006847	88.393772
826.419827	87.833687
826.832777	87.285554
827.245695	86.718226
827.658582	86.127359
828.071438	85.551248
828.484263	84.978624
828.897057	84.423363
829.309819	83.861161
829.722551	83.312660
830.135251	82.776350
830.547919	82.263041
830.960557	81.760328
831.373163	81.257617
831.785738	80.774721
832.198281	80.341388
832.610793	79.887507
833.023274	79.473490
833.435723	79.062582
833.848141	78.681437
834.260528	78.309263
834.672883	77.985734
835.085206	77.683570
835.497498	77.377679
835.909758	77.092554
836.321987	76.807776
836.734185	76.532222
837.146350	76.251775
837.558485	76.030842
837.970587	75.802735
838.382658	75.594775
838.794697	75.371836
839.206705	75.143026
839.618681	74.948254
840.030625	74.763388
840.442538	74.597036
840.854418	74.424592
841.266267	74.270903
841.678084	74.111854
842.089870	73.978391
842.501623	73.851316
842.913345	73.727296
843.325035	73.609232
843.736693	73.496234
844.148319	73.408496
844.559913	73.344608
844.971475	73.265294
845.383005	73.206851
845.794504	73.150908
846.205970	73.106913
846.617404	73.043661
847.028806	72.988316
847.440176	72.905070
847.851514	72.828776
848.262820	72.758594
848.674094	72.700574
849.085336	72.640452
849.496546	72.583502
849.907723	72.533963
850.318868	72.452999
850.729981	72.379166
851.141062	72.305517
851.552110	72.202630
851.963127	72.112309
852.374111	71.997772
852.785062	71.834526
853.195982	71.662662
853.606869	71.448831
854.017723	71.229426
854.428546	70.998250
854.839336	70.710520
855.250093	70.413301
855.660818	70.092739
856.071511	69.743648
856.482171	69.376545
856.892799	68.972367
857.303394	68.575620
857.713956	68.136461
858.124486	67.704093
858.534984	67.282956
858.945449	66.828125
859.355881	66.383750
859.766280	65.951193
860.176647	65.516091
860.586982	65.071202
860.997283	64.645534
861.407552	64.231700
861.817789	63.842623
862.227992	63.464332
862.638163	63.116341
863.048301	62.758863
863.458406	62.440976
863.868478	62.112901
864.278518	61.826416
864.688524	61.552863
865.098498	61.275626
865.508439	61.034053
865.918347	60.823015
866.328222	60.630859
866.738064	60.438019
867.147873	60.277047
867.557649	60.140562
867.967392	60.005982
868.377102	59.883129
868.786779	59.778195
869.196423	59.694389
869.606034	59.614411
870.015612	59.496317
870.425156	59.418801
870.834668	59.302089
871.244146	59.185257
871.653591	59.089893
872.063003	58.988401
872.472382	58.868765
872.881728	58.768959
873.291040	58.676758
873.700319	58.568799
874.109564	58.443186
874.518777	58.345591
874.927956	58.220745
875.337102	58.083678
875.746214	57.949515
876.155293	57.822463
876.564338	57.691843
876.973350	57.565660
877.382329	57.437638
877.791274	57.319064
878.200186	57.215883
878.609064	57.101391
879.017909	57.007466
879.426720	56.914705
879.835497	56.810191
880.244241	56.709849
880.652952	56.631857
881.061629	56.600750
881.470272	56.532793
881.878881	56.472778
882.287457	56.439969
882.695999	56.415858
883.104507	56.381217
883.512982	56.379474
883.921423	56.359028
884.329830	56.353000
884.738203	56.319742
885.146543	56.311962
885.554849	56.280932
885.963120	56.263198
886.371358	56.245899
886.779563	56.216148
887.187733	56.148605
887.595869	56.086626
888.003971	56.027215
888.412040	55.973273
888.820074	55.889356
889.228074	55.792817
889.636041	55.718044
890.043973	55.594605
890.451871	55.483288
890.859736	55.362247
891.267566	55.204357
891.675362	55.051949
892.083124	54.885878
892.490851	54.706582
892.898545	54.531662
893.306204	54.316267
893.713829	54.078100
894.121420	53.864075
894.528977	53.645937
894.936499	53.427340
895.343987	53.190631
895.751441	52.949316
896.158860	52.715395
896.566246	52.503222
896.973596	52.284896
897.380913	52.096813
897.788195	51.914073
898.195442	51.744344
898.602655	51.575825
899.009834	51.424604
899.416978	51.315193
899.824088	51.214619
900.231163	51.123320
900.638204	51.058055
901.045210	50.981163
901.452181	50.942366
901.859118	50.933488
902.266021	50.899720
902.672888	50.933868
903.079721	50.925916
903.486520	50.914532
903.893283	50.961710
904.300012	50.990993
904.706707	51.011224
905.113366	51.056134
905.519991	51.079516
905.926581	51.146411
906.333136	51.189771
906.739656	51.237931
907.146142	51.230572
907.552592	51.226541
907.959008	51.227528
908.365389	51.223321
908.771735	51.179200
909.178046	51.125554
909.584322	51.044279
909.990563	50.944973
910.396769	50.825286
910.802940	50.676197
911.209076	50.533888
911.615177	50.347766
912.021243	50.140626
912.427274	49.911563
912.833270	49.689865
913.239231	49.450320
913.645156	49.193117
914.051046	48.908299
914.456902	48.608372
914.862721	48.302221
915.268506	47.989539
915.674256	47.654829
916.079970	47.341736
916.485649	46.993599
916.891292	46.652821
917.296901	46.313889
917.702474	45.961191
918.108011	45.640490
918.513514	45.286799
918.918980	44.961731
919.324412	44.630776
919.729808	44.361471
920.135169	44.081392
920.540494	43.815512
920.945783	43.554552
921.351037	43.306538
921.756256	43.081196
922.161439	42.881872
922.566586	42.693174
922.971698	42.529909
923.376775	42.373147
923.781815	42.230722
924.186820	42.111221
924.591790	42.001375
924.996723	41.891892
925.401621	41.790588
925.806484	41.693236
926.211310	41.623208
926.616101	41.573526
927.020856	41.506794
927.425575	41.444458
927.830259	41.392545
928.234906	41.359853
928.639518	41.325915
929.044094	41.312290
929.448634	41.285469
929.853138	41.258163
930.257606	41.243270
930.662038	41.214563
931.066434	41.208535
931.470795	41.152764
931.875119	41.121416
932.279407	41.053050
932.683659	40.986782
933.087875	40.927784
933.492055	40.867940
933.896199	40.805351
934.300307	40.727009
934.704379	40.641483
935.108414	40.567367
935.512414	40.455901
935.916377	40.374488
936.320304	40.232477
936.724195	40.139478
937.128049	40.038380
937.531867	39.953616
937.935649	39.862973
938.339395	39.775466
938.743104	39.687619
939.146777	39.596615
939.550414	39.529073
939.954014	39.472116
940.357578	39.407090
940.761105	39.346045
941.164596	39.299164
941.568050	39.258610
941.971468	39.263201
942.374850	39.269663
942.778195	39.300719
943.181503	39.284366
943.584775	39.279416
943.988010	39.290414
944.391209	39.327656
944.794371	39.362941
945.197496	39.414867
945.600585	39.452241
946.003637	39.466510
946.406653	39.518827
946.809632	39.567968
947.212574	39.606255
947.615479	39.636851
948.018347	39.663304
948.421179	39.670721
948.823974	39.717483
949.226732	39.715492
949.629453	39.715436
950.032138	39.684402
950.434785	39.666100
950.837396	39.613320
951.239969	39.540400
951.642506	39.427571
952.045006	39.313738
952.447469	39.155709
952.849895	38.983346
953.252283	38.805271
953.654635	38.621901
954.056950	38.378851
954.459227	38.104985
954.861468	37.810139
955.263671	37.507039
955.665838	37.200217
956.067967	36.875791
956.470059	36.556756
956.872114	36.152149
957.274131	35.789957
957.676112	35.411470
958.078055	35.053757
958.479961	34.680751
958.881829	34.256885
959.283661	33.821906
959.685455	33.452208
960.087211	33.083522
960.488931	32.686537
960.890613	32.306044
961.292257	31.934718
961.693864	31.554573
962.095434	31.195945
962.496966	30.867469
962.898461	30.560210
963.299918	30.266319
963.701338	30.005516
964.102720	29.765225
964.504065	29.549959
964.905372	29.330904
965.306641	29.088835
965.707873	28.941048
966.109068	28.738611
966.510224	28.653922
966.911343	28.507445
967.312425	28.427524
967.713468	28.295851
968.114474	28.225288
968.515442	28.152134
968.916373	28.101141
969.317265	28.069603
969.718120	28.069030
970.118937	28.029576
970.519716	27.957449
970.920458	27.981891
971.321161	28.032680
971.721827	28.078352
972.122454	28.074459
972.523044	28.067974
972.923596	28.064722
973.324110	28.116927
973.724585	28.149217
974.125023	28.196671
974.525423	28.226934
974.925785	28.277242
975.326108	28.286015
975.726394	28.273287
976.126642	28.317508
976.526851	28.336587
976.927022	28.345113
977.327155	28.410358
977.727250	28.490071
978.127307	28.524894
978.527325	28.580973
978.927306	28.532525
979.327248	28.566161
979.727151	28.579674
980.127017	28.666928
980.526844	28.674253
980.926633	28.730598
981.326383	28.739832
981.726095	28.827599
982.125769	28.831441
982.525404	28.897724
982.925001	29.014463
983.324560	29.031273
983.724079	29.075677
984.123561	29.132998
984.523004	29.148809
984.922408	29.265881
985.321774	29.413229
985.721102	29.505738
986.120390	29.543628
986.519641	29.615374
986.918852	29.703692
987.318025	29.834315
987.717159	29.895400
988.116255	30.032265
988.515312	30.171820
988.914330	30.343960
989.313310	30.425995
989.712250	30.623875
990.111152	30.849345
990.510015	30.983494
990.908840	31.241008
991.307625	31.389812
991.706372	31.495512
992.105080	31.702779
992.503749	31.763090
992.902379	31.927598
993.300970	32.037795
993.699522	32.208961
994.098035	32.333040
994.496510	32.634467
994.894945	32.716205
995.293341	32.712406
995.691698	32.926695
996.090016	33.112151
996.488296	33.308769
996.886535	33.633357
997.284736	33.624507
997.682898	33.818830
998.081021	34.055688
998.479104	34.357854
998.877148	34.520606
999.275153	34.575744
999.673119	34.855897
1000.071046	35.104316
1000.468933	35.252073
1000.866781	35.270493
1001.264590	35.389571
1001.662359	35.619531
1002.060089	35.703499
1002.457780	35.577302
1002.855431	35.873325
1003.253043	35.885809
1003.650615	36.246091
1004.048148	36.416039
1004.445642	36.655592
1004.843096	37.164202
1005.240511	37.734169
1005.637886	38.068768
1006.035221	38.442733
1006.432517	38.894005
1006.829774	39.201514
1007.226991	40.083774
1007.624168	40.682498
1008.021306	41.142143
1008.418404	41.433200
1008.815462	41.781694
1009.212481	42.044141
1009.609460	42.843127
1010.006399	43.116828
1010.403298	43.617079
1010.800158	44.138749
1011.196978	45.084114
1011.593758	46.256540
1011.990498	46.989967
1012.387199	47.944505
1012.783860	48.937153
1013.180480	50.150273
1013.577061	51.277180
1013.973602	52.600567
1014.370103	53.657806
1014.766564	54.909091
1015.162985	55.766984
1015.559366	56.645458
1015.955708	57.325973
1016.352009	58.579062
1016.748270	59.359916
1017.144491	59.731844
1017.540671	60.054541
1017.936812	60.978385
1018.332913	61.924630
1018.728973	62.790362
1019.124994	63.238916
1019.520974	62.960504
1019.916914	64.023626
1020.312814	64.929467
