Time1=100ms:Average1=5:Objective=10X:Aperture=1: (11/28/2018 9:34:29 AM)
11/28/2018 9:34:29 AM
Reflectance
10X
Ap#: 1
Avg1: 5.000000
Avg2: 0.000000
Int.Time1:100.000000

350.166136	54.353495
350.601937	54.418524
351.037728	54.347246
351.473509	54.340865
351.909281	54.299732
352.345042	54.288787
352.780794	54.413217
353.216536	54.341183
353.652267	54.332342
354.087989	54.162904
354.523701	54.524195
354.959403	54.467663
355.395095	54.762761
355.830777	54.399498
356.266449	54.617037
356.702110	54.720530
357.137762	55.124753
357.573404	54.941418
358.009035	54.549513
358.444656	54.607966
358.880268	54.794888
359.315869	54.929954
359.751459	54.867650
360.187040	55.151839
360.622610	54.803010
361.058170	54.928458
361.493720	54.990267
361.929260	55.102041
362.364789	55.126957
362.800308	55.240039
363.235816	55.390103
363.671314	55.352527
364.106802	55.342393
364.542279	55.660795
364.977746	55.722758
365.413203	55.919418
365.848649	55.865624
366.284084	55.669738
366.719509	55.723906
367.154924	55.587012
367.590328	55.802229
368.025721	55.699115
368.461104	55.614313
368.896477	55.527106
369.331838	55.422218
369.767189	55.517150
370.202530	55.097173
370.637859	54.512667
371.073178	54.606880
371.508486	55.000438
371.943784	55.060516
372.379071	54.900587
372.814347	55.036855
373.249612	55.338953
373.684866	55.090448
374.120110	55.361203
374.555343	55.341843
374.990565	55.155540
375.425776	55.440460
375.860976	55.160391
376.296165	55.042126
376.731343	54.982669
377.166511	54.919236
377.601667	55.026821
378.036812	54.829496
378.471946	54.798788
378.907070	54.621703
379.342182	54.794402
379.777283	55.024255
380.212373	55.133310
380.647452	54.862972
381.082520	54.755540
381.517576	54.808687
381.952622	55.023758
382.387656	54.966887
382.822679	54.909561
383.257691	54.548572
383.692692	54.439133
384.127681	54.735221
384.562659	54.581197
384.997626	54.359673
385.432581	54.313943
385.867525	54.480226
386.302458	54.471822
386.737379	54.258032
387.172289	54.174444
387.607188	53.867637
388.042075	53.384602
388.476951	53.708093
388.911815	53.619007
389.346668	53.655242
389.781509	53.699324
390.216338	53.456998
390.651157	53.374337
391.085963	53.521721
391.520758	53.546757
391.955541	53.400990
392.390313	53.220936
392.825073	52.908193
393.259821	52.494359
393.694558	52.234451
394.129283	52.300524
394.563996	52.162320
394.998698	51.919880
395.433388	51.589242
395.868066	51.244564
396.302732	51.467371
396.737386	51.279839
397.172029	51.550912
397.606659	51.215539
398.041278	50.734491
398.475885	50.058503
398.910480	49.390999
399.345063	48.541396
399.779634	48.274256
400.214194	47.637210
400.648741	46.589677
401.083276	45.548458
401.517799	44.945418
401.952310	43.802250
402.386809	42.367663
402.821296	41.050726
403.255771	39.669421
403.690234	38.103176
404.124684	36.554702
404.559123	34.947046
404.993549	33.276651
405.427963	31.498958
405.862365	30.098041
406.296754	28.688668
406.731131	27.487569
407.165496	26.207593
407.599849	25.074730
408.034190	24.016827
408.468518	23.058399
408.902833	22.081795
409.337137	21.260089
409.771428	20.366943
410.205706	19.637320
410.639973	18.824417
411.074226	18.212554
411.508467	17.714011
411.942696	17.313978
412.376912	16.997545
412.811116	16.673662
413.245307	16.354621
413.679486	16.093593
414.113652	15.870073
414.547805	15.693981
414.981946	15.489806
415.416074	15.294106
415.850190	15.149870
416.284293	15.002906
416.718383	14.929797
417.152460	14.929001
417.586525	14.888477
418.020577	14.870228
418.454616	14.914343
418.888643	14.998128
419.322656	15.046235
419.756657	15.075858
420.190645	15.115091
420.624620	15.141650
421.058582	15.160566
421.492531	15.181999
421.926468	15.220411
422.360391	15.328836
422.794301	15.416191
423.228199	15.561395
423.662083	15.735981
424.095955	15.965965
424.529813	16.181227
424.963658	16.403369
425.397491	16.639165
425.831310	16.807737
426.265116	16.985076
426.698909	17.142653
427.132689	17.332092
427.566455	17.530844
428.000209	17.754631
428.433949	18.002476
428.867676	18.289451
429.301389	18.561544
429.735090	18.849599
430.168777	19.087771
430.602451	19.266076
431.036111	19.471227
431.469759	19.663143
431.903392	19.798223
432.337013	19.934116
432.770620	20.068514
433.204213	20.251421
433.637794	20.423734
434.071360	20.635324
434.504914	20.899644
434.938453	21.201901
435.371979	21.498855
435.805492	21.799578
436.238991	22.123191
436.672477	22.411260
437.105949	22.673842
437.539407	22.892285
437.972852	23.099757
438.406283	23.270495
438.839700	23.464970
439.273104	23.704114
439.706494	23.972444
440.139871	24.255547
440.573233	24.560893
441.006582	24.872380
441.439917	25.151127
441.873238	25.375327
442.306546	25.567361
442.739839	25.729704
443.173119	25.869563
443.606385	25.998503
444.039636	26.129684
444.472874	26.260980
444.906099	26.381271
445.339309	26.586709
445.772505	26.784756
446.205687	27.015089
446.638855	27.254944
447.072009	27.546609
447.505149	27.840459
447.938275	28.111049
448.371387	28.378519
448.804485	28.626889
449.237569	28.830146
449.670638	29.014801
450.103694	29.201784
450.536735	29.337128
450.969762	29.475884
451.402774	29.619866
451.835773	29.809308
452.268757	30.001148
452.701727	30.204420
453.134683	30.411967
453.567624	30.603452
454.000551	30.769795
454.433464	30.918688
454.866362	31.055995
455.299246	31.202730
455.732116	31.306728
456.164971	31.427949
456.597811	31.534224
457.030638	31.647379
457.463449	31.777354
457.896246	31.881776
458.329029	32.027622
458.761797	32.143375
459.194551	32.283600
459.627290	32.440740
460.060014	32.593640
460.492724	32.738696
460.925419	32.882898
461.358099	33.041620
461.790765	33.182972
462.223416	33.331661
462.656052	33.467225
463.088674	33.568468
463.521281	33.646657
463.953873	33.740341
464.386450	33.825622
464.819012	33.923988
465.251560	34.019807
465.684093	34.102967
466.116611	34.195455
466.549114	34.314212
466.981602	34.436894
467.414075	34.578688
467.846533	34.703778
468.278977	34.806369
468.711405	34.920713
469.143818	35.015151
469.576216	35.079483
470.008600	35.103837
470.440968	35.121415
470.873321	35.109153
471.305659	35.090662
471.737982	35.050168
472.170289	34.997514
472.602582	34.946761
473.034859	34.874192
473.467122	34.799714
473.899369	34.729402
474.331600	34.679844
474.763817	34.627555
475.196018	34.601131
475.628204	34.585735
476.060375	34.572589
476.492530	34.578702
476.924670	34.576957
477.356795	34.546993
477.788904	34.494315
478.220998	34.413488
478.653076	34.308267
479.085139	34.193861
479.517186	34.059361
479.949219	33.904847
480.381235	33.788957
480.813236	33.661270
481.245221	33.581321
481.677191	33.532604
482.109146	33.484357
482.541084	33.451366
482.973008	33.432438
483.404915	33.433412
483.836807	33.390825
484.268683	33.340161
484.700544	33.274221
485.132388	33.171747
485.564217	33.047676
485.996031	32.892923
486.427828	32.741591
486.859610	32.572272
487.291376	32.412700
487.723126	32.237744
488.154860	32.090207
488.586579	31.952793
489.018281	31.853187
489.449968	31.820075
489.881639	31.841677
490.313293	31.922941
490.744932	32.066662
491.176555	32.260494
491.608162	32.483103
492.039753	32.719100
492.471328	32.949039
492.902886	33.177691
493.334429	33.381222
493.765956	33.557175
494.197466	33.736748
494.628960	33.908562
495.060439	34.097226
495.491901	34.318370
495.923347	34.600479
496.354776	34.941091
496.786190	35.347054
497.217587	35.819713
497.648968	36.335834
498.080332	36.902126
498.511681	37.487812
498.943013	38.102302
499.374328	38.699466
499.805628	39.275829
500.236911	39.835544
500.668177	40.353820
501.099427	40.858550
501.530661	41.315948
501.961878	41.744076
502.393079	42.133630
502.824264	42.479470
503.255431	42.789220
503.686583	43.098202
504.117717	43.384191
504.548835	43.685288
504.979937	44.018772
505.411022	44.391687
505.842090	44.831252
506.273142	45.303175
506.704177	45.826468
507.135195	46.375933
507.566197	46.930248
507.997182	47.463238
508.428150	47.958488
508.859102	48.406561
509.290036	48.781331
509.720954	49.089628
510.151855	49.324282
510.582739	49.519119
511.013607	49.701079
511.444457	49.853510
511.875291	50.043893
512.306107	50.265787
512.736907	50.550747
513.167690	50.892135
513.598456	51.267768
514.029205	51.688735
514.459936	52.125321
514.890651	52.567625
515.321349	52.988149
515.752030	53.403291
516.182693	53.779202
516.613340	54.101164
517.043969	54.367052
517.474582	54.581798
517.905177	54.723049
518.335755	54.792140
518.766315	54.796991
519.196859	54.725436
519.627385	54.621611
520.057894	54.465592
520.488386	54.295633
520.918860	54.100382
521.349318	53.921222
521.779757	53.780140
522.210180	53.656300
522.640585	53.593747
523.070973	53.574697
523.501343	53.614607
523.931696	53.702768
524.362031	53.817328
524.792349	53.944291
525.222650	54.047825
525.652933	54.130772
526.083198	54.151717
526.513446	54.126342
526.943677	54.056751
527.373890	53.960089
527.804085	53.826618
528.234262	53.670439
528.664422	53.528593
529.094565	53.419445
529.524689	53.351005
529.954796	53.342476
530.384885	53.396396
530.814957	53.512901
531.245011	53.689770
531.675047	53.939126
532.105065	54.226376
532.535065	54.545479
532.965048	54.867609
533.395013	55.205618
533.824959	55.512022
534.254888	55.808105
534.684799	56.047833
535.114693	56.242317
535.544568	56.408417
535.974425	56.496724
536.404264	56.533248
536.834086	56.498210
537.263889	56.400894
537.693674	56.257092
538.123441	56.081434
538.553190	55.883539
538.982921	55.654501
539.412634	55.428974
539.842329	55.208893
540.272006	55.006472
540.701664	54.803907
541.131304	54.640640
541.560926	54.527511
541.990530	54.434223
542.420116	54.332036
542.849683	54.247489
543.279232	54.168479
543.708763	54.059098
544.138275	53.941463
544.567769	53.801989
544.997245	53.639092
545.426702	53.435703
545.856141	53.223394
546.285562	52.997091
546.714964	52.764217
547.144347	52.558778
547.573713	52.381339
548.003059	52.263953
548.432387	52.194520
548.861697	52.175834
549.290988	52.248951
549.720260	52.387844
550.149514	52.624148
550.578750	52.948125
551.007966	53.324542
551.437164	53.751936
551.866344	54.235554
552.295504	54.734777
552.724646	55.254793
553.153769	55.761203
553.582874	56.238191
554.011960	56.673106
554.441027	57.047899
554.870075	57.331320
555.299104	57.534884
555.728115	57.650256
556.157106	57.677026
556.586079	57.599916
557.015033	57.462067
557.443968	57.259685
557.872884	56.997838
558.301781	56.678050
558.730659	56.353516
559.159518	55.989117
559.588358	55.615258
560.017180	55.234131
560.445982	54.840894
560.874765	54.446569
561.303528	54.037338
561.732273	53.614980
562.160999	53.188091
562.589705	52.731452
563.018393	52.264784
563.447061	51.775206
563.875710	51.246101
564.304340	50.714573
564.732950	50.172037
565.161542	49.611430
565.590114	49.062024
566.018666	48.506744
566.447200	47.961059
566.875714	47.439946
567.304208	46.946240
567.732684	46.486297
568.161140	46.075526
568.589576	45.716434
569.017993	45.426769
569.446391	45.195647
569.874769	45.051567
570.303128	44.973222
570.731467	44.977022
571.159787	45.073823
571.588087	45.246512
572.016368	45.492735
572.444629	45.806344
572.872870	46.188985
573.301092	46.631384
573.729294	47.105259
574.157476	47.594306
574.585639	48.102493
575.013782	48.602320
575.441906	49.073545
575.870009	49.511183
576.298093	49.912042
576.726157	50.269490
577.154202	50.574314
577.582226	50.829737
578.010231	51.041166
578.438216	51.214751
578.866181	51.347586
579.294126	51.458089
579.722051	51.538425
580.149957	51.603796
580.577842	51.642048
581.005707	51.665234
581.433553	51.649831
581.861378	51.628510
582.289184	51.562193
582.716969	51.468384
583.144734	51.340665
583.572479	51.185695
584.000205	50.984413
584.427910	50.741729
584.855594	50.453833
585.283259	50.116622
585.710904	49.747299
586.138528	49.339760
586.566132	48.878611
586.993716	48.389702
587.421280	47.869051
587.848823	47.318950
588.276346	46.738167
588.703849	46.141543
589.131332	45.534232
589.558794	44.904054
589.986236	44.255635
590.413657	43.610855
590.841058	42.956935
591.268438	42.310716
591.695799	41.669393
592.123138	41.054103
592.550458	40.460071
592.977756	39.912638
593.405034	39.406661
593.832292	38.956353
594.259529	38.546946
594.686746	38.214045
595.113942	37.920899
595.541117	37.705930
595.968272	37.553354
596.395406	37.450860
596.822519	37.390746
597.249612	37.378833
597.676684	37.389287
598.103735	37.437956
598.530766	37.511377
598.957775	37.612958
599.384764	37.727618
599.811733	37.864681
600.238680	38.025491
600.665606	38.212149
601.092512	38.416225
601.519397	38.649746
601.946261	38.919035
602.373104	39.210413
602.799926	39.536699
603.226727	39.883962
603.653507	40.261120
604.080266	40.666753
604.507004	41.080143
604.933721	41.498522
605.360417	41.912199
605.787092	42.321366
606.213746	42.695458
606.640379	43.046832
607.066991	43.356972
607.493581	43.642296
607.920150	43.871997
608.346699	44.060463
608.773226	44.194799
609.199731	44.281402
609.626216	44.309917
610.052679	44.296599
610.479121	44.241295
610.905542	44.149085
611.331941	44.011243
611.758319	43.848666
612.184676	43.636003
612.611011	43.380097
613.037325	43.078779
613.463617	42.732955
613.889888	42.338040
614.316138	41.905973
614.742366	41.436999
615.168573	40.921694
615.594758	40.385965
616.020921	39.826936
616.447063	39.252455
616.873184	38.666640
617.299283	38.074248
617.725360	37.483176
618.151416	36.911395
618.577450	36.358079
619.003462	35.829045
619.429453	35.336483
619.855422	34.870680
620.281369	34.445523
620.707295	34.050699
621.133199	33.692300
621.559081	33.370677
621.984941	33.084040
622.410779	32.834460
622.836596	32.622954
623.262391	32.440630
623.688163	32.276252
624.113914	32.147913
624.539644	32.050872
624.965351	31.982215
625.391036	31.946687
625.816699	31.943025
626.242340	31.988445
626.667960	32.071047
627.093557	32.197333
627.519132	32.361005
627.944685	32.567668
628.370216	32.823465
628.795725	33.121032
629.221212	33.443271
629.646677	33.807147
630.072119	34.185649
630.497540	34.588945
630.922938	35.023667
631.348314	35.467109
631.773668	35.922267
632.198999	36.376057
632.624308	36.832032
633.049595	37.290994
633.474860	37.739346
633.900102	38.180612
634.325322	38.627514
634.750520	39.075317
635.175695	39.522091
635.600848	39.955214
636.025978	40.390978
636.451086	40.842278
636.876171	41.294833
637.301234	41.745815
637.726275	42.204696
638.151293	42.653446
638.576288	43.099363
639.001261	43.533403
639.426211	43.955370
639.851139	44.356095
640.276044	44.728481
640.700927	45.074791
641.125787	45.385025
641.550624	45.647515
641.975438	45.864174
642.400230	46.045732
642.824999	46.173115
643.249745	46.266153
643.674469	46.315613
644.099169	46.328699
644.523847	46.311972
644.948502	46.270660
645.373135	46.226611
645.797744	46.169738
646.222330	46.097640
646.646894	46.037750
647.071435	45.982696
647.495953	45.924804
647.920447	45.876759
648.344919	45.822942
648.769368	45.795203
649.193794	45.779765
649.618197	45.753947
650.042576	45.746040
650.466933	45.745894
650.891267	45.745068
651.315577	45.760129
651.739864	45.778154
652.164129	45.816660
652.588370	45.855212
653.012587	45.909232
653.436782	45.976742
653.860953	46.051352
654.285102	46.143277
654.709226	46.246836
655.133328	46.360313
655.557406	46.486996
655.981461	46.628676
656.405493	46.780217
656.829501	46.933878
657.253486	47.086502
657.677448	47.222232
658.101386	47.341980
658.525301	47.419364
658.949192	47.475489
659.373060	47.495153
659.796904	47.473602
660.220725	47.405467
660.644522	47.306980
661.068296	47.150542
661.492046	46.962210
661.915772	46.732184
662.339475	46.466139
662.763154	46.171674
663.186810	45.852839
663.610442	45.522482
664.034050	45.176513
664.457635	44.826535
664.881196	44.480537
665.304733	44.143940
665.728247	43.814728
666.151736	43.494194
666.575202	43.202731
666.998644	42.924950
667.422062	42.661751
667.845457	42.421590
668.268827	42.191504
668.692174	41.966566
669.115496	41.750368
669.538795	41.540683
669.962070	41.330386
670.385321	41.116595
670.808547	40.911790
671.231750	40.703008
671.654929	40.504404
672.078084	40.305372
672.501214	40.107875
672.924321	39.915034
673.347404	39.737244
673.770462	39.556316
674.193496	39.403699
674.616506	39.272473
675.039492	39.155763
675.462454	39.070367
675.885391	39.012866
676.308305	38.985893
676.731194	38.985751
677.154058	39.021808
677.576899	39.087109
677.999715	39.197818
678.422507	39.325776
678.845274	39.498404
679.268017	39.705510
679.690736	39.934210
680.113430	40.200625
680.536100	40.488114
680.958746	40.797937
681.381367	41.134123
681.803963	41.493963
682.226535	41.875584
682.649083	42.267425
683.071605	42.681826
683.494104	43.114195
683.916578	43.557501
684.339027	44.010763
684.761451	44.467020
685.183851	44.920839
685.606227	45.380429
686.028577	45.838082
686.450903	46.281904
686.873204	46.718790
687.295481	47.122193
687.717733	47.505356
688.139959	47.852073
688.562162	48.162219
688.984339	48.432698
689.406492	48.656552
689.828619	48.828335
690.250722	48.952292
690.672800	49.020714
691.094853	49.024643
691.516881	48.976599
691.938884	48.870344
692.360863	48.709747
692.782816	48.500937
693.204744	48.254767
693.626647	47.980181
694.048526	47.678024
694.470379	47.360469
694.892207	47.031667
695.314010	46.684760
695.735788	46.347000
696.157540	46.018844
696.579268	45.707090
697.000970	45.408662
697.422648	45.148950
697.844300	44.913725
698.265926	44.719541
698.687528	44.559956
699.109104	44.436548
699.530655	44.351185
699.952181	44.303892
700.373681	44.303882
700.795156	44.329059
701.216606	44.396395
701.638030	44.482395
702.059429	44.598823
702.480803	44.732488
702.902151	44.888306
703.323473	45.051176
703.744770	45.222753
704.166042	45.403066
704.587288	45.602123
705.008509	45.801579
705.429704	46.009539
705.850873	46.224495
706.272017	46.429734
706.693135	46.630084
707.114228	46.831952
707.535295	47.029058
707.956336	47.228663
708.377352	47.437265
708.798342	47.645693
709.219306	47.857740
709.640245	48.059950
710.061157	48.273333
710.482044	48.473173
710.902905	48.682688
711.323741	48.885392
711.744550	49.101525
712.165334	49.317487
712.586092	49.530232
713.006823	49.746535
713.427529	49.952327
713.848209	50.165527
714.268863	50.379369
714.689492	50.594260
715.110094	50.807738
715.530670	51.029586
715.951220	51.239964
716.371744	51.459427
716.792242	51.681512
717.212714	51.896663
717.633159	52.105948
718.053579	52.319580
718.473973	52.528606
718.894340	52.725088
719.314681	52.907194
719.734996	53.080268
720.155285	53.233261
720.575547	53.361047
720.995784	53.458166
721.415994	53.516311
721.836177	53.536212
722.256335	53.509349
722.676466	53.441590
723.096570	53.328183
723.516649	53.170876
723.936701	52.964437
724.356726	52.710511
724.776725	52.399918
725.196698	52.045942
725.616644	51.650574
726.036564	51.216061
726.456457	50.748967
726.876324	50.266240
727.296164	49.753472
727.715977	49.225836
728.135764	48.688649
728.555525	48.147333
728.975258	47.614841
729.394966	47.088684
729.814646	46.582030
730.234300	46.103405
730.653927	45.638471
731.073527	45.209337
731.493101	44.805623
731.912648	44.438901
732.332168	44.127178
732.751661	43.852346
733.171128	43.616762
733.590568	43.434678
734.009980	43.299661
734.429366	43.218642
734.848726	43.178748
735.268058	43.177812
735.687363	43.233932
736.106641	43.323084
736.525893	43.452165
736.945117	43.613541
737.364314	43.800192
737.783485	44.014588
738.202628	44.249110
738.621744	44.509702
739.040834	44.782612
739.459896	45.074142
739.878931	45.355809
740.297939	45.642147
740.716919	45.933769
741.135873	46.208754
741.554799	46.474555
741.973698	46.726477
742.392570	46.975252
742.811415	47.193819
743.230232	47.393446
743.649022	47.588386
744.067785	47.755657
744.486521	47.901701
744.905229	48.024600
745.323909	48.129475
745.742563	48.222059
746.161189	48.296544
746.579787	48.352469
746.998358	48.388753
747.416902	48.423744
747.835418	48.448533
748.253907	48.476157
748.672368	48.494129
749.090802	48.514783
749.509208	48.537909
749.927586	48.574322
750.345937	48.625777
750.764261	48.690383
751.182556	48.773806
751.600824	48.880961
752.019065	49.019210
752.437277	49.186622
752.855462	49.391350
753.273620	49.636929
753.691749	49.896018
754.109851	50.218147
754.527925	50.561212
754.945971	50.934866
755.363989	51.326461
755.781980	51.746721
756.199943	52.184824
756.617877	52.633209
757.035784	53.083596
757.453663	53.538793
757.871514	53.997577
758.289337	54.436958
758.707132	54.855945
759.124899	55.260244
759.542639	55.629931
759.960350	55.971531
760.378033	56.279164
760.795688	56.555032
761.213314	56.784154
761.630913	56.961769
762.048484	57.098757
762.466026	57.187433
762.883541	57.213526
763.301027	57.197601
763.718485	57.127060
764.135914	57.012630
764.553316	56.850943
764.970689	56.628010
765.388034	56.376550
765.805351	56.074109
766.222639	55.731808
766.639899	55.373954
767.057131	54.960810
767.474334	54.537665
767.891509	54.103445
768.308655	53.668469
768.725773	53.239267
769.142863	52.814497
769.559924	52.403968
769.976957	52.011951
770.393961	51.641833
770.810936	51.302458
771.227883	50.988698
771.644802	50.710669
772.061692	50.460384
772.478553	50.256638
772.895386	50.097861
773.312190	49.964987
773.728965	49.884792
774.145712	49.846615
774.562430	49.863517
774.979119	49.919706
775.395780	50.012973
775.812411	50.162304
776.229014	50.355103
776.645589	50.597146
777.062134	50.873764
777.478651	51.184220
777.895138	51.539235
778.311597	51.907131
778.728027	52.312298
779.144428	52.734880
779.560800	53.177301
779.977143	53.635105
780.393458	54.094348
780.809743	54.559578
781.225999	54.993709
781.642226	55.417603
782.058425	55.822952
782.474594	56.191194
782.890734	56.531639
783.306845	56.846300
783.722926	57.096219
784.138979	57.309876
784.555003	57.475293
784.970997	57.594463
785.386962	57.663976
785.802898	57.668581
786.218805	57.618955
786.634682	57.517356
787.050531	57.370724
787.466349	57.164752
787.882139	56.920558
788.297899	56.630822
788.713630	56.313836
789.129332	55.962542
789.545004	55.587130
789.960647	55.200234
790.376260	54.796348
790.791844	54.384550
791.207399	53.980403
791.622924	53.583447
792.038419	53.201296
792.453885	52.841106
792.869321	52.499471
793.284728	52.191520
793.700106	51.915526
794.115453	51.697142
794.530771	51.513301
794.946060	51.368502
795.361319	51.275325
795.776548	51.201892
796.191747	51.171519
796.606917	51.184913
797.022057	51.227441
797.437167	51.298215
797.852248	51.392509
798.267298	51.506274
798.682319	51.649637
799.097310	51.804589
799.512271	51.959672
799.927203	52.125595
800.342104	52.286123
800.756976	52.442437
801.171818	52.605359
801.586629	52.739966
802.001411	52.862068
802.416163	52.968034
802.830885	53.054175
803.245577	53.122984
803.660238	53.172329
804.074870	53.182745
804.489472	53.186807
804.904043	53.145184
805.318585	53.079713
805.733096	53.001818
806.147577	52.888300
806.562028	52.754208
806.976449	52.573723
807.390840	52.379617
807.805200	52.154151
808.219530	51.896187
808.633830	51.633708
809.048100	51.338415
809.462339	51.048323
809.876548	50.721311
810.290727	50.394208
810.704875	50.064451
811.118993	49.713963
811.533080	49.365691
811.947137	49.012750
812.361164	48.676866
812.775160	48.349121
813.189126	48.040826
813.603061	47.743160
814.016966	47.474842
814.430840	47.231129
814.844684	47.013629
815.258497	46.820228
815.672280	46.659435
816.086032	46.541234
816.499753	46.466919
816.913444	46.431356
817.327104	46.412649
817.740733	46.460986
818.154331	46.534744
818.567899	46.653878
818.981436	46.819023
819.394943	47.024127
819.808418	47.273831
820.221863	47.539716
820.635277	47.856584
821.048660	48.192057
821.462013	48.563166
821.875334	48.963495
822.288625	49.361406
822.701884	49.806895
823.115113	50.244156
823.528311	50.694273
823.941478	51.151771
824.354614	51.603818
824.767718	52.056294
825.180792	52.479945
825.593835	52.874796
826.006847	53.228112
826.419827	53.562567
826.832777	53.832805
827.245695	54.059656
827.658582	54.227499
828.071438	54.328293
828.484263	54.351906
828.897057	54.296316
829.309819	54.162563
829.722551	53.978673
830.135251	53.719390
830.547919	53.381910
830.960557	52.985074
831.373163	52.513886
831.785738	51.987905
832.198281	51.416420
832.610793	50.812067
833.023274	50.186203
833.435723	49.522657
833.848141	48.883783
834.260528	48.214238
834.672883	47.538815
835.085206	46.893192
835.497498	46.245262
835.909758	45.633921
836.321987	45.027758
836.734185	44.467479
837.146350	43.935326
837.558485	43.440730
837.970587	42.994102
838.382658	42.593775
838.794697	42.240213
839.206705	41.923295
839.618681	41.644925
840.030625	41.415751
840.442538	41.232828
840.854418	41.104208
841.266267	41.025366
841.678084	40.996299
842.089870	41.012506
842.501623	41.054743
842.913345	41.138257
843.325035	41.246478
843.736693	41.397539
844.148319	41.578716
844.559913	41.777650
844.971475	41.991031
845.383005	42.213983
845.794504	42.448761
846.205970	42.700733
846.617404	42.918171
847.028806	43.147848
847.440176	43.379270
847.851514	43.582891
848.262820	43.772228
848.674094	43.952016
849.085336	44.138972
849.496546	44.279703
849.907723	44.392032
850.318868	44.489887
850.729981	44.554941
851.141062	44.585549
851.552110	44.600647
851.963127	44.588886
852.374111	44.572220
852.785062	44.519089
853.195982	44.458361
853.606869	44.384694
854.017723	44.292684
854.428546	44.181128
854.839336	44.047187
855.250093	43.905945
855.660818	43.759119
856.071511	43.622881
856.482171	43.459343
856.892799	43.303331
857.303394	43.136630
857.713956	42.964480
858.124486	42.796540
858.534984	42.624101
858.945449	42.444001
859.355881	42.278515
859.766280	42.116661
860.176647	41.953384
860.586982	41.792645
860.997283	41.648702
861.407552	41.466576
861.817789	41.287313
862.227992	41.120522
862.638163	40.984806
863.048301	40.832032
863.458406	40.664867
863.868478	40.511627
864.278518	40.353296
864.688524	40.203393
865.098498	40.050298
865.508439	39.930497
865.918347	39.780612
866.328222	39.616632
866.738064	39.464701
867.147873	39.333326
867.557649	39.195979
867.967392	39.074829
868.377102	38.952813
868.786779	38.820353
869.196423	38.734367
869.606034	38.638215
870.015612	38.583278
870.425156	38.546289
870.834668	38.537643
871.244146	38.549341
871.653591	38.580401
872.063003	38.626947
872.472382	38.696961
872.881728	38.801687
873.291040	38.929339
873.700319	39.071614
874.109564	39.247870
874.518777	39.416114
874.927956	39.595726
875.337102	39.761977
875.746214	39.942171
876.155293	40.134406
876.564338	40.306138
876.973350	40.484836
877.382329	40.642725
877.791274	40.748556
878.200186	40.821339
878.609064	40.893285
879.017909	40.941216
879.426720	40.936450
879.835497	40.895515
880.244241	40.816974
880.652952	40.715058
881.061629	40.581612
881.470272	40.407705
881.878881	40.174000
882.287457	39.921997
882.695999	39.613068
883.104507	39.265582
883.512982	38.876444
883.921423	38.476239
884.329830	38.037189
884.738203	37.584491
885.146543	37.112276
885.554849	36.600974
885.963120	36.084622
886.371358	35.558888
886.779563	35.045638
887.187733	34.539834
887.595869	34.045233
888.003971	33.552725
888.412040	33.083560
888.820074	32.644664
889.228074	32.217670
889.636041	31.796832
890.043973	31.420139
890.451871	31.089012
890.859736	30.785842
891.267566	30.505941
891.675362	30.264293
892.083124	30.064033
892.490851	29.879998
892.898545	29.746969
893.306204	29.637998
893.713829	29.550223
894.121420	29.513897
894.528977	29.484601
894.936499	29.477608
895.343987	29.515119
895.751441	29.568312
896.158860	29.650057
896.566246	29.708671
896.973596	29.790551
897.380913	29.900224
897.788195	30.007444
898.195442	30.115004
898.602655	30.225852
899.009834	30.324822
899.416978	30.421890
899.824088	30.487329
900.231163	30.560714
900.638204	30.622163
901.045210	30.662025
901.452181	30.663640
901.859118	30.681755
902.266021	30.679081
902.672888	30.645975
903.079721	30.624049
903.486520	30.550424
903.893283	30.468955
904.300012	30.358138
904.706707	30.233189
905.113366	30.088995
905.519991	29.943221
905.926581	29.760816
906.333136	29.573182
906.739656	29.356292
907.146142	29.174108
907.552592	28.955502
907.959008	28.722768
908.365389	28.493295
908.771735	28.241380
909.178046	28.006169
909.584322	27.778521
909.990563	27.535203
910.396769	27.283173
910.802940	27.069356
911.209076	26.834018
911.615177	26.612672
912.021243	26.383402
912.427274	26.182382
912.833270	25.961661
913.239231	25.756681
913.645156	25.550887
914.051046	25.353453
914.456902	25.157861
914.862721	24.967662
915.268506	24.788521
915.674256	24.619560
916.079970	24.455768
916.485649	24.294822
916.891292	24.133037
917.296901	23.991123
917.702474	23.845220
918.108011	23.682232
918.513514	23.541288
918.918980	23.398881
919.324412	23.265266
919.729808	23.107263
920.135169	22.970633
920.540494	22.834907
920.945783	22.695341
921.351037	22.575682
921.756256	22.457322
922.161439	22.323338
922.566586	22.173924
922.971698	22.043042
923.376775	21.900266
923.781815	21.786646
924.186820	21.675625
924.591790	21.555512
924.996723	21.447755
925.401621	21.340236
925.806484	21.250771
926.211310	21.156287
926.616101	21.069915
927.020856	20.991585
927.425575	20.907009
927.830259	20.834635
928.234906	20.749497
928.639518	20.686579
929.044094	20.622165
929.448634	20.576958
929.853138	20.509419
930.257606	20.452820
930.662038	20.394353
931.066434	20.336713
931.470795	20.294044
931.875119	20.241483
932.279407	20.197064
932.683659	20.140937
933.087875	20.081040
933.492055	20.025112
933.896199	19.943682
934.300307	19.859782
934.704379	19.786378
935.108414	19.713116
935.512414	19.644014
935.916377	19.552043
936.320304	19.444744
936.724195	19.339851
937.128049	19.229981
937.531867	19.110332
937.935649	18.991616
938.339395	18.860196
938.743104	18.710409
939.146777	18.575477
939.550414	18.418182
939.954014	18.265207
940.357578	18.109051
940.761105	17.933418
941.164596	17.753245
941.568050	17.576522
941.971468	17.395040
942.374850	17.218601
942.778195	17.049240
943.181503	16.887344
943.584775	16.705788
943.988010	16.520380
944.391209	16.338605
944.794371	16.163644
945.197496	15.995543
945.600585	15.837505
946.003637	15.683677
946.406653	15.547947
946.809632	15.407258
947.212574	15.262608
947.615479	15.154843
948.018347	15.041720
948.421179	14.942754
948.823974	14.855978
949.226732	14.769703
949.629453	14.704674
950.032138	14.632987
950.434785	14.598081
950.837396	14.526181
951.239969	14.509427
951.642506	14.491784
952.045006	14.472674
952.447469	14.470742
952.849895	14.463998
953.252283	14.489079
953.654635	14.497207
954.056950	14.518865
954.459227	14.552183
954.861468	14.576844
955.263671	14.604325
955.665838	14.655101
956.067967	14.691145
956.470059	14.733604
956.872114	14.782936
957.274131	14.809253
957.676112	14.861681
958.078055	14.921167
958.479961	14.973621
958.881829	15.017579
959.283661	15.063931
959.685455	15.129749
960.087211	15.153986
960.488931	15.179821
960.890613	15.228488
961.292257	15.243504
961.693864	15.282559
962.095434	15.300378
962.496966	15.333041
962.898461	15.335067
963.299918	15.385613
963.701338	15.403176
964.102720	15.383470
964.504065	15.385474
964.905372	15.433519
965.306641	15.418660
965.707873	15.393932
966.109068	15.404945
966.510224	15.399769
966.911343	15.377872
967.312425	15.384569
967.713468	15.401329
968.114474	15.365204
968.515442	15.362288
968.916373	15.357642
969.317265	15.371781
969.718120	15.398452
970.118937	15.406887
970.519716	15.398532
970.920458	15.407786
971.321161	15.460444
971.721827	15.522026
972.122454	15.551169
972.523044	15.603554
972.923596	15.647452
973.324110	15.695986
973.724585	15.763815
974.125023	15.801850
974.525423	15.836652
974.925785	15.897073
975.326108	15.939214
975.726394	15.954989
976.126642	15.974277
976.526851	16.041388
976.927022	16.119351
977.327155	16.118840
977.727250	16.195459
978.127307	16.228291
978.527325	16.288357
978.927306	16.318131
979.327248	16.416341
979.727151	16.428459
980.127017	16.470900
980.526844	16.519779
980.926633	16.581890
981.326383	16.595859
981.726095	16.636699
982.125769	16.664598
982.525404	16.730042
982.925001	16.755602
983.324560	16.729589
983.724079	16.731201
984.123561	16.713453
984.523004	16.715872
984.922408	16.678081
985.321774	16.711616
985.721102	16.707602
986.120390	16.693612
986.519641	16.697785
986.918852	16.708210
987.318025	16.737249
987.717159	16.718090
988.116255	16.777489
988.515312	16.776260
988.914330	16.797893
989.313310	16.723524
989.712250	16.786441
990.111152	16.796232
990.510015	16.879252
990.908840	16.795233
991.307625	16.797633
991.706372	16.754542
992.105080	16.797103
992.503749	16.759414
992.902379	16.804250
993.300970	16.878303
993.699522	17.059309
994.098035	17.064657
994.496510	17.155419
994.894945	17.150602
995.293341	17.247394
995.691698	17.411567
996.090016	17.429952
996.488296	17.528357
996.886535	17.693640
997.284736	17.838149
997.682898	17.829987
998.081021	17.896563
998.479104	17.917437
998.877148	17.977698
999.275153	18.077360
999.673119	18.146779
1000.071046	18.335044
1000.468933	18.376376
1000.866781	18.589798
1001.264590	18.702731
1001.662359	18.912760
1002.060089	18.994938
1002.457780	19.067705
1002.855431	19.094776
1003.253043	19.428238
1003.650615	19.647129
1004.048148	19.774569
1004.445642	19.959607
1004.843096	20.142425
1005.240511	20.249289
1005.637886	20.334106
1006.035221	20.428747
1006.432517	20.657905
1006.829774	20.732494
1007.226991	20.820581
1007.624168	21.062683
1008.021306	21.093343
1008.418404	21.375746
1008.815462	21.543173
1009.212481	21.738111
1009.609460	22.102984
1010.006399	22.550722
1010.403298	22.872720
1010.800158	23.407369
1011.196978	23.632068
1011.593758	23.850986
1011.990498	24.245690
1012.387199	24.639037
1012.783860	24.821632
1013.180480	25.137185
1013.577061	25.668109
1013.973602	26.050200
1014.370103	26.518328
1014.766564	26.779372
1015.162985	27.169360
1015.559366	27.319425
1015.955708	27.612127
1016.352009	27.862057
1016.748270	28.161778
1017.144491	28.721819
1017.540671	29.185997
1017.936812	29.460581
1018.332913	29.645491
1018.728973	30.096227
1019.124994	30.628803
1019.520974	31.348918
1019.916914	31.527171
1020.312814	32.177297
