Time1=100ms:Average1=5:Objective=10X:Aperture=1: (11/28/2018 9:33:09 AM)
11/28/2018 9:33:09 AM
Reflectance
10X
Ap#: 1
Avg1: 5.000000
Avg2: 0.000000
Int.Time1:100.000000

350.166136	57.533440
350.601937	57.341081
351.037728	57.506452
351.473509	57.347447
351.909281	57.689563
352.345042	57.560276
352.780794	57.645686
353.216536	57.792558
353.652267	57.632314
354.087989	57.549214
354.523701	57.528332
354.959403	57.782382
355.395095	57.863048
355.830777	57.637456
356.266449	58.017180
356.702110	58.142243
357.137762	58.418596
357.573404	58.429479
358.009035	57.951603
358.444656	57.813895
358.880268	57.887211
359.315869	58.276077
359.751459	58.340735
360.187040	58.740761
360.622610	58.432935
361.058170	58.090443
361.493720	58.210936
361.929260	58.521071
362.364789	58.683535
362.800308	58.718609
363.235816	58.903255
363.671314	59.131830
364.106802	59.152678
364.542279	59.475967
364.977746	59.555634
365.413203	59.407171
365.848649	59.251689
366.284084	59.080439
366.719509	59.046606
367.154924	58.763160
367.590328	58.915620
368.025721	58.902655
368.461104	58.610964
368.896477	58.396610
369.331838	58.528192
369.767189	58.521670
370.202530	58.365724
370.637859	58.233638
371.073178	58.178308
371.508486	58.532737
371.943784	58.796702
372.379071	58.754489
372.814347	58.678484
373.249612	58.737267
373.684866	58.411256
374.120110	58.693371
374.555343	58.917643
374.990565	58.668298
375.425776	58.487117
375.860976	58.315900
376.296165	58.151655
376.731343	58.145581
377.166511	57.873370
377.601667	58.063679
378.036812	57.668340
378.471946	57.628732
378.907070	57.699957
379.342182	58.111610
379.777283	58.385308
380.212373	58.163089
380.647452	58.303795
381.082520	58.282314
381.517576	58.135126
381.952622	58.004320
382.387656	57.959921
382.822679	58.001723
383.257691	57.635257
383.692692	57.572136
384.127681	57.780820
384.562659	57.623932
384.997626	57.356948
385.432581	57.524913
385.867525	57.478432
386.302458	57.634922
386.737379	57.249703
387.172289	57.339216
387.607188	56.982058
388.042075	56.866391
388.476951	57.170674
388.911815	57.182860
389.346668	57.023468
389.781509	57.111486
390.216338	56.661046
390.651157	56.887691
391.085963	56.743990
391.520758	56.983993
391.955541	56.973916
392.390313	56.710284
392.825073	56.456607
393.259821	56.120999
393.694558	56.144739
394.129283	56.152758
394.563996	56.220315
394.998698	56.316489
395.433388	56.528946
395.868066	56.694968
396.302732	56.717712
396.737386	56.941534
397.172029	56.754763
397.606659	56.191717
398.041278	56.043867
398.475885	55.787775
398.910480	55.149555
399.345063	54.659265
399.779634	54.028031
400.214194	53.190434
400.648741	52.188212
401.083276	51.323234
401.517799	50.101341
401.952310	48.763202
402.386809	47.392988
402.821296	45.891433
403.255771	44.343535
403.690234	42.655554
404.124684	40.736416
404.559123	38.892433
404.993549	37.060810
405.427963	35.076551
405.862365	33.434371
406.296754	31.788569
406.731131	30.301058
407.165496	28.837444
407.599849	27.575630
408.034190	26.311743
408.468518	25.175898
408.902833	24.063030
409.337137	22.962473
409.771428	21.942322
410.205706	21.059633
410.639973	20.283414
411.074226	19.717881
411.508467	19.121500
411.942696	18.654927
412.376912	18.237802
412.811116	17.878661
413.245307	17.582783
413.679486	17.327564
414.113652	17.122190
414.547805	16.903549
414.981946	16.699496
415.416074	16.555122
415.850190	16.411735
416.284293	16.250391
416.718383	16.189081
417.152460	16.155975
417.586525	16.162015
418.020577	16.172513
418.454616	16.161661
418.888643	16.223835
419.322656	16.256867
419.756657	16.255937
420.190645	16.275581
420.624620	16.303018
421.058582	16.299644
421.492531	16.306463
421.926468	16.346469
422.360391	16.442091
422.794301	16.587624
423.228199	16.769097
423.662083	16.979683
424.095955	17.190375
424.529813	17.385406
424.963658	17.583027
425.397491	17.785259
425.831310	17.967387
426.265116	18.123153
426.698909	18.267223
427.132689	18.444452
427.566455	18.608708
428.000209	18.814914
428.433949	19.072713
428.867676	19.317231
429.301389	19.581530
429.735090	19.843284
430.168777	20.032625
430.602451	20.219385
431.036111	20.371615
431.469759	20.498897
431.903392	20.646233
432.337013	20.768405
432.770620	20.889457
433.204213	21.075832
433.637794	21.275870
434.071360	21.492895
434.504914	21.746161
434.938453	22.010111
435.371979	22.288426
435.805492	22.565271
436.238991	22.824367
436.672477	23.056350
437.105949	23.261741
437.539407	23.442872
437.972852	23.647856
438.406283	23.832407
438.839700	24.020035
439.273104	24.230892
439.706494	24.458571
440.139871	24.720343
440.573233	25.011192
441.006582	25.298883
441.439917	25.547215
441.873238	25.736820
442.306546	25.900442
442.739839	26.018685
443.173119	26.131161
443.606385	26.245481
444.039636	26.352886
444.472874	26.488361
444.906099	26.638204
445.339309	26.805443
445.772505	27.010843
446.205687	27.239787
446.638855	27.468474
447.072009	27.708715
447.505149	27.962024
447.938275	28.213061
448.371387	28.470557
448.804485	28.707478
449.237569	28.899686
449.670638	29.063687
450.103694	29.242864
450.536735	29.370107
450.969762	29.512402
451.402774	29.656812
451.835773	29.841112
452.268757	30.041746
452.701727	30.228388
453.134683	30.442346
453.567624	30.621567
454.000551	30.771221
454.433464	30.908615
454.866362	31.038455
455.299246	31.162706
455.732116	31.246868
456.164971	31.356186
456.597811	31.459977
457.030638	31.548802
457.463449	31.660146
457.896246	31.772775
458.329029	31.893174
458.761797	32.006121
459.194551	32.138741
459.627290	32.265206
460.060014	32.405595
460.492724	32.549578
460.925419	32.694287
461.358099	32.831027
461.790765	32.967568
462.223416	33.073021
462.656052	33.174737
463.088674	33.256591
463.521281	33.320872
463.953873	33.411308
464.386450	33.485440
464.819012	33.575929
465.251560	33.636973
465.684093	33.699743
466.116611	33.801789
466.549114	33.897409
466.981602	34.004936
467.414075	34.124352
467.846533	34.217650
468.278977	34.298389
468.711405	34.377678
469.143818	34.456370
469.576216	34.502465
470.008600	34.507377
470.440968	34.501877
470.873321	34.472657
471.305659	34.428467
471.737982	34.361288
472.170289	34.303869
472.602582	34.220600
473.034859	34.142284
473.467122	34.040274
473.899369	33.947534
474.331600	33.855413
474.763817	33.770224
475.196018	33.690699
475.628204	33.642960
476.060375	33.603744
476.492530	33.571879
476.924670	33.536685
477.356795	33.474969
477.788904	33.393456
478.220998	33.268143
478.653076	33.133890
479.085139	32.994829
479.517186	32.816665
479.949219	32.662410
480.381235	32.519160
480.813236	32.397165
481.245221	32.310541
481.677191	32.248984
482.109146	32.206829
482.541084	32.177909
482.973008	32.151282
483.404915	32.138472
483.836807	32.115324
484.268683	32.074334
484.700544	32.014100
485.132388	31.941044
485.564217	31.832112
485.996031	31.722484
486.427828	31.613746
486.859610	31.519332
487.291376	31.423991
487.723126	31.339253
488.154860	31.281329
488.586579	31.246392
489.018281	31.243073
489.449968	31.300316
489.881639	31.411970
490.313293	31.579175
490.744932	31.801032
491.176555	32.077589
491.608162	32.380147
492.039753	32.690534
492.471328	32.992674
492.902886	33.301467
493.334429	33.570432
493.765956	33.815232
494.197466	34.061318
494.628960	34.303468
495.060439	34.581205
495.491901	34.891194
495.923347	35.246616
496.354776	35.665034
496.786190	36.153662
497.217587	36.699478
497.648968	37.283735
498.080332	37.901190
498.511681	38.535448
498.943013	39.169100
499.374328	39.783006
499.805628	40.355855
500.236911	40.887283
500.668177	41.381140
501.099427	41.838556
501.530661	42.252478
501.961878	42.629110
502.393079	42.967615
502.824264	43.254758
503.255431	43.530386
503.686583	43.770427
504.117717	44.018122
504.548835	44.284513
504.979937	44.590864
505.411022	44.936568
505.842090	45.337617
506.273142	45.774523
506.704177	46.275193
507.135195	46.802158
507.566197	47.331805
507.997182	47.859543
508.428150	48.334451
508.859102	48.740618
509.290036	49.090870
509.720954	49.379633
510.151855	49.589838
510.582739	49.750971
511.013607	49.908126
511.444457	50.059367
511.875291	50.222706
512.306107	50.434584
512.736907	50.700404
513.167690	51.035954
513.598456	51.404101
514.029205	51.808312
514.459936	52.225307
514.890651	52.642808
515.321349	53.039350
515.752030	53.418673
516.182693	53.749683
516.613340	54.024981
517.043969	54.249372
517.474582	54.403350
517.905177	54.470596
518.335755	54.459256
518.766315	54.386207
519.196859	54.252940
519.627385	54.072872
520.057894	53.840240
520.488386	53.617260
520.918860	53.368032
521.349318	53.132025
521.779757	52.934596
522.210180	52.788988
522.640585	52.707956
523.070973	52.680179
523.501343	52.726482
523.931696	52.836783
524.362031	52.975884
524.792349	53.138751
525.222650	53.311731
525.652933	53.458936
526.083198	53.559158
526.513446	53.621336
526.943677	53.642078
527.373890	53.641970
527.804085	53.617797
528.234262	53.571650
528.664422	53.552458
529.094565	53.552186
529.524689	53.608115
529.954796	53.711310
530.384885	53.866768
530.814957	54.086221
531.245011	54.367248
531.675047	54.705468
532.105065	55.080665
532.535065	55.465277
532.965048	55.862926
533.395013	56.245802
533.824959	56.583589
534.254888	56.900837
534.684799	57.139126
535.114693	57.323837
535.544568	57.454455
535.974425	57.486804
536.404264	57.451991
536.834086	57.318991
537.263889	57.124570
537.693674	56.872019
538.123441	56.569708
538.553190	56.230374
538.982921	55.870591
539.412634	55.524566
539.842329	55.180858
540.272006	54.877277
540.701664	54.592085
541.131304	54.361191
541.560926	54.205396
541.990530	54.069985
542.420116	53.971937
542.849683	53.903419
543.279232	53.857706
543.708763	53.835038
544.138275	53.816713
544.567769	53.782691
544.997245	53.740822
545.426702	53.691728
545.856141	53.629986
546.285562	53.572635
546.714964	53.526790
547.144347	53.500005
547.573713	53.495008
548.003059	53.553565
548.432387	53.644450
548.861697	53.783833
549.290988	54.005367
549.720260	54.287441
550.149514	54.641442
550.578750	55.050397
551.007966	55.486714
551.437164	55.952773
551.866344	56.445531
552.295504	56.949821
552.724646	57.421388
553.153769	57.859434
553.582874	58.228135
554.011960	58.521362
554.441027	58.718949
554.870075	58.794464
555.299104	58.772779
555.728115	58.636255
556.157106	58.405324
556.586079	58.072207
557.015033	57.668362
557.443968	57.191710
557.872884	56.672453
558.301781	56.108942
558.730659	55.532905
559.159518	54.954026
559.588358	54.378427
560.017180	53.808551
560.445982	53.261342
560.874765	52.737368
561.303528	52.224692
561.732273	51.733492
562.160999	51.261095
562.589705	50.796000
563.018393	50.345811
563.447061	49.913198
563.875710	49.485438
564.304340	49.087189
564.732950	48.707856
565.161542	48.359521
565.590114	48.031117
566.018666	47.736876
566.447200	47.476151
566.875714	47.276107
567.304208	47.120707
567.732684	47.028609
568.161140	46.996814
568.589576	47.029575
569.017993	47.145124
569.446391	47.323850
569.874769	47.581879
570.303128	47.897647
570.731467	48.290135
571.159787	48.759883
571.588087	49.291491
572.016368	49.889849
572.444629	50.526735
572.872870	51.201115
573.301092	51.905326
573.729294	52.593808
574.157476	53.260942
574.585639	53.898853
575.013782	54.486717
575.441906	54.996513
575.870009	55.423846
576.298093	55.752561
576.726157	56.004858
577.154202	56.164922
577.582226	56.227512
578.010231	56.218871
578.438216	56.130528
578.866181	55.980178
579.294126	55.784097
579.722051	55.543148
580.149957	55.258510
580.577842	54.945156
581.005707	54.603616
581.433553	54.224693
581.861378	53.829797
582.289184	53.389264
582.716969	52.914025
583.144734	52.408198
583.572479	51.880435
584.000205	51.308159
584.427910	50.708719
584.855594	50.078018
585.283259	49.414890
585.710904	48.737149
586.138528	48.038886
586.566132	47.328038
586.993716	46.620376
587.421280	45.905808
587.848823	45.202007
588.276346	44.511535
588.703849	43.840572
589.131332	43.191099
589.558794	42.577103
589.986236	41.974746
590.413657	41.403116
590.841058	40.877148
591.268438	40.372628
591.695799	39.921551
592.123138	39.512779
592.550458	39.165809
592.977756	38.881255
593.405034	38.664635
593.832292	38.525005
594.259529	38.453576
594.686746	38.469777
595.113942	38.551340
595.541117	38.714750
595.968272	38.957200
596.395406	39.258233
596.822519	39.608975
597.249612	40.000261
597.676684	40.413662
598.103735	40.852955
598.530766	41.296812
598.957775	41.756268
599.384764	42.206660
599.811733	42.647726
600.238680	43.074532
600.665606	43.500448
601.092512	43.912596
601.519397	44.309131
601.946261	44.707315
602.373104	45.096232
602.799926	45.474745
603.226727	45.845210
603.653507	46.206945
604.080266	46.554304
604.507004	46.887033
604.933721	47.176552
605.360417	47.433058
605.787092	47.640815
606.213746	47.788989
606.640379	47.887646
607.066991	47.914673
607.493581	47.879651
607.920150	47.770431
608.346699	47.593024
608.773226	47.354807
609.199731	47.046773
609.626216	46.682568
610.052679	46.265611
610.479121	45.815572
610.905542	45.319548
611.331941	44.800361
611.758319	44.262553
612.184676	43.692215
612.611011	43.096188
613.037325	42.483413
613.463617	41.867547
613.889888	41.232629
614.316138	40.586509
614.742366	39.937821
615.168573	39.284816
615.594758	38.640496
616.020921	38.007853
616.447063	37.397190
616.873184	36.806002
617.299283	36.250124
617.725360	35.724263
618.151416	35.260488
618.577450	34.847928
619.003462	34.488676
619.429453	34.196832
619.855422	33.952379
620.281369	33.776990
620.707295	33.659800
621.133199	33.602611
621.559081	33.611363
621.984941	33.666542
622.410779	33.770127
622.836596	33.914800
623.262391	34.101775
623.688163	34.327012
624.113914	34.597882
624.539644	34.904114
624.965351	35.239355
625.391036	35.606035
625.816699	36.019332
626.242340	36.467173
626.667960	36.940212
627.093557	37.457377
627.519132	38.008263
627.944685	38.589423
628.370216	39.205066
628.795725	39.850965
629.221212	40.512851
629.646677	41.196679
630.072119	41.881044
630.497540	42.556546
630.922938	43.238559
631.348314	43.884538
631.773668	44.506656
632.198999	45.094186
632.624308	45.639238
633.049595	46.156580
633.474860	46.621002
633.900102	47.040465
634.325322	47.411013
634.750520	47.741506
635.175695	48.030348
635.600848	48.283447
636.025978	48.508821
636.451086	48.705313
636.876171	48.871033
637.301234	49.023580
637.726275	49.146324
638.151293	49.243248
638.576288	49.321991
639.001261	49.374619
639.426211	49.399606
639.851139	49.396173
640.276044	49.364687
640.700927	49.308864
641.125787	49.234449
641.550624	49.127932
641.975438	48.979509
642.400230	48.802746
642.824999	48.597063
643.249745	48.382707
643.674469	48.158291
644.099169	47.931530
644.523847	47.721229
644.948502	47.522691
645.373135	47.351979
645.797744	47.211235
646.222330	47.098988
646.646894	47.037039
647.071435	47.012248
647.495953	47.040556
647.920447	47.106743
648.344919	47.229980
648.769368	47.395671
649.193794	47.599376
649.618197	47.829450
650.042576	48.105782
650.466933	48.400750
650.891267	48.715915
651.315577	49.053622
651.739864	49.400236
652.164129	49.744909
652.588370	50.093544
653.012587	50.449336
653.436782	50.785621
653.860953	51.112458
654.285102	51.421499
654.709226	51.707790
655.133328	51.985107
655.557406	52.254969
655.981461	52.498385
656.405493	52.714737
656.829501	52.899203
657.253486	53.044174
657.677448	53.129863
658.101386	53.171899
658.525301	53.152812
658.949192	53.086868
659.373060	52.950834
659.796904	52.749366
660.220725	52.493348
660.644522	52.179890
661.068296	51.799722
661.492046	51.358994
661.915772	50.874907
662.339475	50.347366
662.763154	49.794468
663.186810	49.202812
663.610442	48.596397
664.034050	47.983428
664.457635	47.372930
664.881196	46.772306
665.304733	46.196629
665.728247	45.646357
666.151736	45.123599
666.575202	44.657750
666.998644	44.224361
667.422062	43.830383
667.845457	43.490804
668.268827	43.190441
668.692174	42.919051
669.115496	42.681866
669.538795	42.483354
669.962070	42.316816
670.385321	42.174752
670.808547	42.062321
671.231750	41.981497
671.654929	41.925032
672.078084	41.884158
672.501214	41.877687
672.924321	41.889877
673.347404	41.934341
673.770462	41.998696
674.193496	42.102577
674.616506	42.241392
675.039492	42.413595
675.462454	42.624417
675.885391	42.878970
676.308305	43.184618
676.731194	43.531009
677.154058	43.921802
677.576899	44.361880
677.999715	44.846191
678.422507	45.363883
678.845274	45.919129
679.268017	46.513792
679.690736	47.132800
680.113430	47.778885
680.536100	48.441571
680.958746	49.105248
681.381367	49.774287
681.803963	50.445253
682.226535	51.109194
682.649083	51.764958
683.071605	52.405813
683.494104	53.033299
683.916578	53.644450
684.339027	54.223670
684.761451	54.765624
685.183851	55.283921
685.606227	55.761185
686.028577	56.207326
686.450903	56.597217
686.873204	56.932636
687.295481	57.212453
687.717733	57.430246
688.139959	57.582571
688.562162	57.673704
688.984339	57.690497
689.406492	57.626991
689.828619	57.487733
690.250722	57.272946
690.672800	56.969543
691.094853	56.586845
691.516881	56.142092
691.938884	55.635038
692.360863	55.062029
692.782816	54.432211
693.204744	53.772068
693.626647	53.080240
694.048526	52.373511
694.470379	51.672350
694.892207	50.977168
695.314010	50.303582
695.735788	49.656117
696.157540	49.055437
696.579268	48.502889
697.000970	48.005051
697.422648	47.564196
697.844300	47.203029
698.265926	46.910343
698.687528	46.694288
699.109104	46.551866
699.530655	46.487891
699.952181	46.504637
700.373681	46.592732
700.795156	46.748401
701.216606	46.964081
701.638030	47.235468
702.059429	47.560962
702.480803	47.928518
702.902151	48.332814
703.323473	48.775339
703.744770	49.245577
704.166042	49.736422
704.587288	50.244983
705.008509	50.758456
705.429704	51.290021
705.850873	51.826309
706.272017	52.357754
706.693135	52.881978
707.114228	53.407242
707.535295	53.912453
707.956336	54.406189
708.377352	54.888810
708.798342	55.356017
709.219306	55.811713
709.640245	56.245819
710.061157	56.670429
710.482044	57.076600
710.902905	57.467864
711.323741	57.831923
711.744550	58.186491
712.165334	58.520278
712.586092	58.826747
713.006823	59.117339
713.427529	59.387409
713.848209	59.632012
714.268863	59.857620
714.689492	60.046315
715.110094	60.212508
715.530670	60.365817
715.951220	60.500129
716.371744	60.605996
716.792242	60.692459
717.212714	60.761187
717.633159	60.799542
718.053579	60.829722
718.473973	60.826847
718.894340	60.800763
719.314681	60.736235
719.734996	60.655758
720.155285	60.527400
720.575547	60.372271
720.995784	60.188074
721.415994	59.966671
721.836177	59.706086
722.256335	59.396098
722.676466	59.048266
723.096570	58.654993
723.516649	58.216003
723.936701	57.734236
724.356726	57.217339
724.776725	56.657644
725.196698	56.067564
725.616644	55.452675
726.036564	54.819151
726.456457	54.159308
726.876324	53.506776
727.296164	52.853826
727.715977	52.209780
728.135764	51.585553
728.555525	50.982198
728.975258	50.409207
729.394966	49.876210
729.814646	49.384985
730.234300	48.946411
730.653927	48.562126
731.073527	48.230286
731.493101	47.964635
731.912648	47.746123
732.332168	47.609739
732.751661	47.533502
733.171128	47.535458
733.590568	47.615824
734.009980	47.758835
734.429366	47.961843
734.848726	48.239396
735.268058	48.573103
735.687363	48.976900
736.106641	49.433903
736.525893	49.958550
736.945117	50.516803
737.364314	51.122735
737.783485	51.765158
738.202628	52.445736
738.621744	53.147234
739.040834	53.875901
739.459896	54.617564
739.878931	55.344662
740.297939	56.065828
740.716919	56.793070
741.135873	57.483819
741.554799	58.149077
741.973698	58.775638
742.392570	59.353881
742.811415	59.884989
743.230232	60.360336
743.649022	60.790043
744.067785	61.149300
744.486521	61.443708
744.905229	61.697056
745.323909	61.880260
745.742563	62.011674
746.161189	62.090379
746.579787	62.111088
746.998358	62.090835
747.416902	62.044790
747.835418	61.955853
748.253907	61.848070
748.672368	61.724466
749.090802	61.594363
749.509208	61.446476
749.927586	61.318022
750.345937	61.190369
750.764261	61.075348
751.182556	60.974237
751.600824	60.912948
752.019065	60.871133
752.437277	60.856414
752.855462	60.882743
753.273620	60.959421
753.691749	61.056567
754.109851	61.204450
754.527925	61.392996
754.945971	61.618959
755.363989	61.891189
755.781980	62.203928
756.199943	62.548894
756.617877	62.911146
757.035784	63.299740
757.453663	63.716939
757.871514	64.132658
758.289337	64.551797
758.707132	64.967493
759.124899	65.363148
759.542639	65.737337
759.960350	66.077288
760.378033	66.377915
760.795688	66.633890
761.213314	66.831825
761.630913	66.961457
762.048484	67.020993
762.466026	67.022647
762.883541	66.934961
763.301027	66.782812
763.718485	66.562194
764.135914	66.277153
764.553316	65.928923
764.970689	65.501032
765.388034	65.048010
765.805351	64.540938
766.222639	63.995024
766.639899	63.422214
767.057131	62.806973
767.474334	62.165440
767.891509	61.525661
768.308655	60.880937
768.725773	60.240587
769.142863	59.624137
769.559924	59.034113
769.976957	58.466139
770.393961	57.911336
770.810936	57.400027
771.227883	56.937003
771.644802	56.518082
772.061692	56.157641
772.478553	55.835055
772.895386	55.572141
773.312190	55.360577
773.728965	55.208443
774.145712	55.130177
774.562430	55.112470
774.979119	55.151690
775.395780	55.248815
775.812411	55.406583
776.229014	55.624021
776.645589	55.898681
777.062134	56.218984
777.478651	56.584104
777.895138	57.005067
778.311597	57.455691
778.728027	57.948544
779.144428	58.464542
779.560800	59.012625
779.977143	59.577046
780.393458	60.159536
780.809743	60.742871
781.225999	61.315185
781.642226	61.871153
782.058425	62.405082
782.474594	62.905904
782.890734	63.387091
783.306845	63.831612
783.722926	64.237172
784.138979	64.586812
784.555003	64.875791
784.970997	65.105540
785.386962	65.285724
785.802898	65.390733
786.218805	65.424417
786.634682	65.402266
787.050531	65.307144
787.466349	65.145979
787.882139	64.943552
788.297899	64.663693
788.713630	64.370791
789.129332	64.025097
789.545004	63.655694
789.960647	63.261298
790.376260	62.847766
790.791844	62.427447
791.207399	62.007971
791.622924	61.599917
792.038419	61.204813
792.453885	60.822742
792.869321	60.476745
793.284728	60.165565
793.700106	59.891543
794.115453	59.674356
794.530771	59.513101
794.946060	59.391017
795.361319	59.327336
795.776548	59.296930
796.191747	59.323780
796.606917	59.399222
797.022057	59.506167
797.437167	59.653594
797.852248	59.821534
798.267298	60.014841
798.682319	60.240873
799.097310	60.487612
799.512271	60.735137
799.927203	60.987089
800.342104	61.237260
800.756976	61.482432
801.171818	61.730278
801.586629	61.929098
802.001411	62.122825
802.416163	62.286187
802.830885	62.429501
803.245577	62.539202
803.660238	62.619943
804.074870	62.647327
804.489472	62.652662
804.904043	62.598002
805.318585	62.505660
805.733096	62.384257
806.147577	62.203337
806.562028	61.983759
806.976449	61.711321
807.390840	61.400910
807.805200	61.040490
808.219530	60.632690
808.633830	60.199900
809.048100	59.728525
809.462339	59.228157
809.876548	58.702264
810.290727	58.153980
810.704875	57.602420
811.118993	57.033187
811.533080	56.462775
811.947137	55.892718
812.361164	55.334573
812.775160	54.786536
813.189126	54.249545
813.603061	53.729999
814.016966	53.246147
814.430840	52.807231
814.844684	52.397031
815.258497	52.014447
815.672280	51.673756
816.086032	51.383314
816.499753	51.143942
816.913444	50.958328
817.327104	50.820027
817.740733	50.745579
818.154331	50.712917
818.567899	50.737021
818.981436	50.844956
819.394943	50.988778
819.808418	51.188495
820.221863	51.442237
820.635277	51.755864
821.048660	52.111660
821.462013	52.512977
821.875334	52.956898
822.288625	53.425421
822.701884	53.940066
823.115113	54.482727
823.528311	55.045188
823.941478	55.614797
824.354614	56.189500
824.767718	56.776793
825.180792	57.347528
825.593835	57.901408
826.006847	58.417430
826.419827	58.911580
826.832777	59.360087
827.245695	59.736840
827.658582	60.058923
828.071438	60.340364
828.484263	60.517853
828.897057	60.632469
829.309819	60.659483
829.722551	60.624560
830.135251	60.510032
830.547919	60.308380
830.960557	60.050454
831.373163	59.715848
831.785738	59.289568
832.198281	58.826270
832.610793	58.329054
833.023274	57.786840
833.435723	57.220664
833.848141	56.656259
834.260528	56.088033
834.672883	55.511988
835.085206	54.952065
835.497498	54.397331
835.909758	53.873058
836.321987	53.360283
836.734185	52.902464
837.146350	52.486487
837.558485	52.082813
837.970587	51.744322
838.382658	51.489790
838.794697	51.295580
839.206705	51.142294
839.618681	51.040805
840.030625	50.995578
840.442538	51.002797
840.854418	51.053206
841.266267	51.179151
841.678084	51.349642
842.089870	51.573921
842.501623	51.830480
842.913345	52.104251
843.325035	52.426156
843.736693	52.765125
844.148319	53.132413
844.559913	53.515183
844.971475	53.909767
845.383005	54.286005
845.794504	54.659829
846.205970	55.023348
846.617404	55.356079
847.028806	55.652659
847.440176	55.943041
847.851514	56.190956
848.262820	56.401368
848.674094	56.562646
849.085336	56.700063
849.496546	56.785908
849.907723	56.816188
850.318868	56.841831
850.729981	56.808765
851.141062	56.689731
851.552110	56.565132
851.963127	56.381705
852.374111	56.163202
852.785062	55.937823
853.195982	55.665413
853.606869	55.371000
854.017723	55.055303
854.428546	54.732156
854.839336	54.374156
855.250093	53.996349
855.660818	53.636973
856.071511	53.275364
856.482171	52.897976
856.892799	52.535748
857.303394	52.165443
857.713956	51.800003
858.124486	51.460377
858.534984	51.108715
858.945449	50.774407
859.355881	50.452027
859.766280	50.146133
860.176647	49.828926
860.586982	49.528264
860.997283	49.235854
861.407552	48.957744
861.817789	48.680157
862.227992	48.408935
862.638163	48.141440
863.048301	47.859271
863.458406	47.565974
863.868478	47.287129
864.278518	46.990907
864.688524	46.682054
865.098498	46.406694
865.508439	46.129640
865.918347	45.860957
866.328222	45.579370
866.738064	45.325266
867.147873	45.063107
867.557649	44.820974
867.967392	44.626679
868.377102	44.406673
868.786779	44.225295
869.196423	44.090233
869.606034	43.947278
870.015612	43.864801
870.425156	43.817676
870.834668	43.817989
871.244146	43.852506
871.653591	43.924063
872.063003	44.017086
872.472382	44.144344
872.881728	44.328997
873.291040	44.549434
873.700319	44.783490
874.109564	45.042525
874.518777	45.306386
874.927956	45.562167
875.337102	45.838190
875.746214	46.110089
876.155293	46.387321
876.564338	46.639913
876.973350	46.877920
877.382329	47.131711
877.791274	47.317521
878.200186	47.457724
878.609064	47.567704
879.017909	47.643918
879.426720	47.646323
879.835497	47.604375
880.244241	47.516400
880.652952	47.348528
881.061629	47.165646
881.470272	46.898269
881.878881	46.585261
882.287457	46.230454
882.695999	45.812578
883.104507	45.350020
883.512982	44.828480
883.921423	44.282593
884.329830	43.692188
884.738203	43.080738
885.146543	42.450885
885.554849	41.789424
885.963120	41.108296
886.371358	40.427543
886.779563	39.749785
887.187733	39.088837
887.595869	38.463078
888.003971	37.831701
888.412040	37.251332
888.820074	36.688412
889.228074	36.147119
889.636041	35.644547
890.043973	35.156354
890.451871	34.729929
890.859736	34.341474
891.267566	33.990754
891.675362	33.689971
892.083124	33.432014
892.490851	33.209850
892.898545	33.015020
893.306204	32.881084
893.713829	32.787785
894.121420	32.726297
894.528977	32.679775
894.936499	32.669875
895.343987	32.697047
895.751441	32.723988
896.158860	32.773978
896.566246	32.837185
896.973596	32.901411
897.380913	32.995950
897.788195	33.068702
898.195442	33.133852
898.602655	33.202117
899.009834	33.260302
899.416978	33.303441
899.824088	33.317903
900.231163	33.331237
900.638204	33.330648
901.045210	33.283837
901.452181	33.232870
901.859118	33.160675
902.266021	33.051931
902.672888	32.933591
903.079721	32.774586
903.486520	32.590473
903.893283	32.386018
904.300012	32.156104
904.706707	31.917639
905.113366	31.666121
905.519991	31.402681
905.926581	31.107802
906.333136	30.792145
906.739656	30.481134
907.146142	30.175047
907.552592	29.850041
907.959008	29.522708
908.365389	29.201891
908.771735	28.861957
909.178046	28.548303
909.584322	28.240248
909.990563	27.912173
910.396769	27.620345
910.802940	27.336074
911.209076	27.061193
911.615177	26.804410
912.021243	26.563924
912.427274	26.347100
912.833270	26.119018
913.239231	25.906299
913.645156	25.703628
914.051046	25.512286
914.456902	25.332846
914.862721	25.182090
915.268506	25.036468
915.674256	24.910809
916.079970	24.797481
916.485649	24.703017
916.891292	24.590926
917.296901	24.483033
917.702474	24.377333
918.108011	24.275313
918.513514	24.187723
918.918980	24.087687
919.324412	23.986899
919.729808	23.863121
920.135169	23.768598
920.540494	23.653894
920.945783	23.564556
921.351037	23.481376
921.756256	23.374788
922.161439	23.270909
922.566586	23.185239
922.971698	23.077934
923.376775	22.980824
923.781815	22.874241
924.186820	22.780707
924.591790	22.663967
924.996723	22.565190
925.401621	22.457266
925.806484	22.352069
926.211310	22.257667
926.616101	22.163319
927.020856	22.086518
927.425575	21.988553
927.830259	21.913983
928.234906	21.828184
928.639518	21.742230
929.044094	21.651927
929.448634	21.590679
929.853138	21.514378
930.257606	21.445501
930.662038	21.380012
931.066434	21.312638
931.470795	21.248998
931.875119	21.190512
932.279407	21.145613
932.683659	21.089596
933.087875	21.039528
933.492055	20.966557
933.896199	20.893194
934.300307	20.822604
934.704379	20.751292
935.108414	20.666772
935.512414	20.597869
935.916377	20.521020
936.320304	20.435558
936.724195	20.329542
937.128049	20.233475
937.531867	20.127579
937.935649	20.022843
938.339395	19.920200
938.743104	19.796731
939.146777	19.663888
939.550414	19.504643
939.954014	19.356712
940.357578	19.192721
940.761105	19.023635
941.164596	18.858414
941.568050	18.683642
941.971468	18.496222
942.374850	18.336789
942.778195	18.152763
943.181503	17.965090
943.584775	17.772818
943.988010	17.583637
944.391209	17.386216
944.794371	17.208447
945.197496	17.015531
945.600585	16.823779
946.003637	16.669114
946.406653	16.528572
946.809632	16.384734
947.212574	16.229602
947.615479	16.103132
948.018347	15.959375
948.421179	15.832889
948.823974	15.715608
949.226732	15.623244
949.629453	15.541741
950.032138	15.450458
950.434785	15.363151
950.837396	15.285770
951.239969	15.228355
951.642506	15.200630
952.045006	15.190281
952.447469	15.169208
952.849895	15.157502
953.252283	15.176197
953.654635	15.189884
954.056950	15.180588
954.459227	15.195590
954.861468	15.216533
955.263671	15.246874
955.665838	15.321261
956.067967	15.389561
956.470059	15.439838
956.872114	15.482309
957.274131	15.531309
957.676112	15.577227
958.078055	15.654258
958.479961	15.697083
958.881829	15.723613
959.283661	15.746501
959.685455	15.796216
960.087211	15.828156
960.488931	15.883511
960.890613	15.905209
961.292257	15.944777
961.693864	15.983916
962.095434	16.017542
962.496966	16.025699
962.898461	16.061443
963.299918	16.106222
963.701338	16.111211
964.102720	16.073064
964.504065	16.057877
964.905372	16.065324
965.306641	16.065430
965.707873	16.009297
966.109068	15.991856
966.510224	16.016113
966.911343	15.995133
967.312425	15.983545
967.713468	16.009228
968.114474	15.980972
968.515442	15.951537
968.916373	15.973666
969.317265	15.986729
969.718120	15.994384
970.118937	16.000367
970.519716	15.998913
970.920458	16.006870
971.321161	16.018887
971.721827	16.056414
972.122454	16.087584
972.523044	16.108900
972.923596	16.146016
973.324110	16.207227
973.724585	16.239543
974.125023	16.265425
974.525423	16.293173
974.925785	16.372817
975.326108	16.392458
975.726394	16.417131
976.126642	16.463023
976.526851	16.524026
976.927022	16.568700
977.327155	16.612600
977.727250	16.631276
978.127307	16.704622
978.527325	16.747807
978.927306	16.748596
979.327248	16.805770
979.727151	16.831103
980.127017	16.841627
980.526844	16.836671
980.926633	16.873953
981.326383	16.831219
981.726095	16.857140
982.125769	16.835247
982.525404	16.869082
982.925001	16.884442
983.324560	16.856527
983.724079	16.856177
984.123561	16.866881
984.523004	16.873328
984.922408	16.852845
985.321774	16.829609
985.721102	16.832863
986.120390	16.827712
986.519641	16.825669
986.918852	16.763021
987.318025	16.743907
987.717159	16.738477
988.116255	16.731680
988.515312	16.735162
988.914330	16.757367
989.313310	16.770783
989.712250	16.827119
990.111152	16.857807
990.510015	16.850907
990.908840	16.872534
991.307625	16.950518
991.706372	16.967794
992.105080	16.994474
992.503749	17.029755
992.902379	17.111119
993.300970	17.186583
993.699522	17.297520
994.098035	17.283311
994.496510	17.447886
994.894945	17.538153
995.293341	17.501847
995.691698	17.640390
996.090016	17.694042
996.488296	17.774554
996.886535	17.907359
997.284736	18.116726
997.682898	18.124250
998.081021	18.219502
998.479104	18.252619
998.877148	18.373783
999.275153	18.586036
999.673119	18.698522
1000.071046	18.883367
1000.468933	18.981917
1000.866781	19.078706
1001.264590	19.326251
1001.662359	19.392164
1002.060089	19.528385
1002.457780	19.700400
1002.855431	19.951755
1003.253043	20.134837
1003.650615	20.238570
1004.048148	20.404549
1004.445642	20.624695
1004.843096	20.897276
1005.240511	21.025585
1005.637886	21.111443
1006.035221	21.425832
1006.432517	21.724246
1006.829774	21.878025
1007.226991	21.970386
1007.624168	22.424988
1008.021306	22.536068
1008.418404	22.854852
1008.815462	23.051607
1009.212481	23.304568
1009.609460	23.460058
1010.006399	23.924798
1010.403298	24.131254
1010.800158	24.740005
1011.196978	25.124846
1011.593758	25.416070
1011.990498	25.833711
1012.387199	26.193956
1012.783860	26.578332
1013.180480	27.122511
1013.577061	27.328837
1013.973602	28.035913
1014.370103	28.466117
1014.766564	28.711465
1015.162985	28.919808
1015.559366	29.168642
1015.955708	29.675102
1016.352009	29.987652
1016.748270	30.216701
1017.144491	30.241335
1017.540671	30.704344
1017.936812	31.131546
1018.332913	31.299072
1018.728973	31.666245
1019.124994	31.954023
1019.520974	32.481487
1019.916914	32.526546
1020.312814	33.226188
