Time1=100ms:Average1=5:Objective=10X:Aperture=1: (11/28/2018 9:40:10 AM)
11/28/2018 9:40:10 AM
Reflectance
10X
Ap#: 1
Avg1: 5.000000
Avg2: 0.000000
Int.Time1:100.000000

350.166136	49.751830
350.601937	50.047698
351.037728	50.253626
351.473509	50.177904
351.909281	50.419269
352.345042	50.129963
352.780794	50.094280
353.216536	49.865181
353.652267	49.815165
354.087989	49.900668
354.523701	50.017989
354.959403	49.945956
355.395095	49.991014
355.830777	49.834066
356.266449	50.331067
356.702110	50.358295
357.137762	50.915455
357.573404	51.095609
358.009035	50.817037
358.444656	50.705483
358.880268	50.361963
359.315869	50.566610
359.751459	50.595132
360.187040	50.707988
360.622610	50.402833
361.058170	50.450450
361.493720	50.628207
361.929260	50.375475
362.364789	50.552951
362.800308	50.554619
363.235816	51.003121
363.671314	50.931456
364.106802	51.043610
364.542279	51.181730
364.977746	51.243693
365.413203	51.109336
365.848649	51.253111
366.284084	51.417434
366.719509	51.851852
367.154924	51.667699
367.590328	51.653989
368.025721	51.823009
368.461104	51.736295
368.896477	51.730532
369.331838	51.707403
369.767189	51.652929
370.202530	51.166078
370.637859	50.994018
371.073178	50.763426
371.508486	51.082479
371.943784	51.087528
372.379071	51.134273
372.814347	51.219726
373.249612	51.325957
373.684866	51.105479
374.120110	51.626727
374.555343	51.661130
374.990565	51.668997
375.425776	51.967270
375.860976	51.525453
376.296165	51.637280
376.731343	51.646447
377.166511	51.792347
377.601667	51.851531
378.036812	51.531937
378.471946	51.423626
378.907070	51.448335
379.342182	51.727713
379.777283	51.810464
380.212373	51.462950
380.647452	51.707444
381.082520	51.892731
381.517576	51.620131
381.952622	51.732181
382.387656	51.758837
382.822679	51.498708
383.257691	51.178942
383.692692	51.579307
384.127681	51.663958
384.562659	51.495727
384.997626	50.996253
385.432581	51.128524
385.867525	51.225762
386.302458	51.206411
386.737379	51.308856
387.172289	51.128457
387.607188	50.947867
388.042075	50.925378
388.476951	51.125974
388.911815	50.793381
389.346668	51.097417
389.781509	50.962838
390.216338	50.851602
390.651157	50.880445
391.085963	50.788697
391.520758	50.893008
391.955541	50.683553
392.390313	50.704580
392.825073	50.489581
393.259821	50.371856
393.694558	50.316825
394.129283	50.262085
394.563996	50.162486
394.998698	50.216090
395.433388	50.006216
395.868066	49.670739
396.302732	49.593429
396.737386	49.710341
397.172029	49.526736
397.606659	49.163171
398.041278	48.889159
398.475885	48.718983
398.910480	48.208937
399.345063	47.557183
399.779634	47.078464
400.214194	46.088714
400.648741	45.274134
401.083276	44.278153
401.517799	43.274188
401.952310	41.944473
402.386809	40.752144
402.821296	39.399041
403.255771	38.234493
403.690234	36.608708
404.124684	34.958047
404.559123	33.471992
404.993549	31.954590
405.427963	30.230212
405.862365	28.814516
406.296754	27.451819
406.731131	26.102522
407.165496	24.880882
407.599849	23.744464
408.034190	22.470443
408.468518	21.457495
408.902833	20.472353
409.337137	19.560024
409.771428	18.787259
410.205706	18.082978
410.639973	17.369147
411.074226	16.891481
411.508467	16.425306
411.942696	16.021901
412.376912	15.698434
412.811116	15.398259
413.245307	15.148185
413.679486	14.928512
414.113652	14.810237
414.547805	14.682027
414.981946	14.560624
415.416074	14.389315
415.850190	14.304570
416.284293	14.204337
416.718383	14.168230
417.152460	14.141406
417.586525	14.124196
418.020577	14.099348
418.454616	14.102818
418.888643	14.156735
419.322656	14.189102
419.756657	14.183377
420.190645	14.188870
420.624620	14.206995
421.058582	14.234579
421.492531	14.276504
421.926468	14.352432
422.360391	14.458573
422.794301	14.580219
423.228199	14.726422
423.662083	14.866055
424.095955	15.047908
424.529813	15.206087
424.963658	15.386173
425.397491	15.557846
425.831310	15.731150
426.265116	15.882522
426.698909	16.038204
427.132689	16.198643
427.566455	16.358407
428.000209	16.508715
428.433949	16.678795
428.867676	16.892017
429.301389	17.098563
429.735090	17.280433
430.168777	17.434869
430.602451	17.591575
431.036111	17.714764
431.469759	17.830422
431.903392	17.942810
432.337013	18.057330
432.770620	18.167550
433.204213	18.317197
433.637794	18.480922
434.071360	18.673394
434.504914	18.888659
434.938453	19.141403
435.371979	19.369407
435.805492	19.627810
436.238991	19.883267
436.672477	20.124443
437.105949	20.341384
437.539407	20.539979
437.972852	20.736313
438.406283	20.909724
438.839700	21.084858
439.273104	21.274797
439.706494	21.488886
440.139871	21.717835
440.573233	21.977128
441.006582	22.200621
441.439917	22.423441
441.873238	22.599383
442.306546	22.760162
442.739839	22.879301
443.173119	23.000626
443.606385	23.118957
444.039636	23.239881
444.472874	23.366800
444.906099	23.502186
445.339309	23.686899
445.772505	23.857661
446.205687	24.072439
446.638855	24.281240
447.072009	24.516659
447.505149	24.763310
447.938275	24.994697
448.371387	25.228444
448.804485	25.464552
449.237569	25.662529
449.670638	25.841293
450.103694	25.997093
450.536735	26.136746
450.969762	26.273772
451.402774	26.424661
451.835773	26.598662
452.268757	26.779634
452.701727	26.946487
453.134683	27.146029
453.567624	27.329900
454.000551	27.490462
454.433464	27.650496
454.866362	27.807010
455.299246	27.956845
455.732116	28.065304
456.164971	28.192633
456.597811	28.320603
457.030638	28.430576
457.463449	28.548623
457.896246	28.689656
458.329029	28.811855
458.761797	28.910199
459.194551	29.045906
459.627290	29.138640
460.060014	29.260887
460.492724	29.371313
460.925419	29.477735
461.358099	29.582534
461.790765	29.683955
462.223416	29.772891
462.656052	29.842060
463.088674	29.905962
463.521281	29.950542
463.953873	30.004739
464.386450	30.052572
464.819012	30.087187
465.251560	30.125822
465.684093	30.189155
466.116611	30.249206
466.549114	30.292802
466.981602	30.350837
467.414075	30.410338
467.846533	30.455039
468.278977	30.480837
468.711405	30.521414
469.143818	30.558324
469.576216	30.558732
470.008600	30.522656
470.440968	30.490147
470.873321	30.433175
471.305659	30.325084
471.737982	30.235687
472.170289	30.121468
472.602582	29.992639
473.034859	29.878808
473.467122	29.734803
473.899369	29.607557
474.331600	29.462501
474.763817	29.344400
475.196018	29.241021
475.628204	29.141667
476.060375	29.064140
476.492530	29.001024
476.924670	28.947179
477.356795	28.878843
477.788904	28.796433
478.220998	28.684187
478.653076	28.569373
479.085139	28.433538
479.517186	28.300118
479.949219	28.173358
480.381235	28.054356
480.813236	27.945235
481.245221	27.888231
481.677191	27.844420
482.109146	27.815591
482.541084	27.794324
482.973008	27.805517
483.404915	27.832024
483.836807	27.854627
484.268683	27.868253
484.700544	27.919899
485.132388	27.962066
485.564217	28.008161
485.996031	28.062795
486.427828	28.113937
486.859610	28.197160
487.291376	28.284404
487.723126	28.394043
488.154860	28.532663
488.586579	28.700773
489.018281	28.910234
489.449968	29.169143
489.881639	29.479960
490.313293	29.837029
490.744932	30.252285
491.176555	30.720222
491.608162	31.225837
492.039753	31.725840
492.471328	32.225365
492.902886	32.724233
493.334429	33.192803
493.765956	33.645170
494.197466	34.099803
494.628960	34.520593
495.060439	34.983444
495.491901	35.462585
495.923347	35.976247
496.354776	36.533284
496.786190	37.126303
497.217587	37.749452
497.648968	38.416922
498.080332	39.079674
498.511681	39.735812
498.943013	40.380956
499.374328	41.019419
499.805628	41.611976
500.236911	42.159693
500.668177	42.677716
501.099427	43.152219
501.530661	43.584794
501.961878	43.967097
502.393079	44.325372
502.824264	44.629177
503.255431	44.908768
503.686583	45.167187
504.117717	45.404254
504.548835	45.646314
504.979937	45.918700
505.411022	46.223108
505.842090	46.562105
506.273142	46.934581
506.704177	47.362363
507.135195	47.779494
507.566197	48.200170
507.997182	48.618692
508.428150	48.967322
508.859102	49.243920
509.290036	49.467847
509.720954	49.620563
510.151855	49.712593
510.582739	49.779621
511.013607	49.812500
511.444457	49.845673
511.875291	49.897367
512.306107	50.002898
512.736907	50.137879
513.167690	50.340352
513.598456	50.566588
514.029205	50.820985
514.459936	51.110141
514.890651	51.375211
515.321349	51.629707
515.752030	51.853253
516.182693	52.053082
516.613340	52.178280
517.043969	52.267264
517.474582	52.300602
517.905177	52.276428
518.335755	52.194940
518.766315	52.078344
519.196859	51.924056
519.627385	51.717924
520.057894	51.487949
520.488386	51.274098
520.918860	51.053483
521.349318	50.844461
521.779757	50.695448
522.210180	50.610545
522.640585	50.589470
523.070973	50.617294
523.501343	50.702878
523.931696	50.824876
524.362031	50.986171
524.792349	51.158811
525.222650	51.317310
525.652933	51.446496
526.083198	51.525832
526.513446	51.567599
526.943677	51.563045
527.373890	51.523415
527.804085	51.459022
528.234262	51.378945
528.664422	51.303995
529.094565	51.259595
529.524689	51.245527
529.954796	51.310413
530.384885	51.416838
530.814957	51.594856
531.245011	51.830433
531.675047	52.124982
532.105065	52.445623
532.535065	52.795231
532.965048	53.166063
533.395013	53.524371
533.824959	53.871257
534.254888	54.204880
534.684799	54.501907
535.114693	54.756210
535.544568	54.972062
535.974425	55.121844
536.404264	55.231095
536.834086	55.287284
537.263889	55.312744
537.693674	55.293430
538.123441	55.254156
538.553190	55.229709
538.982921	55.197590
539.412634	55.179419
539.842329	55.179111
540.272006	55.221682
540.701664	55.299983
541.131304	55.388689
541.560926	55.544217
541.990530	55.722446
542.420116	55.898131
542.849683	56.079577
543.279232	56.243016
543.708763	56.386313
544.138275	56.477786
544.567769	56.510960
544.997245	56.485684
545.426702	56.392684
545.856141	56.239522
546.285562	56.029545
546.714964	55.786664
547.144347	55.512287
547.573713	55.223961
548.003059	54.924158
548.432387	54.630947
548.861697	54.338116
549.290988	54.093508
549.720260	53.883104
550.149514	53.721898
550.578750	53.588760
551.007966	53.492815
551.437164	53.417753
551.866344	53.359272
552.295504	53.305940
552.724646	53.262135
553.153769	53.199990
553.582874	53.126778
554.011960	53.007356
554.441027	52.873098
554.870075	52.682427
555.299104	52.457277
555.728115	52.188647
556.157106	51.897605
556.586079	51.573480
557.015033	51.247454
557.443968	50.928564
557.872884	50.627332
558.301781	50.342587
558.730659	50.108704
559.159518	49.911664
559.588358	49.777231
560.017180	49.682207
560.445982	49.634397
560.874765	49.642248
561.303528	49.703372
561.732273	49.797814
562.160999	49.940664
562.589705	50.089734
563.018393	50.257753
563.447061	50.431374
563.875710	50.600636
564.304340	50.762278
564.732950	50.912354
565.161542	51.036994
565.590114	51.151671
566.018666	51.233444
566.447200	51.288362
566.875714	51.308880
567.304208	51.310546
567.732684	51.280024
568.161140	51.228798
568.589576	51.156748
569.017993	51.084666
569.446391	50.997925
569.874769	50.925630
570.303128	50.832923
570.731467	50.753779
571.159787	50.685450
571.588087	50.633092
572.016368	50.579676
572.444629	50.541784
572.872870	50.504901
573.301092	50.469350
573.729294	50.422508
574.157476	50.341221
574.585639	50.231074
575.013782	50.090676
575.441906	49.895809
575.870009	49.653860
576.298093	49.363931
576.726157	49.039625
577.154202	48.684016
577.582226	48.305808
578.010231	47.910104
578.438216	47.515724
578.866181	47.121270
579.294126	46.753567
579.722051	46.417719
580.149957	46.110722
580.577842	45.832804
581.005707	45.596876
581.433553	45.382709
581.861378	45.214268
582.289184	45.059912
582.716969	44.931686
583.144734	44.813674
583.572479	44.720535
584.000205	44.628329
584.427910	44.541769
584.855594	44.455267
585.283259	44.383563
585.710904	44.308546
586.138528	44.236758
586.566132	44.169719
586.993716	44.105384
587.421280	44.039293
587.848823	43.979181
588.276346	43.909268
588.703849	43.840603
589.131332	43.777887
589.558794	43.711413
589.986236	43.638540
590.413657	43.556075
590.841058	43.465460
591.268438	43.378164
591.695799	43.277637
592.123138	43.196147
592.550458	43.107301
592.977756	43.026929
593.405034	42.961703
593.832292	42.915610
594.259529	42.880238
594.686746	42.873883
595.113942	42.870260
595.541117	42.891857
595.968272	42.930321
596.395406	42.961992
596.822519	42.993620
597.249612	43.016665
597.676684	43.019796
598.103735	42.999184
598.530766	42.941677
598.957775	42.863261
599.384764	42.755851
599.811733	42.617485
600.238680	42.456847
600.665606	42.286627
601.092512	42.105731
601.519397	41.922848
601.946261	41.747370
602.373104	41.580504
602.799926	41.422906
603.226727	41.271259
603.653507	41.146150
604.080266	41.044284
604.507004	40.940902
604.933721	40.874871
605.360417	40.794384
605.787092	40.719884
606.213746	40.646092
606.640379	40.568916
607.066991	40.490455
607.493581	40.412683
607.920150	40.335979
608.346699	40.248700
608.773226	40.161208
609.199731	40.068868
609.626216	39.993119
610.052679	39.915379
610.479121	39.855084
610.905542	39.812703
611.331941	39.786336
611.758319	39.785722
612.184676	39.800968
612.611011	39.818465
613.037325	39.847790
613.463617	39.888807
613.889888	39.925160
614.316138	39.965371
614.742366	40.008285
615.168573	40.052091
615.594758	40.092238
616.020921	40.134881
616.447063	40.184333
616.873184	40.238764
617.299283	40.300862
617.725360	40.382859
618.151416	40.468475
618.577450	40.585886
619.003462	40.718430
619.429453	40.866554
619.855422	41.034161
620.281369	41.215682
620.707295	41.408722
621.133199	41.593214
621.559081	41.797425
621.984941	41.988193
622.410779	42.171925
622.836596	42.327788
623.262391	42.472289
623.688163	42.583397
624.113914	42.659589
624.539644	42.712188
624.965351	42.739150
625.391036	42.732029
625.816699	42.707073
626.242340	42.664007
626.667960	42.600360
627.093557	42.538199
627.519132	42.454639
627.944685	42.363549
628.370216	42.273013
628.795725	42.173104
629.221212	42.066836
629.646677	41.954933
630.072119	41.819487
630.497540	41.653170
630.922938	41.490270
631.348314	41.286676
631.773668	41.056245
632.198999	40.809654
632.624308	40.544636
633.049595	40.256815
633.474860	39.953946
633.900102	39.632436
634.325322	39.313212
634.750520	38.981493
635.175695	38.662736
635.600848	38.346212
636.025978	38.054785
636.451086	37.792275
636.876171	37.560001
637.301234	37.368548
637.726275	37.208248
638.151293	37.076139
638.576288	36.973785
639.001261	36.915962
639.426211	36.884275
639.851139	36.876594
640.276044	36.881309
640.700927	36.904911
641.125787	36.945463
641.550624	36.984501
641.975438	37.035060
642.400230	37.078450
642.824999	37.120107
643.249745	37.163723
643.674469	37.220462
644.099169	37.272742
644.523847	37.337167
644.948502	37.409779
645.373135	37.501675
645.797744	37.600604
646.222330	37.716817
646.646894	37.843992
647.071435	37.990046
647.495953	38.154358
647.920447	38.338207
648.344919	38.528246
648.769368	38.733082
649.193794	38.941666
649.618197	39.145420
650.042576	39.353212
650.466933	39.556533
650.891267	39.746846
651.315577	39.927675
651.739864	40.103163
652.164129	40.262828
652.588370	40.404517
653.012587	40.531829
653.436782	40.638635
653.860953	40.739099
654.285102	40.823116
654.709226	40.900113
655.133328	40.964691
655.557406	41.024702
655.981461	41.080105
656.405493	41.131655
656.829501	41.170141
657.253486	41.184826
657.677448	41.179668
658.101386	41.157109
658.525301	41.099735
658.949192	41.020758
659.373060	40.909689
659.796904	40.775796
660.220725	40.613333
660.644522	40.422922
661.068296	40.197131
661.492046	39.953367
661.915772	39.689900
662.339475	39.415528
662.763154	39.132295
663.186810	38.837683
663.610442	38.550106
664.034050	38.276937
664.457635	38.026039
664.881196	37.793520
665.304733	37.585694
665.728247	37.415411
666.151736	37.282790
666.575202	37.191808
666.998644	37.145180
667.422062	37.144805
667.845457	37.173867
668.268827	37.242266
668.692174	37.336310
669.115496	37.461333
669.538795	37.604984
669.962070	37.766733
670.385321	37.933370
670.808547	38.120355
671.231750	38.301126
671.654929	38.487883
672.078084	38.666659
672.501214	38.844676
672.924321	39.008715
673.347404	39.163899
673.770462	39.303184
674.193496	39.438132
674.616506	39.562236
675.039492	39.676598
675.462454	39.783412
675.885391	39.878088
676.308305	39.981103
676.731194	40.069798
677.154058	40.146996
677.576899	40.203280
677.999715	40.258318
678.422507	40.296073
678.845274	40.316086
679.268017	40.318936
679.690736	40.305489
680.113430	40.272362
680.536100	40.208413
680.958746	40.135087
681.381367	40.036977
681.803963	39.933298
682.226535	39.812842
682.649083	39.687964
683.071605	39.554585
683.494104	39.435630
683.916578	39.321705
684.339027	39.224283
684.761451	39.132274
685.183851	39.056299
685.606227	38.994927
686.028577	38.954514
686.450903	38.925350
686.873204	38.906958
687.295481	38.903685
687.717733	38.905971
688.139959	38.919050
688.562162	38.932555
688.984339	38.949232
689.406492	38.953642
689.828619	38.951612
690.250722	38.942211
690.672800	38.927162
691.094853	38.893899
691.516881	38.841590
691.938884	38.783497
692.360863	38.714507
692.782816	38.640826
693.204744	38.568214
693.626647	38.496059
694.048526	38.426332
694.470379	38.372626
694.892207	38.335429
695.314010	38.308371
695.735788	38.297965
696.157540	38.320737
696.579268	38.362236
697.000970	38.417106
697.422648	38.498515
697.844300	38.611978
698.265926	38.759754
698.687528	38.925263
699.109104	39.108558
699.530655	39.316526
699.952181	39.549605
700.373681	39.795847
700.795156	40.057632
701.216606	40.313823
701.638030	40.580086
702.059429	40.842142
702.480803	41.101218
702.902151	41.350518
703.323473	41.584045
703.744770	41.796825
704.166042	41.988791
704.587288	42.170111
705.008509	42.318757
705.429704	42.447467
705.850873	42.548263
706.272017	42.616404
706.693135	42.656083
707.114228	42.668407
707.535295	42.648352
707.956336	42.603996
708.377352	42.535227
708.798342	42.449015
709.219306	42.331925
709.640245	42.201444
710.061157	42.060624
710.482044	41.904796
710.902905	41.742310
711.323741	41.559183
711.744550	41.380373
712.165334	41.197053
712.586092	41.015429
713.006823	40.839289
713.427529	40.669009
713.848209	40.506394
714.268863	40.360152
714.689492	40.217405
715.110094	40.096564
715.530670	39.983846
715.951220	39.889090
716.371744	39.818572
716.792242	39.773300
717.212714	39.740742
717.633159	39.731282
718.053579	39.752590
718.473973	39.793599
718.894340	39.856736
719.314681	39.932039
719.734996	40.029139
720.155285	40.135490
720.575547	40.263187
720.995784	40.384276
721.415994	40.513642
721.836177	40.634256
722.256335	40.752395
722.676466	40.856921
723.096570	40.951763
723.516649	41.026285
723.936701	41.067711
724.356726	41.094160
724.776725	41.087018
725.196698	41.053418
725.616644	40.986383
726.036564	40.886535
726.456457	40.758193
726.876324	40.610427
727.296164	40.442269
727.715977	40.252714
728.135764	40.046552
728.555525	39.830592
728.975258	39.607454
729.394966	39.372213
729.814646	39.129564
730.234300	38.894199
730.653927	38.651498
731.073527	38.409625
731.493101	38.168020
731.912648	37.923925
732.332168	37.683030
732.751661	37.451341
733.171128	37.220860
733.590568	36.992584
734.009980	36.767518
734.429366	36.544210
734.848726	36.319886
735.268058	36.096358
735.687363	35.871482
736.106641	35.641700
736.525893	35.415011
736.945117	35.194236
737.364314	34.959198
737.783485	34.730764
738.202628	34.503453
738.621744	34.272355
739.040834	34.037150
739.459896	33.800468
739.878931	33.554280
740.297939	33.310771
740.716919	33.068960
741.135873	32.825391
741.554799	32.580064
741.973698	32.333150
742.392570	32.086819
742.811415	31.843584
743.230232	31.601912
743.649022	31.376026
744.067785	31.154974
744.486521	30.930144
744.905229	30.727940
745.323909	30.542284
745.742563	30.363495
746.161189	30.204287
746.579787	30.057369
746.998358	29.931835
747.416902	29.830887
747.835418	29.749846
748.253907	29.689722
748.672368	29.656401
749.090802	29.652714
749.509208	29.664132
749.927586	29.703341
750.345937	29.770298
750.764261	29.855569
751.182556	29.964537
751.600824	30.096896
752.019065	30.258416
752.437277	30.438822
752.855462	30.636570
753.273620	30.851567
753.691749	31.084170
754.109851	31.329497
754.527925	31.590190
754.945971	31.854186
755.363989	32.128214
755.781980	32.397583
756.199943	32.670922
756.617877	32.929444
757.035784	33.176230
757.453663	33.426802
757.871514	33.652671
758.289337	33.860952
758.707132	34.043298
759.124899	34.199512
759.542639	34.318510
759.960350	34.410610
760.378033	34.464338
760.795688	34.493796
761.213314	34.486370
761.630913	34.441771
762.048484	34.351170
762.466026	34.235947
762.883541	34.083412
763.301027	33.905032
763.718485	33.698866
764.135914	33.460648
764.553316	33.206667
764.970689	32.925281
765.388034	32.635945
765.805351	32.337121
766.222639	32.034471
766.639899	31.720870
767.057131	31.405209
767.474334	31.091213
767.891509	30.789867
768.308655	30.506111
768.725773	30.253283
769.142863	30.003964
769.559924	29.789788
769.976957	29.599900
770.393961	29.432948
770.810936	29.297676
771.227883	29.184391
771.644802	29.095246
772.061692	29.041020
772.478553	29.019436
772.895386	29.019489
773.312190	29.054034
773.728965	29.116042
774.145712	29.207618
774.562430	29.320851
774.979119	29.463641
775.395780	29.627066
775.812411	29.806315
776.229014	30.005348
776.645589	30.221629
777.062134	30.455260
777.478651	30.699119
777.895138	30.947097
778.311597	31.197041
778.728027	31.454916
779.144428	31.699655
779.560800	31.945441
779.977143	32.184361
780.393458	32.413534
780.809743	32.627413
781.225999	32.814801
781.642226	32.964709
782.058425	33.113601
782.474594	33.219105
782.890734	33.293824
783.306845	33.344477
783.722926	33.354349
784.138979	33.340236
784.555003	33.301652
784.970997	33.228230
785.386962	33.132207
785.802898	33.008543
786.218805	32.853528
786.634682	32.678202
787.050531	32.486344
787.466349	32.280772
787.882139	32.062514
788.297899	31.831923
788.713630	31.605359
789.129332	31.376020
789.545004	31.148736
789.960647	30.935563
790.376260	30.719900
790.791844	30.523178
791.207399	30.342847
791.622924	30.173586
792.038419	30.033200
792.453885	29.900743
792.869321	29.794215
793.284728	29.707727
793.700106	29.644174
794.115453	29.601484
794.530771	29.589218
794.946060	29.586430
795.361319	29.608538
795.776548	29.642920
796.191747	29.688670
796.606917	29.758297
797.022057	29.827057
797.437167	29.901133
797.852248	29.973543
798.267298	30.031619
798.682319	30.104400
799.097310	30.169281
799.512271	30.216486
799.927203	30.250359
800.342104	30.273755
800.756976	30.285801
801.171818	30.272418
801.586629	30.241331
802.001411	30.197662
802.416163	30.131337
802.830885	30.047587
803.245577	29.956289
803.660238	29.851653
804.074870	29.724706
804.489472	29.597853
804.904043	29.448149
805.318585	29.295329
805.733096	29.127473
806.147577	28.963523
806.562028	28.787367
806.976449	28.615303
807.390840	28.439208
807.805200	28.259394
808.219530	28.072951
808.633830	27.897717
809.048100	27.716455
809.462339	27.531404
809.876548	27.353549
810.290727	27.183670
810.704875	27.020743
811.118993	26.869379
811.533080	26.724580
811.947137	26.579496
812.361164	26.466750
812.775160	26.352071
813.189126	26.247320
813.603061	26.144900
814.016966	26.081429
814.430840	26.024840
814.844684	25.982683
815.258497	25.949729
815.672280	25.927580
816.086032	25.924639
816.499753	25.933308
816.913444	25.951099
817.327104	25.977022
817.740733	26.020481
818.154331	26.069005
818.567899	26.139982
818.981436	26.209582
819.394943	26.291092
819.808418	26.381644
820.221863	26.477162
820.635277	26.585890
821.048660	26.708864
821.462013	26.836350
821.875334	26.977171
822.288625	27.116913
822.701884	27.261589
823.115113	27.420376
823.528311	27.597902
823.941478	27.772351
824.354614	27.939129
824.767718	28.121940
825.180792	28.287386
825.593835	28.446076
826.006847	28.597185
826.419827	28.753872
826.832777	28.874327
827.245695	28.977949
827.658582	29.056360
828.071438	29.124175
828.484263	29.162342
828.897057	29.160349
829.309819	29.137039
829.722551	29.095297
830.135251	29.015114
830.547919	28.895448
830.960557	28.753273
831.373163	28.582134
831.785738	28.388384
832.198281	28.169577
832.610793	27.926733
833.023274	27.674677
833.435723	27.411348
833.848141	27.132072
834.260528	26.848786
834.672883	26.554680
835.085206	26.259664
835.497498	25.973619
835.909758	25.680273
836.321987	25.374590
836.734185	25.090862
837.146350	24.818594
837.558485	24.548230
837.970587	24.285628
838.382658	24.057228
838.794697	23.842990
839.206705	23.651868
839.618681	23.467295
840.030625	23.311338
840.442538	23.181206
840.854418	23.075517
841.266267	22.989200
841.678084	22.930151
842.089870	22.891245
842.501623	22.874504
842.913345	22.871878
843.325035	22.899615
843.736693	22.954388
844.148319	23.012633
844.559913	23.078277
844.971475	23.173037
845.383005	23.270010
845.794504	23.376625
846.205970	23.486862
846.617404	23.596025
847.028806	23.706906
847.440176	23.818788
847.851514	23.935445
848.262820	24.038331
848.674094	24.144741
849.085336	24.245707
849.496546	24.335252
849.907723	24.410748
850.318868	24.483520
850.729981	24.535375
851.141062	24.570942
851.552110	24.585547
851.963127	24.574465
852.374111	24.562525
852.785062	24.535270
853.195982	24.485807
853.606869	24.425109
854.017723	24.351774
854.428546	24.270868
854.839336	24.179363
855.250093	24.058583
855.660818	23.942211
856.071511	23.810962
856.482171	23.670242
856.892799	23.531637
857.303394	23.384170
857.713956	23.220460
858.124486	23.062984
858.534984	22.890287
858.945449	22.718412
859.355881	22.550788
859.766280	22.376160
860.176647	22.214367
860.586982	22.055529
860.997283	21.908563
861.407552	21.759442
861.817789	21.616840
862.227992	21.483924
862.638163	21.374105
863.048301	21.256615
863.458406	21.157291
863.868478	21.071430
864.278518	21.003101
864.688524	20.950912
865.098498	20.930709
865.508439	20.913190
865.918347	20.914340
866.328222	20.926438
866.738064	20.958382
867.147873	21.005910
867.557649	21.067691
867.967392	21.150887
868.377102	21.251047
868.786779	21.353900
869.196423	21.474643
869.606034	21.603562
870.015612	21.769418
870.425156	21.953582
870.834668	22.148991
871.244146	22.352712
871.653591	22.559632
872.063003	22.766615
872.472382	22.995369
872.881728	23.220002
873.291040	23.449086
873.700319	23.678189
874.109564	23.902499
874.518777	24.128858
874.927956	24.349169
875.337102	24.548053
875.746214	24.752649
876.155293	24.950619
876.564338	25.136635
876.973350	25.310846
877.382329	25.468022
877.791274	25.589346
878.200186	25.696080
878.609064	25.780929
879.017909	25.849001
879.426720	25.891546
879.835497	25.922136
880.244241	25.907032
880.652952	25.893184
881.061629	25.864675
881.470272	25.820686
881.878881	25.755212
882.287457	25.672361
882.695999	25.564907
883.104507	25.453543
883.512982	25.311818
883.921423	25.180726
884.329830	25.046840
884.738203	24.919872
885.146543	24.777504
885.554849	24.630659
885.963120	24.485404
886.371358	24.335178
886.779563	24.200353
887.187733	24.070052
887.595869	23.952404
888.003971	23.839664
888.412040	23.731050
888.820074	23.626701
889.228074	23.536140
889.636041	23.450058
890.043973	23.370174
890.451871	23.309033
890.859736	23.268804
891.267566	23.233082
891.675362	23.195117
892.083124	23.183334
892.490851	23.153634
892.898545	23.162659
893.306204	23.161004
893.713829	23.147724
894.121420	23.150144
894.528977	23.156914
894.936499	23.160748
895.343987	23.171697
895.751441	23.165679
896.158860	23.173456
896.566246	23.167374
896.973596	23.130989
897.380913	23.102309
897.788195	23.064973
898.195442	23.024173
898.602655	22.974883
899.009834	22.920497
899.416978	22.843757
899.824088	22.745824
900.231163	22.655997
900.638204	22.555113
901.045210	22.445627
901.452181	22.327424
901.859118	22.195651
902.266021	22.070339
902.672888	21.948101
903.079721	21.824029
903.486520	21.676343
903.893283	21.547475
904.300012	21.427532
904.706707	21.282412
905.113366	21.162685
905.519991	21.032793
905.926581	20.922628
906.333136	20.816552
906.739656	20.706449
907.146142	20.620565
907.552592	20.545684
907.959008	20.479050
908.365389	20.408250
908.771735	20.335402
909.178046	20.289778
909.584322	20.292475
909.990563	20.277159
910.396769	20.263858
910.802940	20.265172
911.209076	20.273330
911.615177	20.282769
912.021243	20.302800
912.427274	20.338605
912.833270	20.337983
913.239231	20.368610
913.645156	20.398838
914.051046	20.427992
914.456902	20.448788
914.862721	20.463764
915.268506	20.471155
915.674256	20.463354
916.079970	20.456304
916.485649	20.445147
916.891292	20.414001
917.296901	20.380398
917.702474	20.338499
918.108011	20.290859
918.513514	20.228169
918.918980	20.161194
919.324412	20.091803
919.729808	19.998163
920.135169	19.903244
920.540494	19.792038
920.945783	19.693684
921.351037	19.609571
921.756256	19.512083
922.161439	19.386616
922.566586	19.278462
922.971698	19.175835
923.376775	19.060138
923.781815	18.953863
924.186820	18.860994
924.591790	18.773015
924.996723	18.687068
925.401621	18.610496
925.806484	18.527357
926.211310	18.439590
926.616101	18.375690
927.020856	18.326628
927.425575	18.273188
927.830259	18.236149
928.234906	18.214583
928.639518	18.192160
929.044094	18.177745
929.448634	18.183044
929.853138	18.199068
930.257606	18.216903
930.662038	18.237383
931.066434	18.250949
931.470795	18.282227
931.875119	18.318419
932.279407	18.352195
932.683659	18.371055
933.087875	18.390747
933.492055	18.406426
933.896199	18.426081
934.300307	18.426589
934.704379	18.420987
935.108414	18.396538
935.512414	18.373150
935.916377	18.355134
936.320304	18.306217
936.724195	18.252924
937.128049	18.186866
937.531867	18.107266
937.935649	18.024117
938.339395	17.917103
938.743104	17.820472
939.146777	17.703663
939.550414	17.562865
939.954014	17.427899
940.357578	17.267607
940.761105	17.095776
941.164596	16.930247
941.568050	16.733234
941.971468	16.550369
942.374850	16.377781
942.778195	16.176299
943.181503	15.993618
943.584775	15.801878
943.988010	15.612816
944.391209	15.418176
944.794371	15.220207
945.197496	15.046833
945.600585	14.872187
946.003637	14.707459
946.406653	14.537323
946.809632	14.374046
947.212574	14.230890
947.615479	14.098859
948.018347	13.962928
948.421179	13.834433
948.823974	13.728102
949.226732	13.610454
949.629453	13.502838
950.032138	13.408102
950.434785	13.319153
950.837396	13.230026
951.239969	13.149071
951.642506	13.075667
952.045006	13.021150
952.447469	12.960014
952.849895	12.933898
953.252283	12.884706
953.654635	12.849401
954.056950	12.850281
954.459227	12.833321
954.861468	12.802790
955.263671	12.771197
955.665838	12.743013
956.067967	12.753315
956.470059	12.734178
956.872114	12.725155
957.274131	12.731452
957.676112	12.708566
958.078055	12.712063
958.479961	12.729897
958.881829	12.713401
959.283661	12.694753
959.685455	12.690271
960.087211	12.696530
960.488931	12.705909
960.890613	12.690407
961.292257	12.692441
961.693864	12.694204
962.095434	12.701441
962.496966	12.706648
962.898461	12.696081
963.299918	12.706824
963.701338	12.743541
964.102720	12.742048
964.504065	12.746641
964.905372	12.786145
965.306641	12.772838
965.707873	12.766375
966.109068	12.796518
966.510224	12.796966
966.911343	12.785372
967.312425	12.798055
967.713468	12.844613
968.114474	12.873132
968.515442	12.863599
968.916373	12.894177
969.317265	12.924774
969.718120	12.948081
970.118937	13.000216
970.519716	13.044054
970.920458	13.063108
971.321161	13.138354
971.721827	13.190279
972.122454	13.222748
972.523044	13.284613
972.923596	13.343744
973.324110	13.447685
973.724585	13.494168
974.125023	13.592219
974.525423	13.692594
974.925785	13.812715
975.326108	13.860220
975.726394	13.918081
976.126642	13.949357
976.526851	14.024271
976.927022	14.083188
977.327155	14.132001
977.727250	14.185047
978.127307	14.332528
978.527325	14.422287
978.927306	14.476747
979.327248	14.576153
979.727151	14.631901
980.127017	14.713726
980.526844	14.739793
980.926633	14.878520
981.326383	14.936373
981.726095	14.998121
982.125769	15.102906
982.525404	15.213247
982.925001	15.285756
983.324560	15.320136
983.724079	15.359809
984.123561	15.459887
984.523004	15.598625
984.922408	15.672012
985.321774	15.674966
985.721102	15.748496
986.120390	15.816320
986.519641	15.872935
986.918852	15.853420
987.318025	15.884938
987.717159	15.994998
988.116255	16.104224
988.515312	16.161215
988.914330	16.195797
989.313310	16.231743
989.712250	16.354049
990.111152	16.463724
990.510015	16.509196
990.908840	16.519849
991.307625	16.662831
991.706372	16.741109
992.105080	16.829712
992.503749	16.908628
992.902379	17.030364
993.300970	17.144378
993.699522	17.267509
994.098035	17.377294
994.496510	17.457700
994.894945	17.546185
995.293341	17.569564
995.691698	17.720164
996.090016	17.812131
996.488296	17.866878
996.886535	17.986097
997.284736	18.026937
997.682898	18.201935
998.081021	18.262881
998.479104	18.425139
998.877148	18.517584
999.275153	18.567961
999.673119	18.582365
1000.071046	18.694290
1000.468933	18.860255
1000.866781	19.044793
1001.264590	19.233878
1001.662359	19.477983
1002.060089	19.525354
1002.457780	19.691096
1002.855431	19.745445
1003.253043	20.099183
1003.650615	20.155502
1004.048148	20.159368
1004.445642	20.412285
1004.843096	20.619548
1005.240511	20.777753
1005.637886	20.827416
1006.035221	21.053843
1006.432517	21.307154
1006.829774	21.559374
1007.226991	21.676731
1007.624168	22.034546
1008.021306	22.331827
1008.418404	22.618729
1008.815462	22.964758
1009.212481	23.234218
1009.609460	23.705486
1010.006399	24.157944
1010.403298	24.543972
1010.800158	24.959498
1011.196978	25.119476
1011.593758	25.630993
1011.990498	26.151316
1012.387199	26.702519
1012.783860	26.794172
1013.180480	27.178001
1013.577061	27.500636
1013.973602	27.996592
1014.370103	28.581090
1014.766564	28.818014
1015.162985	29.301317
1015.559366	29.295085
1015.955708	29.766976
1016.352009	30.428647
1016.748270	30.618345
1017.144491	30.876949
1017.540671	31.463517
1017.936812	31.692273
1018.332913	31.929574
1018.728973	32.160041
1019.124994	32.373225
1019.520974	32.873530
1019.916914	33.198001
1020.312814	33.496870
