Time1=100ms:Average1=5:Objective=10X:Aperture=1: (11/21/2018 11:14:38 AM)
11/21/2018 11:14:38 AM
Reflectance
10X
Ap#: 1
Avg1: 5.000000
Avg2: 0.000000
Int.Time1:100.000000

350.166136	80.410484
350.601937	81.186542
351.037728	81.586172
351.473509	81.613262
351.909281	81.317900
352.345042	81.502654
352.780794	82.276539
353.216536	82.337928
353.652267	82.138107
354.087989	82.282620
354.523701	82.506634
354.959403	82.215209
355.395095	82.589605
355.830777	82.264805
356.266449	82.501276
356.702110	82.608696
357.137762	83.144923
357.573404	82.955827
358.009035	82.533019
358.444656	82.744454
358.880268	82.798354
359.315869	83.029366
359.751459	83.270001
360.187040	83.377961
360.622610	83.276591
361.058170	83.063602
361.493720	83.655137
361.929260	84.263278
362.364789	83.415587
362.800308	83.288825
363.235816	83.407148
363.671314	83.285450
364.106802	83.246073
364.542279	82.781593
364.977746	83.202722
365.413203	83.223072
365.848649	82.997624
366.284084	82.491548
366.719509	82.167760
367.154924	82.462265
367.590328	82.127137
368.025721	82.145782
368.461104	82.446427
368.896477	82.346918
369.331838	82.442670
369.767189	82.087433
370.202530	82.354743
370.637859	81.955115
371.073178	82.507850
371.508486	83.248834
371.943784	83.219978
372.379071	83.434712
372.814347	83.718092
373.249612	83.971097
373.684866	83.759216
374.120110	83.618335
374.555343	84.056652
374.990565	83.831672
375.425776	83.764209
375.860976	84.139460
376.296165	83.925874
376.731343	84.367171
377.166511	84.060302
377.601667	83.775398
378.036812	83.864821
378.471946	83.644720
378.907070	83.738784
379.342182	83.797771
379.777283	83.819286
380.212373	83.576606
380.647452	83.573972
381.082520	83.158831
381.517576	83.053857
381.952622	83.551847
382.387656	83.847152
382.822679	83.663909
383.257691	83.955560
383.692692	83.878039
384.127681	84.045641
384.562659	83.452523
384.997626	83.250694
385.432581	82.639984
385.867525	82.751156
386.302458	82.205465
386.737379	81.906348
387.172289	81.767469
387.607188	81.633644
388.042075	81.274319
388.476951	80.798054
388.911815	80.373468
389.346668	80.434148
389.781509	80.644846
390.216338	80.309107
390.651157	80.583756
391.085963	81.159278
391.520758	81.287923
391.955541	81.243259
392.390313	80.951454
392.825073	80.875486
393.259821	80.996184
393.694558	80.959874
394.129283	80.711702
394.563996	81.346947
394.998698	81.486233
395.433388	80.970588
395.868066	80.675952
396.302732	80.879914
396.737386	80.636372
397.172029	80.491119
397.606659	79.876161
398.041278	79.531657
398.475885	78.893462
398.910480	78.840746
399.345063	78.040716
399.779634	77.109561
400.214194	75.905555
400.648741	74.567812
401.083276	72.988940
401.517799	71.344223
401.952310	69.287716
402.386809	67.439325
402.821296	64.833675
403.255771	62.068710
403.690234	59.410463
404.124684	56.570274
404.559123	53.199888
404.993549	50.284414
405.427963	47.247569
405.862365	44.412833
406.296754	41.758762
406.731131	39.422760
407.165496	37.190739
407.599849	34.870748
408.034190	32.959629
408.468518	30.904519
408.902833	29.059264
409.337137	27.364023
409.771428	25.785684
410.205706	24.343532
410.639973	23.089007
411.074226	22.059602
411.508467	21.062650
411.942696	20.148310
412.376912	19.307430
412.811116	18.641502
413.245307	18.082250
413.679486	17.527075
414.113652	17.050435
414.547805	16.569278
414.981946	16.150529
415.416074	15.747057
415.850190	15.346714
416.284293	15.080280
416.718383	14.801346
417.152460	14.505106
417.586525	14.275183
418.020577	14.103234
418.454616	13.982530
418.888643	13.853821
419.322656	13.704621
419.756657	13.552014
420.190645	13.426474
420.624620	13.310912
421.058582	13.191985
421.492531	13.093798
421.926468	13.053155
422.360391	13.057689
422.794301	13.064295
423.228199	13.149602
423.662083	13.223633
424.095955	13.318418
424.529813	13.424602
424.963658	13.553896
425.397491	13.632532
425.831310	13.753730
426.265116	13.848268
426.698909	13.952118
427.132689	14.069051
427.566455	14.200079
428.000209	14.360452
428.433949	14.532890
428.867676	14.752963
429.301389	14.975628
429.735090	15.145125
430.168777	15.356758
430.602451	15.551753
431.036111	15.706210
431.469759	15.862288
431.903392	16.018125
432.337013	16.196143
432.770620	16.383934
433.204213	16.609457
433.637794	16.846750
434.071360	17.134084
434.504914	17.452014
434.938453	17.774523
435.371979	18.133345
435.805492	18.453866
436.238991	18.805067
436.672477	19.137859
437.105949	19.433187
437.539407	19.711810
437.972852	19.977719
438.406283	20.246322
438.839700	20.549376
439.273104	20.853045
439.706494	21.154888
440.139871	21.512479
440.573233	21.884126
441.006582	22.254786
441.439917	22.602876
441.873238	22.912952
442.306546	23.212117
442.739839	23.470528
443.173119	23.715661
443.606385	23.963135
444.039636	24.223245
444.472874	24.510060
444.906099	24.783145
445.339309	25.097105
445.772505	25.432535
446.205687	25.819743
446.638855	26.202610
447.072009	26.583416
447.505149	26.955634
447.938275	27.352992
448.371387	27.719409
448.804485	28.055193
449.237569	28.369035
449.670638	28.642568
450.103694	28.892765
450.536735	29.152385
450.969762	29.413457
451.402774	29.671792
451.835773	29.961218
452.268757	30.291987
452.701727	30.626089
453.134683	30.967179
453.567624	31.310453
454.000551	31.628919
454.433464	31.927808
454.866362	32.216078
455.299246	32.492629
455.732116	32.735021
456.164971	32.961066
456.597811	33.211786
457.030638	33.449816
457.463449	33.682600
457.896246	33.898319
458.329029	34.146336
458.761797	34.406623
459.194551	34.653964
459.627290	34.895262
460.060014	35.165117
460.492724	35.436754
460.925419	35.713375
461.358099	35.972728
461.790765	36.231188
462.223416	36.487028
462.656052	36.741292
463.088674	36.980195
463.521281	37.192120
463.953873	37.399724
464.386450	37.612803
464.819012	37.860256
465.251560	38.102722
465.684093	38.349209
466.116611	38.615302
466.549114	38.898538
466.981602	39.182165
467.414075	39.464943
467.846533	39.739762
468.278977	40.014566
468.711405	40.285463
469.143818	40.523299
469.576216	40.754821
470.008600	40.945946
470.440968	41.115071
470.873321	41.260871
471.305659	41.406026
471.737982	41.550845
472.170289	41.647122
472.602582	41.776811
473.034859	41.894696
473.467122	42.007381
473.899369	42.141331
474.331600	42.285997
474.763817	42.450573
475.196018	42.656008
475.628204	42.886817
476.060375	43.110140
476.492530	43.341765
476.924670	43.575389
477.356795	43.810110
477.788904	44.002022
478.220998	44.150515
478.653076	44.272058
479.085139	44.380783
479.517186	44.462875
479.949219	44.550797
480.381235	44.640861
480.813236	44.760996
481.245221	44.921588
481.677191	45.096179
482.109146	45.252289
482.541084	45.430495
482.973008	45.577980
483.404915	45.721351
483.836807	45.834435
484.268683	45.901810
484.700544	45.932667
485.132388	45.916352
485.564217	45.868819
485.996031	45.765363
486.427828	45.622496
486.859610	45.457505
487.291376	45.274969
487.723126	45.080866
488.154860	44.894148
488.586579	44.692180
489.018281	44.522324
489.449968	44.384160
489.881639	44.277456
490.313293	44.195035
490.744932	44.124216
491.176555	44.057217
491.608162	43.974831
492.039753	43.864546
492.471328	43.692901
492.902886	43.448103
493.334429	43.149016
493.765956	42.785036
494.197466	42.389379
494.628960	41.956296
495.060439	41.520941
495.491901	41.114201
495.923347	40.757046
496.354776	40.441332
496.786190	40.155694
497.217587	39.892018
497.648968	39.678405
498.080332	39.463264
498.511681	39.245798
498.943013	39.010625
499.374328	38.782255
499.805628	38.533630
500.236911	38.261337
500.668177	37.943326
501.099427	37.613098
501.530661	37.275960
501.961878	36.934035
502.393079	36.572488
502.824264	36.229631
503.255431	35.897327
503.686583	35.590396
504.117717	35.330807
504.548835	35.139217
504.979937	35.015352
505.411022	34.958670
505.842090	34.986539
506.273142	35.096812
506.704177	35.281903
507.135195	35.522862
507.566197	35.786243
507.997182	36.087113
508.428150	36.382345
508.859102	36.683007
509.290036	36.963873
509.720954	37.250952
510.151855	37.536729
510.582739	37.851574
511.013607	38.184917
511.444457	38.567055
511.875291	39.014859
512.306107	39.564732
512.736907	40.172045
513.167690	40.847097
513.598456	41.619014
514.029205	42.457894
514.459936	43.330281
514.890651	44.204674
515.321349	45.087340
515.752030	45.947581
516.182693	46.772628
516.613340	47.569660
517.043969	48.311231
517.474582	48.980618
517.905177	49.586829
518.335755	50.142141
518.766315	50.642688
519.196859	51.093684
519.627385	51.523531
520.057894	51.909676
520.488386	52.294821
520.918860	52.690677
521.349318	53.100058
521.779757	53.560040
522.210180	54.060422
522.640585	54.601598
523.070973	55.184337
523.501343	55.795108
523.931696	56.417889
524.362031	57.032289
524.792349	57.637386
525.222650	58.193691
525.652933	58.665313
526.083198	59.049529
526.513446	59.358654
526.943677	59.552200
527.373890	59.680707
527.804085	59.762200
528.234262	59.803539
528.664422	59.833603
529.094565	59.883280
529.524689	59.962063
529.954796	60.063359
530.384885	60.223868
530.814957	60.434122
531.245011	60.697464
531.675047	60.995888
532.105065	61.309186
532.535065	61.627416
532.965048	61.914171
533.395013	62.163617
533.824959	62.358681
534.254888	62.484191
534.684799	62.499492
535.114693	62.441576
535.544568	62.304860
535.974425	62.091562
536.404264	61.775387
536.834086	61.411807
537.263889	60.990617
537.693674	60.540793
538.123441	60.060478
538.553190	59.578090
538.982921	59.130594
539.412634	58.717655
539.842329	58.360824
540.272006	58.061195
540.701664	57.814186
541.131304	57.627201
541.560926	57.494986
541.990530	57.420231
542.420116	57.390088
542.849683	57.370324
543.279232	57.387274
543.708763	57.405946
544.138275	57.422496
544.567769	57.407197
544.997245	57.379419
545.426702	57.338521
545.856141	57.302284
546.285562	57.274353
546.714964	57.258297
547.144347	57.285757
547.573713	57.356375
548.003059	57.496935
548.432387	57.707098
548.861697	57.996950
549.290988	58.377706
549.720260	58.859041
550.149514	59.436251
550.578750	60.097573
551.007966	60.843068
551.437164	61.666036
551.866344	62.532033
552.295504	63.421750
552.724646	64.343074
553.153769	65.260697
553.582874	66.140081
554.011960	66.973128
554.441027	67.748340
554.870075	68.458980
555.299104	69.088611
555.728115	69.627065
556.157106	70.124592
556.586079	70.544489
557.015033	70.924702
557.443968	71.280933
557.872884	71.619266
558.301781	71.954599
558.730659	72.335738
559.159518	72.724277
559.588358	73.153331
560.017180	73.634890
560.445982	74.138485
560.874765	74.686056
561.303528	75.276838
561.732273	75.895253
562.160999	76.516702
562.589705	77.130940
563.018393	77.769370
563.447061	78.380525
563.875710	78.976321
564.304340	79.540644
564.732950	80.085373
565.161542	80.589783
565.590114	81.051285
566.018666	81.456889
566.447200	81.814089
566.875714	82.141874
567.304208	82.449047
567.732684	82.726314
568.161140	83.001939
568.589576	83.277880
569.017993	83.578262
569.446391	83.887592
569.874769	84.234757
570.303128	84.612274
570.731467	85.016923
571.159787	85.479654
571.588087	85.986871
572.016368	86.506395
572.444629	87.048042
572.872870	87.597988
573.301092	88.132787
573.729294	88.636534
574.157476	89.077273
574.585639	89.449536
575.013782	89.737209
575.441906	89.930825
575.870009	90.015067
576.298093	89.988840
576.726157	89.872659
577.154202	89.668011
577.582226	89.407381
578.010231	89.061535
578.438216	88.702859
578.866181	88.329017
579.294126	87.971749
579.722051	87.655213
580.149957	87.411004
580.577842	87.197587
581.005707	87.045434
581.433553	86.944463
581.861378	86.913979
582.289184	86.913100
582.716969	86.956005
583.144734	87.018199
583.572479	87.120988
584.000205	87.243543
584.427910	87.381031
584.855594	87.524890
585.283259	87.668124
585.710904	87.840148
586.138528	87.988104
586.566132	88.145607
586.993716	88.324269
587.421280	88.515393
587.848823	88.718547
588.276346	88.903824
588.703849	89.093863
589.131332	89.294027
589.558794	89.480065
589.986236	89.648928
590.413657	89.819652
590.841058	89.969048
591.268438	90.132110
591.695799	90.292062
592.123138	90.464088
592.550458	90.654183
592.977756	90.863327
593.405034	91.087292
593.832292	91.362813
594.259529	91.669544
594.686746	92.010462
595.113942	92.355513
595.541117	92.730569
595.968272	93.089224
596.395406	93.460853
596.822519	93.791302
597.249612	94.091762
597.676684	94.322042
598.103735	94.471871
598.530766	94.558084
598.957775	94.554191
599.384764	94.481977
599.811733	94.329082
600.238680	94.121257
600.665606	93.861010
601.092512	93.562042
601.519397	93.252932
601.946261	92.950355
602.373104	92.649218
602.799926	92.368461
603.226727	92.129390
603.653507	91.919854
604.080266	91.739499
604.507004	91.596741
604.933721	91.482454
605.360417	91.383086
605.787092	91.283424
606.213746	91.171203
606.640379	91.035381
607.066991	90.881655
607.493581	90.715973
607.920150	90.531152
608.346699	90.344876
608.773226	90.141873
609.199731	89.966216
609.626216	89.793645
610.052679	89.641706
610.479121	89.517904
610.905542	89.424726
611.331941	89.381058
611.758319	89.352373
612.184676	89.356349
612.611011	89.395882
613.037325	89.457269
613.463617	89.515822
613.889888	89.580710
614.316138	89.655766
614.742366	89.726659
615.168573	89.787611
615.594758	89.830844
616.020921	89.888540
616.447063	89.930581
616.873184	89.968993
617.299283	90.020117
617.725360	90.087059
618.151416	90.182690
618.577450	90.294949
619.003462	90.439611
619.429453	90.638931
619.855422	90.866028
620.281369	91.132178
620.707295	91.415593
621.133199	91.702867
621.559081	91.981148
621.984941	92.260302
622.410779	92.496819
622.836596	92.679761
623.262391	92.824739
623.688163	92.899959
624.113914	92.924941
624.539644	92.871225
624.965351	92.767336
625.391036	92.595285
625.816699	92.380099
626.242340	92.141211
626.667960	91.846335
627.093557	91.532093
627.519132	91.207932
627.944685	90.867434
628.370216	90.518325
628.795725	90.179946
629.221212	89.802563
629.646677	89.414059
630.072119	89.017243
630.497540	88.588162
630.922938	88.115128
631.348314	87.597591
631.773668	87.043766
632.198999	86.439239
632.624308	85.781391
633.049595	85.091913
633.474860	84.365398
633.900102	83.604391
634.325322	82.839937
634.750520	82.089523
635.175695	81.344679
635.600848	80.640852
636.025978	79.988572
636.451086	79.381176
636.876171	78.843306
637.301234	78.349388
637.726275	77.950068
638.151293	77.613348
638.576288	77.352863
639.001261	77.153239
639.426211	77.007735
639.851139	76.915788
640.276044	76.871494
640.700927	76.864215
641.125787	76.872413
641.550624	76.908484
641.975438	76.946544
642.400230	77.014203
642.824999	77.078749
643.249745	77.142409
643.674469	77.215884
644.099169	77.303095
644.523847	77.391853
644.948502	77.505584
645.373135	77.634616
645.797744	77.779647
646.222330	77.929631
646.646894	78.102400
647.071435	78.293528
647.495953	78.494156
647.920447	78.675450
648.344919	78.851831
648.769368	79.005947
649.193794	79.129695
649.618197	79.213433
650.042576	79.249323
650.466933	79.272373
650.891267	79.218324
651.315577	79.125724
651.739864	78.967819
652.164129	78.761700
652.588370	78.493493
653.012587	78.194077
653.436782	77.854094
653.860953	77.473821
654.285102	77.077803
654.709226	76.664909
655.133328	76.250400
655.557406	75.815878
655.981461	75.397873
656.405493	74.977453
656.829501	74.563696
657.253486	74.147456
657.677448	73.743503
658.101386	73.336047
658.525301	72.940731
658.949192	72.544992
659.373060	72.151922
659.796904	71.745208
660.220725	71.341134
660.644522	70.934076
661.068296	70.529200
661.492046	70.143494
661.915772	69.765225
662.339475	69.413814
662.763154	69.112742
663.186810	68.857683
663.610442	68.629886
664.034050	68.470315
664.457635	68.366767
664.881196	68.346048
665.304733	68.387265
665.728247	68.506899
666.151736	68.695203
666.575202	68.954577
666.998644	69.273299
667.422062	69.648311
667.845457	70.051695
668.268827	70.484053
668.692174	70.940987
669.115496	71.402264
669.538795	71.856457
669.962070	72.285382
670.385321	72.684426
670.808547	73.028241
671.231750	73.331378
671.654929	73.573993
672.078084	73.750890
672.501214	73.874190
672.924321	73.941757
673.347404	73.951934
673.770462	73.917942
674.193496	73.852348
674.616506	73.736489
675.039492	73.599304
675.462454	73.444478
675.885391	73.243979
676.308305	73.023143
676.731194	72.812159
677.154058	72.599337
677.576899	72.385594
677.999715	72.168386
678.422507	71.977524
678.845274	71.787308
679.268017	71.612889
679.690736	71.443435
680.113430	71.280331
680.536100	71.137009
680.958746	71.011473
681.381367	70.899297
681.803963	70.805830
682.226535	70.720251
682.649083	70.666881
683.071605	70.637315
683.494104	70.628138
683.916578	70.642631
684.339027	70.685589
684.761451	70.747644
685.183851	70.827347
685.606227	70.924646
686.028577	71.029067
686.450903	71.139534
686.873204	71.242804
687.295481	71.348446
687.717733	71.449413
688.139959	71.527111
688.562162	71.574860
688.984339	71.605776
689.406492	71.603323
689.828619	71.555976
690.250722	71.465139
690.672800	71.347500
691.094853	71.175046
691.516881	70.943236
691.938884	70.671074
692.360863	70.364366
692.782816	70.042508
693.204744	69.694742
693.626647	69.336398
694.048526	68.974676
694.470379	68.636306
694.892207	68.299119
695.314010	68.007680
695.735788	67.747691
696.157540	67.540661
696.579268	67.398218
697.000970	67.316406
697.422648	67.296379
697.844300	67.343120
698.265926	67.465900
698.687528	67.645474
699.109104	67.885155
699.530655	68.179263
699.952181	68.533647
700.373681	68.921186
700.795156	69.354964
701.216606	69.824323
701.638030	70.314169
702.059429	70.814626
702.480803	71.318886
702.902151	71.809999
703.323473	72.279842
703.744770	72.703333
704.166042	73.103540
704.587288	73.476455
705.008509	73.803348
705.429704	74.079572
705.850873	74.294487
706.272017	74.467267
706.693135	74.583058
707.114228	74.655147
707.535295	74.661082
707.956336	74.625750
708.377352	74.538757
708.798342	74.405297
709.219306	74.220953
709.640245	73.999374
710.061157	73.744952
710.482044	73.446479
710.902905	73.128118
711.323741	72.791687
711.744550	72.447754
712.165334	72.097938
712.586092	71.743416
713.006823	71.375458
713.427529	71.012372
713.848209	70.642494
714.268863	70.279310
714.689492	69.933824
715.110094	69.601598
715.530670	69.307991
715.951220	69.031540
716.371744	68.782485
716.792242	68.574743
717.212714	68.411423
717.633159	68.269669
718.053579	68.176615
718.473973	68.122717
718.894340	68.098107
719.314681	68.108508
719.734996	68.143412
720.155285	68.183329
720.575547	68.238634
720.995784	68.306631
721.415994	68.372188
721.836177	68.433865
722.256335	68.491781
722.676466	68.528617
723.096570	68.546897
723.516649	68.545902
723.936701	68.511495
724.356726	68.425618
724.776725	68.303259
725.196698	68.140629
725.616644	67.945275
726.036564	67.716531
726.456457	67.462317
726.876324	67.192101
727.296164	66.890409
727.715977	66.573083
728.135764	66.258874
728.555525	65.929357
728.975258	65.610549
729.394966	65.305490
729.814646	65.008911
730.234300	64.711978
730.653927	64.444123
731.073527	64.191739
731.493101	63.964624
731.912648	63.768284
732.332168	63.600323
732.751661	63.466864
733.171128	63.376269
733.590568	63.320389
734.009980	63.310197
734.429366	63.335013
734.848726	63.381626
735.268058	63.472084
735.687363	63.581554
736.106641	63.708592
736.525893	63.860062
736.945117	64.026485
737.364314	64.203208
737.783485	64.404967
738.202628	64.618447
738.621744	64.839249
739.040834	65.051599
739.459896	65.265676
739.878931	65.466493
740.297939	65.669615
740.716919	65.860553
741.135873	66.022061
741.554799	66.169003
741.973698	66.289286
742.392570	66.385443
742.811415	66.465450
743.230232	66.530756
743.649022	66.577914
744.067785	66.600010
744.486521	66.602827
744.905229	66.595418
745.323909	66.576863
745.742563	66.555784
746.161189	66.525769
746.579787	66.500662
746.998358	66.471354
747.416902	66.446393
747.835418	66.449259
748.253907	66.450537
748.672368	66.482563
749.090802	66.540745
749.509208	66.619299
749.927586	66.735196
750.345937	66.890540
750.764261	67.072413
751.182556	67.272472
751.600824	67.521553
752.019065	67.808851
752.437277	68.112415
752.855462	68.457709
753.273620	68.822093
753.691749	69.200557
754.109851	69.612818
754.527925	70.029872
754.945971	70.471851
755.363989	70.906762
755.781980	71.353968
756.199943	71.791941
756.617877	72.208948
757.035784	72.625585
757.453663	73.026504
757.871514	73.384119
758.289337	73.687288
758.707132	73.949321
759.124899	74.160112
759.542639	74.319261
759.960350	74.411032
760.378033	74.442882
760.795688	74.393115
761.213314	74.289016
761.630913	74.100516
762.048484	73.867172
762.466026	73.552918
762.883541	73.171963
763.301027	72.726171
763.718485	72.217534
764.135914	71.674105
764.553316	71.068334
764.970689	70.457363
765.388034	69.820427
765.805351	69.164930
766.222639	68.513712
766.639899	67.870990
767.057131	67.224710
767.474334	66.598421
767.891509	66.001920
768.308655	65.455621
768.725773	64.920811
769.142863	64.442472
769.559924	64.013861
769.976957	63.628249
770.393961	63.289225
770.810936	63.009533
771.227883	62.796097
771.644802	62.619150
772.061692	62.507698
772.478553	62.453152
772.895386	62.446513
773.312190	62.491487
773.728965	62.601548
774.145712	62.747862
774.562430	62.960880
774.979119	63.205504
775.395780	63.509844
775.812411	63.847618
776.229014	64.239604
776.645589	64.660399
777.062134	65.120615
777.478651	65.600631
777.895138	66.080970
778.311597	66.589340
778.728027	67.090027
779.144428	67.591773
779.560800	68.095829
779.977143	68.586771
780.393458	69.062588
780.809743	69.511524
781.225999	69.926647
781.642226	70.323105
782.058425	70.653692
782.474594	70.943063
782.890734	71.187445
783.306845	71.392255
783.722926	71.546217
784.138979	71.649334
784.555003	71.710208
784.970997	71.711568
785.386962	71.661905
785.802898	71.568150
786.218805	71.446401
786.634682	71.286415
787.050531	71.092681
787.466349	70.860684
787.882139	70.617008
788.297899	70.351641
788.713630	70.105324
789.129332	69.851120
789.545004	69.611655
789.960647	69.378269
790.376260	69.180372
790.791844	69.020612
791.207399	68.873814
791.622924	68.772654
792.038419	68.707217
792.453885	68.689767
792.869321	68.714751
793.284728	68.787608
793.700106	68.919510
794.115453	69.075161
794.530771	69.268468
794.946060	69.533496
795.361319	69.826782
795.776548	70.134734
796.191747	70.460724
796.606917	70.779736
797.022057	71.121432
797.437167	71.459727
797.852248	71.802588
798.267298	72.121272
798.682319	72.417031
799.097310	72.677693
799.512271	72.903297
799.927203	73.091960
800.342104	73.239170
800.756976	73.321520
801.171818	73.352120
801.586629	73.312919
802.001411	73.216740
802.416163	73.051891
802.830885	72.831723
803.245577	72.534855
803.660238	72.176109
804.074870	71.786167
804.489472	71.354507
804.904043	70.861997
805.318585	70.303322
805.733096	69.727208
806.147577	69.117167
806.562028	68.466929
806.976449	67.812603
807.390840	67.134609
807.805200	66.438912
808.219530	65.730456
808.633830	65.055271
809.048100	64.372257
809.462339	63.717222
809.876548	63.055643
810.290727	62.428726
810.704875	61.828881
811.118993	61.245772
811.533080	60.719398
811.947137	60.213707
812.361164	59.745368
812.775160	59.317925
813.189126	58.931863
813.603061	58.596266
814.016966	58.309982
814.430840	58.072491
814.844684	57.889194
815.258497	57.768007
815.672280	57.693811
816.086032	57.682064
816.499753	57.731572
816.913444	57.834681
817.327104	57.967113
817.740733	58.160946
818.154331	58.406174
818.567899	58.703338
818.981436	59.047818
819.394943	59.422972
819.808418	59.848477
820.221863	60.300997
820.635277	60.787492
821.048660	61.333017
821.462013	61.880906
821.875334	62.458851
822.288625	63.062562
822.701884	63.697847
823.115113	64.326406
823.528311	64.955984
823.941478	65.609850
824.354614	66.258531
824.767718	66.888377
825.180792	67.494392
825.593835	68.074610
826.006847	68.625240
826.419827	69.149860
826.832777	69.623938
827.245695	70.056652
827.658582	70.410488
828.071438	70.700009
828.484263	70.941523
828.897057	71.104760
829.309819	71.180490
829.722551	71.186476
830.135251	71.118478
830.547919	70.995019
830.960557	70.820353
831.373163	70.556708
831.785738	70.241574
832.198281	69.907462
832.610793	69.523575
833.023274	69.123984
833.435723	68.687071
833.848141	68.252885
834.260528	67.787993
834.672883	67.345198
835.085206	66.906820
835.497498	66.483563
835.909758	66.087965
836.321987	65.701223
836.734185	65.344354
837.146350	65.010968
837.558485	64.735747
837.970587	64.499157
838.382658	64.312677
838.794697	64.149085
839.206705	64.020734
839.618681	63.955279
840.030625	63.936635
840.442538	63.977283
840.854418	64.059080
841.266267	64.161598
841.678084	64.325785
842.089870	64.543660
842.501623	64.789447
842.913345	65.062254
843.325035	65.365811
843.736693	65.687256
844.148319	66.046630
844.559913	66.428993
844.971475	66.801788
845.383005	67.178239
845.794504	67.569867
846.205970	67.968157
846.617404	68.313433
847.028806	68.685951
847.440176	69.024921
847.851514	69.362906
848.262820	69.657435
848.674094	69.935101
849.085336	70.164130
849.496546	70.351356
849.907723	70.516021
850.318868	70.626631
850.729981	70.718757
851.141062	70.758845
851.552110	70.761895
851.963127	70.730012
852.374111	70.657750
852.785062	70.494300
853.195982	70.281689
853.606869	70.052471
854.017723	69.790888
854.428546	69.481478
854.839336	69.130225
855.250093	68.753260
855.660818	68.374427
856.071511	67.946504
856.482171	67.485678
856.892799	66.985308
857.303394	66.468852
857.713956	65.931087
858.124486	65.386274
858.534984	64.836124
858.945449	64.253139
859.355881	63.658359
859.766280	63.060295
860.176647	62.442116
860.586982	61.805461
860.997283	61.182286
861.407552	60.550565
861.817789	59.938179
862.227992	59.333519
862.638163	58.719108
863.048301	58.131045
863.458406	57.543687
863.868478	56.983231
864.278518	56.460703
864.688524	55.959760
865.098498	55.470529
865.508439	55.041314
865.918347	54.644926
866.328222	54.270156
866.738064	53.954129
867.147873	53.683092
867.557649	53.447384
867.967392	53.255788
868.377102	53.116372
868.786779	53.025064
869.196423	52.995399
869.606034	53.045710
870.015612	53.112885
870.425156	53.258317
870.834668	53.433359
871.244146	53.642780
871.653591	53.901220
872.063003	54.213981
872.472382	54.545207
872.881728	54.924232
873.291040	55.335384
873.700319	55.751252
874.109564	56.202684
874.518777	56.659121
874.927956	57.112829
875.337102	57.571907
875.746214	58.005920
876.155293	58.439415
876.564338	58.842637
876.973350	59.232680
877.382329	59.587666
877.791274	59.910777
878.200186	60.200905
878.609064	60.463525
879.017909	60.660181
879.426720	60.796707
879.835497	60.865337
880.244241	60.899459
880.652952	60.884207
881.061629	60.834506
881.470272	60.724718
881.878881	60.539744
882.287457	60.299959
882.695999	60.033427
883.104507	59.703606
883.512982	59.339203
883.921423	58.936794
884.329830	58.536180
884.738203	58.072240
885.146543	57.609404
885.554849	57.122309
885.963120	56.643574
886.371358	56.170805
886.779563	55.676265
887.187733	55.211653
887.595869	54.744237
888.003971	54.296721
888.412040	53.890227
888.820074	53.493013
889.228074	53.151875
889.636041	52.830941
890.043973	52.528294
890.451871	52.285344
890.859736	52.072292
891.267566	51.879444
891.675362	51.764830
892.083124	51.673876
892.490851	51.628765
892.898545	51.626790
893.306204	51.635255
893.713829	51.663423
894.121420	51.729672
894.528977	51.834804
894.936499	51.975347
895.343987	52.123643
895.751441	52.285513
896.158860	52.493611
896.566246	52.705546
896.973596	52.908989
897.380913	53.162148
897.788195	53.386167
898.195442	53.607718
898.602655	53.795669
899.009834	53.982536
899.416978	54.170251
899.824088	54.323022
900.231163	54.458343
900.638204	54.591637
901.045210	54.680591
901.452181	54.746000
901.859118	54.759924
902.266021	54.756980
902.672888	54.746130
903.079721	54.672284
903.486520	54.539428
903.893283	54.411881
904.300012	54.234921
904.706707	54.045165
905.113366	53.825327
905.519991	53.531615
905.926581	53.249785
906.333136	52.949660
906.739656	52.610328
907.146142	52.257664
907.552592	51.879474
907.959008	51.496238
908.365389	51.124887
908.771735	50.715167
909.178046	50.329751
909.584322	49.939847
909.990563	49.520047
910.396769	49.131508
910.802940	48.735526
911.209076	48.364844
911.615177	47.967140
912.021243	47.578060
912.427274	47.210507
912.833270	46.877325
913.239231	46.534077
913.645156	46.187553
914.051046	45.862166
914.456902	45.564899
914.862721	45.262713
915.268506	44.958117
915.674256	44.677703
916.079970	44.436617
916.485649	44.158053
916.891292	43.902071
917.296901	43.658463
917.702474	43.416468
918.108011	43.240112
918.513514	43.035014
918.918980	42.857199
919.324412	42.704700
919.729808	42.557849
920.135169	42.436918
920.540494	42.341561
920.945783	42.235847
921.351037	42.138867
921.756256	42.081835
922.161439	42.017555
922.566586	41.978028
922.971698	41.942570
923.376775	41.915340
923.781815	41.914706
924.186820	41.964477
924.591790	41.993713
924.996723	42.035697
925.401621	42.078221
925.806484	42.139904
926.211310	42.250286
926.616101	42.375587
927.020856	42.484849
927.425575	42.614091
927.830259	42.783682
928.234906	42.926473
928.639518	43.073332
929.044094	43.289086
929.448634	43.467467
929.853138	43.647797
930.257606	43.885319
930.662038	44.094129
931.066434	44.322149
931.470795	44.507172
931.875119	44.714926
932.279407	44.929751
932.683659	45.122517
933.087875	45.316442
933.492055	45.508399
933.896199	45.690622
934.300307	45.837604
934.704379	46.033179
935.108414	46.179998
935.512414	46.335965
935.916377	46.507308
936.320304	46.611587
936.724195	46.694551
937.128049	46.790816
937.531867	46.846081
937.935649	46.908118
938.339395	46.914191
938.743104	46.896037
939.146777	46.859389
939.550414	46.820896
939.954014	46.735693
940.357578	46.589505
940.761105	46.478204
941.164596	46.334224
941.568050	46.186563
941.971468	46.033869
942.374850	45.852493
942.778195	45.604342
943.181503	45.342123
943.584775	45.091537
943.988010	44.846402
944.391209	44.566990
944.794371	44.271901
945.197496	43.988075
945.600585	43.664987
946.003637	43.355815
946.406653	43.078770
946.809632	42.761771
947.212574	42.386454
947.615479	42.067131
948.018347	41.742987
948.421179	41.417529
948.823974	41.110541
949.226732	40.826985
949.629453	40.537466
950.032138	40.282419
950.434785	40.024905
950.837396	39.805692
951.239969	39.590942
951.642506	39.367034
952.045006	39.155972
952.447469	38.984092
952.849895	38.842617
953.252283	38.691774
953.654635	38.590604
954.056950	38.444305
954.459227	38.342960
954.861468	38.255904
955.263671	38.221804
955.665838	38.174398
956.067967	38.148442
956.470059	38.159017
956.872114	38.182567
957.274131	38.196817
957.676112	38.215190
958.078055	38.292374
958.479961	38.331071
958.881829	38.383692
959.283661	38.442922
959.685455	38.519936
960.087211	38.628410
960.488931	38.676276
960.890613	38.752585
961.292257	38.851703
961.693864	38.894789
962.095434	38.974904
962.496966	39.054021
962.898461	39.106158
963.299918	39.147756
963.701338	39.183126
964.102720	39.198786
964.504065	39.257546
964.905372	39.263025
965.306641	39.293693
965.707873	39.346831
966.109068	39.361567
966.510224	39.402521
966.911343	39.381534
967.312425	39.353024
967.713468	39.312805
968.114474	39.284154
968.515442	39.256096
968.916373	39.183902
969.317265	39.142475
969.718120	39.072375
970.118937	38.990448
970.519716	38.909482
970.920458	38.834518
971.321161	38.766149
971.721827	38.691409
972.122454	38.623123
972.523044	38.510643
972.923596	38.457191
973.324110	38.346125
973.724585	38.245646
974.125023	38.165699
974.525423	38.062819
974.925785	37.995202
975.326108	37.910701
975.726394	37.840788
976.126642	37.816092
976.526851	37.736758
976.927022	37.612790
977.327155	37.598459
977.727250	37.539192
978.127307	37.450396
978.527325	37.362376
978.927306	37.259859
979.327248	37.220625
979.727151	37.159348
980.127017	37.088186
980.526844	37.065576
980.926633	36.989162
981.326383	36.920393
981.726095	36.815085
982.125769	36.792322
982.525404	36.753077
982.925001	36.658786
983.324560	36.564310
983.724079	36.525808
984.123561	36.457061
984.523004	36.430025
984.922408	36.398365
985.321774	36.327984
985.721102	36.284839
986.120390	36.218073
986.519641	36.076502
986.918852	35.987424
987.318025	35.964936
987.717159	35.829772
988.116255	35.738152
988.515312	35.626712
988.914330	35.632890
989.313310	35.607754
989.712250	35.541292
990.111152	35.583215
990.510015	35.496496
990.908840	35.460234
991.307625	35.375629
991.706372	35.304719
992.105080	35.417151
992.503749	35.313072
992.902379	35.278152
993.300970	35.337210
993.699522	35.360986
994.098035	35.361947
994.496510	35.398538
994.894945	35.356843
995.293341	35.349915
995.691698	35.570942
996.090016	35.512169
996.488296	35.630066
996.886535	35.639027
997.284736	35.652237
997.682898	35.773204
998.081021	35.757838
998.479104	35.746418
998.877148	36.020460
999.275153	36.178973
999.673119	36.214463
1000.071046	36.433267
1000.468933	36.561502
1000.866781	36.637195
1001.264590	36.723926
1001.662359	36.776743
1002.060089	36.937313
1002.457780	36.805464
1002.855431	37.166269
1003.253043	37.256519
1003.650615	37.482871
1004.048148	37.554491
1004.445642	37.511997
1004.843096	37.948989
1005.240511	38.101873
1005.637886	38.100532
1006.035221	38.393839
1006.432517	38.718185
1006.829774	38.947685
1007.226991	39.444444
1007.624168	39.612979
1008.021306	39.812885
1008.418404	39.922813
1008.815462	39.995105
1009.212481	40.093510
1009.609460	40.426521
1010.006399	40.581482
1010.403298	41.134984
1010.800158	41.816847
1011.196978	42.121194
1011.593758	42.600277
1011.990498	43.143813
1012.387199	43.641711
1012.783860	44.085028
1013.180480	44.426230
1013.577061	44.866653
1013.973602	45.318979
1014.370103	45.540996
1014.766564	46.118577
1015.162985	46.119179
1015.559366	46.659597
1015.955708	46.968563
1016.352009	47.506432
1016.748270	47.943337
1017.144491	48.000000
1017.540671	48.091060
1017.936812	48.590570
1018.332913	48.707941
1018.728973	49.040542
1019.124994	49.276478
1019.520974	49.120478
1019.916914	50.152139
1020.312814	50.058777
