Time1=100ms:Average1=5:Objective=10X:Aperture=1: (11/21/2018 2:36:48 PM)
11/21/2018 2:36:48 PM
Reflectance
10X
Ap#: 1
Avg1: 5.000000
Avg2: 0.000000
Int.Time1:100.000000

350.166136	89.576941
350.601937	89.628632
351.037728	89.569650
351.473509	89.696078
351.909281	89.416847
352.345042	89.078701
352.780794	88.767150
353.216536	88.831734
353.652267	89.096851
354.087989	88.812989
354.523701	88.522323
354.959403	88.283486
355.395095	88.512912
355.830777	88.074030
356.266449	87.512349
356.702110	87.251427
357.137762	87.309993
357.573404	87.575936
358.009035	86.866314
358.444656	87.067360
358.880268	87.310883
359.315869	87.321743
359.751459	87.280016
360.187040	87.545144
360.622610	88.066732
361.058170	87.805118
361.493720	87.788291
361.929260	87.458227
362.364789	87.544449
362.800308	87.422068
363.235816	87.536975
363.671314	87.388096
364.106802	87.812316
364.542279	87.651523
364.977746	88.239929
365.413203	88.474106
365.848649	88.647152
366.284084	88.617000
366.719509	88.488498
367.154924	88.357855
367.590328	88.180833
368.025721	88.172679
368.461104	88.707765
368.896477	88.965858
369.331838	88.842894
369.767189	89.706609
370.202530	90.098127
370.637859	89.990040
371.073178	89.598486
371.508486	89.935291
371.943784	90.047676
372.379071	89.610648
372.814347	89.428883
373.249612	89.964371
373.684866	90.008921
374.120110	90.103704
374.555343	90.458280
374.990565	90.319065
375.425776	90.094106
375.860976	90.514771
376.296165	90.843611
376.731343	91.233445
377.166511	91.203015
377.601667	91.010350
378.036812	91.105201
378.471946	91.141112
378.907070	90.877021
379.342182	90.694947
379.777283	90.869011
380.212373	90.683534
380.647452	90.310571
381.082520	90.197806
381.517576	90.398905
381.952622	89.405510
382.387656	88.969883
382.822679	89.030466
383.257691	88.413819
383.692692	88.159649
384.127681	88.268263
384.562659	88.399204
384.997626	88.266415
385.432581	87.996971
385.867525	88.498099
386.302458	88.428341
386.737379	88.412140
387.172289	88.159894
387.607188	87.803490
388.042075	87.713665
388.476951	87.482313
388.911815	87.772761
389.346668	87.180208
389.781509	87.260788
390.216338	87.004962
390.651157	86.979703
391.085963	86.408767
391.520758	86.496111
391.955541	86.204006
392.390313	86.126143
392.825073	86.242548
393.259821	86.216492
393.694558	86.365320
394.129283	86.530990
394.563996	86.997964
394.998698	87.191844
395.433388	87.895621
395.868066	88.025663
396.302732	87.729861
396.737386	87.569806
397.172029	87.314195
397.606659	87.232176
398.041278	86.632072
398.475885	86.374840
398.910480	85.890207
399.345063	84.703735
399.779634	83.827991
400.214194	82.410957
400.648741	80.774242
401.083276	79.733005
401.517799	78.053946
401.952310	76.606873
402.386809	74.268261
402.821296	72.099895
403.255771	69.718480
403.690234	66.844570
404.124684	64.312545
404.559123	61.780457
404.993549	59.110989
405.427963	56.151735
405.862365	53.564672
406.296754	51.035051
406.731131	48.749715
407.165496	46.638112
407.599849	44.656523
408.034190	42.675159
408.468518	41.011904
408.902833	39.443102
409.337137	38.063652
409.771428	36.719721
410.205706	35.437831
410.639973	34.368600
411.074226	33.424701
411.508467	32.690224
411.942696	31.948782
412.376912	31.288614
412.811116	30.816314
413.245307	30.345278
413.679486	29.897374
414.113652	29.509112
414.547805	29.172105
414.981946	28.860996
415.416074	28.589970
415.850190	28.395440
416.284293	28.227542
416.718383	28.087307
417.152460	27.957930
417.586525	27.827754
418.020577	27.783870
418.454616	27.657241
418.888643	27.598535
419.322656	27.568966
419.756657	27.597052
420.190645	27.583613
420.624620	27.606659
421.058582	27.641585
421.492531	27.687883
421.926468	27.722282
422.360391	27.739561
422.794301	27.786585
423.228199	27.874231
423.662083	27.975705
424.095955	28.097964
424.529813	28.165747
424.963658	28.242273
425.397491	28.309408
425.831310	28.393996
426.265116	28.455191
426.698909	28.513066
427.132689	28.588362
427.566455	28.679620
428.000209	28.755469
428.433949	28.836506
428.867676	28.910498
429.301389	29.006527
429.735090	29.079052
430.168777	29.126733
430.602451	29.219061
431.036111	29.275367
431.469759	29.334834
431.903392	29.420867
432.337013	29.488403
432.770620	29.536982
433.204213	29.588230
433.637794	29.647818
434.071360	29.663612
434.504914	29.718615
434.938453	29.768136
435.371979	29.822003
435.805492	29.883234
436.238991	29.934422
436.672477	29.941465
437.105949	29.959881
437.539407	29.941630
437.972852	29.946110
438.406283	29.966788
438.839700	29.958609
439.273104	29.946281
439.706494	29.928922
440.139871	29.899901
440.573233	29.905036
441.006582	29.879668
441.439917	29.832228
441.873238	29.804504
442.306546	29.750238
442.739839	29.678984
443.173119	29.615069
443.606385	29.553513
444.039636	29.465776
444.472874	29.405713
444.906099	29.307506
445.339309	29.231884
445.772505	29.158566
446.205687	29.083514
446.638855	28.979025
447.072009	28.882150
447.505149	28.787705
447.938275	28.665165
448.371387	28.547790
448.804485	28.405873
449.237569	28.270553
449.670638	28.132618
450.103694	28.008273
450.536735	27.863010
450.969762	27.721565
451.402774	27.564637
451.835773	27.386062
452.268757	27.253919
452.701727	27.084495
453.134683	26.932857
453.567624	26.798109
454.000551	26.624795
454.433464	26.453100
454.866362	26.277855
455.299246	26.096037
455.732116	25.935369
456.164971	25.743784
456.597811	25.556572
457.030638	25.378866
457.463449	25.209379
457.896246	25.012166
458.329029	24.824122
458.761797	24.626417
459.194551	24.429117
459.627290	24.229104
460.060014	24.029636
460.492724	23.831004
460.925419	23.647609
461.358099	23.475065
461.790765	23.277541
462.223416	23.091421
462.656052	22.903883
463.088674	22.707256
463.521281	22.506547
463.953873	22.338699
464.386450	22.145251
464.819012	21.953557
465.251560	21.760110
465.684093	21.556461
466.116611	21.386375
466.549114	21.214003
466.981602	21.046116
467.414075	20.874327
467.846533	20.718716
468.278977	20.552151
468.711405	20.406162
469.143818	20.248813
469.576216	20.118373
470.008600	19.980452
470.440968	19.826250
470.873321	19.673614
471.305659	19.537944
471.737982	19.423864
472.170289	19.315280
472.602582	19.210337
473.034859	19.121993
473.467122	19.049505
473.899369	18.996475
474.331600	18.939015
474.763817	18.887339
475.196018	18.852799
475.628204	18.824399
476.060375	18.796261
476.492530	18.771652
476.924670	18.763408
477.356795	18.756310
477.788904	18.774986
478.220998	18.815941
478.653076	18.868579
479.085139	18.933497
479.517186	18.991831
479.949219	19.061104
480.381235	19.144880
480.813236	19.229253
481.245221	19.323949
481.677191	19.433880
482.109146	19.535791
482.541084	19.656215
482.973008	19.779618
483.404915	19.919666
483.836807	20.071348
484.268683	20.241427
484.700544	20.407317
485.132388	20.573158
485.564217	20.758035
485.996031	20.929546
486.427828	21.116426
486.859610	21.306217
487.291376	21.489185
487.723126	21.680818
488.154860	21.857574
488.586579	22.053374
489.018281	22.252367
489.449968	22.466559
489.881639	22.686323
490.313293	22.904678
490.744932	23.117737
491.176555	23.347055
491.608162	23.590557
492.039753	23.840654
492.471328	24.076187
492.902886	24.327915
493.334429	24.585365
493.765956	24.838371
494.197466	25.111939
494.628960	25.380679
495.060439	25.659004
495.491901	25.937269
495.923347	26.212606
496.354776	26.492582
496.786190	26.782193
497.217587	27.074286
497.648968	27.365147
498.080332	27.680394
498.511681	27.996488
498.943013	28.328763
499.374328	28.692770
499.805628	29.056853
500.236911	29.430663
500.668177	29.822041
501.099427	30.225974
501.530661	30.649888
501.961878	31.066335
502.393079	31.494817
502.824264	31.923923
503.255431	32.374107
503.686583	32.807262
504.117717	33.271942
504.548835	33.740141
504.979937	34.187681
505.411022	34.655200
505.842090	35.159419
506.273142	35.673010
506.704177	36.194484
507.135195	36.742265
507.566197	37.299717
507.997182	37.864731
508.428150	38.451183
508.859102	39.056978
509.290036	39.678251
509.720954	40.309970
510.151855	40.959479
510.582739	41.618235
511.013607	42.292689
511.444457	42.955840
511.875291	43.647344
512.306107	44.317331
512.736907	44.999896
513.167690	45.686791
513.598456	46.392068
514.029205	47.100335
514.459936	47.817321
514.890651	48.557167
515.321349	49.299347
515.752030	50.056184
516.182693	50.812884
516.613340	51.559454
517.043969	52.340829
517.474582	53.091293
517.905177	53.840988
518.335755	54.596944
518.766315	55.331538
519.196859	56.057764
519.627385	56.769998
520.057894	57.467890
520.488386	58.145692
520.918860	58.817119
521.349318	59.513365
521.779757	60.191942
522.210180	60.869647
522.640585	61.563818
523.070973	62.254131
523.501343	62.928309
523.931696	63.614241
524.362031	64.288930
524.792349	64.975244
525.222650	65.645302
525.652933	66.323846
526.083198	66.996121
526.513446	67.661180
526.943677	68.313526
527.373890	68.946191
527.804085	69.597256
528.234262	70.211878
528.664422	70.834873
529.094565	71.432397
529.524689	72.040186
529.954796	72.650962
530.384885	73.228943
530.814957	73.823789
531.245011	74.402104
531.675047	74.984032
532.105065	75.561746
532.535065	76.138700
532.965048	76.696016
533.395013	77.265814
533.824959	77.810434
534.254888	78.342682
534.684799	78.866363
535.114693	79.388369
535.544568	79.900319
535.974425	80.380917
536.404264	80.855543
536.834086	81.315280
537.263889	81.746699
537.693674	82.167048
538.123441	82.585241
538.553190	82.985241
538.982921	83.381270
539.412634	83.749206
539.842329	84.111838
540.272006	84.459584
540.701664	84.808704
541.131304	85.115338
541.560926	85.421873
541.990530	85.724387
542.420116	86.034099
542.849683	86.295344
543.279232	86.543638
543.708763	86.795218
544.138275	87.024621
544.567769	87.260462
544.997245	87.461511
545.426702	87.662616
545.856141	87.834798
546.285562	88.012470
546.714964	88.171716
547.144347	88.352802
547.573713	88.531109
548.003059	88.718322
548.432387	88.891374
548.861697	89.059557
549.290988	89.220269
549.720260	89.388770
550.149514	89.547443
550.578750	89.708367
551.007966	89.867715
551.437164	90.018429
551.866344	90.172573
552.295504	90.301309
552.724646	90.434263
553.153769	90.561655
553.582874	90.687744
554.011960	90.797115
554.441027	90.904530
554.870075	91.014142
555.299104	91.106808
555.728115	91.177868
556.157106	91.279900
556.586079	91.344797
557.015033	91.396174
557.443968	91.448183
557.872884	91.483594
558.301781	91.544215
558.730659	91.561377
559.159518	91.591959
559.588358	91.632622
560.017180	91.638702
560.445982	91.625794
560.874765	91.608089
561.303528	91.573885
561.732273	91.522631
562.160999	91.468504
562.589705	91.414846
563.018393	91.348741
563.447061	91.271494
563.875710	91.196511
564.304340	91.117022
564.732950	91.019672
565.161542	90.913921
565.590114	90.825645
566.018666	90.736396
566.447200	90.639144
566.875714	90.543627
567.304208	90.459122
567.732684	90.366139
568.161140	90.280623
568.589576	90.187127
569.017993	90.088162
569.446391	89.981485
569.874769	89.893655
570.303128	89.804062
570.731467	89.704357
571.159787	89.591164
571.588087	89.457594
572.016368	89.359040
572.444629	89.245083
572.872870	89.105029
573.301092	88.993315
573.729294	88.875041
574.157476	88.746672
574.585639	88.598119
575.013782	88.474328
575.441906	88.337462
575.870009	88.201845
576.298093	88.073580
576.726157	87.930413
577.154202	87.779783
577.582226	87.631524
578.010231	87.500530
578.438216	87.365316
578.866181	87.229015
579.294126	87.072062
579.722051	86.923984
580.149957	86.771675
580.577842	86.614298
581.005707	86.449442
581.433553	86.279155
581.861378	86.095271
582.289184	85.919643
582.716969	85.727097
583.144734	85.519604
583.572479	85.316490
584.000205	85.109163
584.427910	84.905070
584.855594	84.703225
585.283259	84.474955
585.710904	84.241345
586.138528	84.019363
586.566132	83.766824
586.993716	83.514968
587.421280	83.259589
587.848823	83.008764
588.276346	82.728902
588.703849	82.443626
589.131332	82.136359
589.558794	81.801241
589.986236	81.470022
590.413657	81.126433
590.841058	80.766196
591.268438	80.377144
591.695799	79.977357
592.123138	79.565286
592.550458	79.156450
592.977756	78.727285
593.405034	78.291787
593.832292	77.840566
594.259529	77.398919
594.686746	76.943746
595.113942	76.490351
595.541117	76.037453
595.968272	75.590896
596.395406	75.149016
596.822519	74.707841
597.249612	74.262106
597.676684	73.815877
598.103735	73.367518
598.530766	72.934384
598.957775	72.498207
599.384764	72.062388
599.811733	71.640122
600.238680	71.208677
600.665606	70.779846
601.092512	70.342259
601.519397	69.932015
601.946261	69.521715
602.373104	69.107288
602.799926	68.714211
603.226727	68.322780
603.653507	67.930206
604.080266	67.533936
604.507004	67.165878
604.933721	66.801376
605.360417	66.441662
605.787092	66.084958
606.213746	65.750165
606.640379	65.401909
607.066991	65.064958
607.493581	64.730965
607.920150	64.414763
608.346699	64.108222
608.773226	63.794461
609.199731	63.464622
609.626216	63.154914
610.052679	62.834495
610.479121	62.509597
610.905542	62.179888
611.331941	61.853669
611.758319	61.511445
612.184676	61.177111
612.611011	60.828022
613.037325	60.470171
613.463617	60.106953
613.889888	59.721450
614.316138	59.349629
614.742366	58.949961
615.168573	58.541452
615.594758	58.130559
616.020921	57.712616
616.447063	57.276424
616.873184	56.850186
617.299283	56.416882
617.725360	55.971590
618.151416	55.520551
618.577450	55.061875
619.003462	54.610306
619.429453	54.145741
619.855422	53.699345
620.281369	53.255717
620.707295	52.809437
621.133199	52.354468
621.559081	51.899653
621.984941	51.453588
622.410779	51.023136
622.836596	50.588298
623.262391	50.159488
623.688163	49.739893
624.113914	49.336940
624.539644	48.934389
624.965351	48.546010
625.391036	48.163335
625.816699	47.791946
626.242340	47.428458
626.667960	47.080996
627.093557	46.752798
627.519132	46.420275
627.944685	46.112397
628.370216	45.816029
628.795725	45.543671
629.221212	45.269158
629.646677	45.022916
630.072119	44.791986
630.497540	44.584346
630.922938	44.383869
631.348314	44.207990
631.773668	44.051536
632.198999	43.915979
632.624308	43.798080
633.049595	43.695990
633.474860	43.609419
633.900102	43.548283
634.325322	43.507559
634.750520	43.484988
635.175695	43.485487
635.600848	43.508068
636.025978	43.542351
636.451086	43.609263
636.876171	43.690090
637.301234	43.787130
637.726275	43.900737
638.151293	44.043695
638.576288	44.202115
639.001261	44.382566
639.426211	44.579815
639.851139	44.803355
640.276044	45.045676
640.700927	45.308198
641.125787	45.581280
641.550624	45.878948
641.975438	46.196340
642.400230	46.532691
642.824999	46.887835
643.249745	47.243885
643.674469	47.616484
644.099169	47.993341
644.523847	48.385765
644.948502	48.780518
645.373135	49.176023
645.797744	49.574933
646.222330	49.980890
646.646894	50.392966
647.071435	50.790932
647.495953	51.191441
647.920447	51.583304
648.344919	51.971232
648.769368	52.336706
649.193794	52.706205
649.618197	53.049299
650.042576	53.387935
650.466933	53.713720
650.891267	54.029132
651.315577	54.316690
651.739864	54.591996
652.164129	54.848432
652.588370	55.075304
653.012587	55.287486
653.436782	55.479841
653.860953	55.643685
654.285102	55.790636
654.709226	55.915705
655.133328	56.002815
655.557406	56.067925
655.981461	56.107691
656.405493	56.128309
656.829501	56.117318
657.253486	56.108060
657.677448	56.062568
658.101386	56.006622
658.525301	55.930592
658.949192	55.830498
659.373060	55.714545
659.796904	55.575719
660.220725	55.431303
660.644522	55.258361
661.068296	55.090083
661.492046	54.894863
661.915772	54.717426
662.339475	54.516748
662.763154	54.314786
663.186810	54.112063
663.610442	53.895964
664.034050	53.683065
664.457635	53.466748
664.881196	53.253116
665.304733	53.045680
665.728247	52.850657
666.151736	52.654222
666.575202	52.465461
666.998644	52.301519
667.422062	52.140638
667.845457	51.994797
668.268827	51.861522
668.692174	51.735378
669.115496	51.628507
669.538795	51.540761
669.962070	51.479764
670.385321	51.420167
670.808547	51.384715
671.231750	51.366072
671.654929	51.363764
672.078084	51.404669
672.501214	51.451507
672.924321	51.537112
673.347404	51.640402
673.770462	51.774025
674.193496	51.922294
674.616506	52.098512
675.039492	52.287343
675.462454	52.501282
675.885391	52.734735
676.308305	52.979245
676.731194	53.248744
677.154058	53.519461
677.576899	53.818570
677.999715	54.129143
678.422507	54.434504
678.845274	54.762767
679.268017	55.094468
679.690736	55.440374
680.113430	55.775221
680.536100	56.124315
680.958746	56.478371
681.381367	56.840778
681.803963	57.218869
682.226535	57.593819
682.649083	57.970639
683.071605	58.341426
683.494104	58.720007
683.916578	59.105557
684.339027	59.490215
684.761451	59.876806
685.183851	60.244289
685.606227	60.629131
686.028577	60.993743
686.450903	61.367304
686.873204	61.737258
687.295481	62.094979
687.717733	62.443778
688.139959	62.781975
688.562162	63.113495
688.984339	63.442870
689.406492	63.778118
689.828619	64.089459
690.250722	64.400915
690.672800	64.689028
691.094853	64.969742
691.516881	65.258333
691.938884	65.527804
692.360863	65.784140
692.782816	66.025276
693.204744	66.264412
693.626647	66.477401
694.048526	66.681779
694.470379	66.874665
694.892207	67.045191
695.314010	67.206205
695.735788	67.363186
696.157540	67.509864
696.579268	67.648249
697.000970	67.771891
697.422648	67.897475
697.844300	67.996892
698.265926	68.103496
698.687528	68.189294
699.109104	68.272813
699.530655	68.342963
699.952181	68.418875
700.373681	68.483912
700.795156	68.541655
701.216606	68.601224
701.638030	68.655709
702.059429	68.702289
702.480803	68.733680
702.902151	68.778756
703.323473	68.820512
703.744770	68.853266
704.166042	68.875543
704.587288	68.898637
705.008509	68.920200
705.429704	68.949892
705.850873	68.981359
706.272017	69.012764
706.693135	69.067587
707.114228	69.114225
707.535295	69.173508
707.956336	69.249719
708.377352	69.322967
708.798342	69.411073
709.219306	69.501262
709.640245	69.601719
710.061157	69.720729
710.482044	69.831233
710.902905	69.969963
711.323741	70.114347
711.744550	70.270687
712.165334	70.453893
712.586092	70.638354
713.006823	70.833633
713.427529	71.055823
713.848209	71.291754
714.268863	71.539066
714.689492	71.805507
715.110094	72.088543
715.530670	72.394888
715.951220	72.716749
716.371744	73.052713
716.792242	73.427927
717.212714	73.820455
717.633159	74.228576
718.053579	74.672092
718.473973	75.127524
718.894340	75.607058
719.314681	76.119368
719.734996	76.639320
720.155285	77.187944
720.575547	77.746572
720.995784	78.320810
721.415994	78.927821
721.836177	79.547457
722.256335	80.188963
722.676466	80.831649
723.096570	81.499221
723.516649	82.179058
723.936701	82.881437
724.356726	83.573061
724.776725	84.274604
725.196698	84.964886
725.616644	85.670213
726.036564	86.360116
726.456457	87.050062
726.876324	87.743410
727.296164	88.433139
727.715977	89.125694
728.135764	89.810687
728.555525	90.473615
728.975258	91.120055
729.394966	91.765453
729.814646	92.397308
730.234300	93.022162
730.653927	93.645255
731.073527	94.235186
731.493101	94.820952
731.912648	95.398342
732.332168	95.962390
732.751661	96.512199
733.171128	97.059295
733.590568	97.597255
734.009980	98.125222
734.429366	98.650062
734.848726	99.146111
735.268058	99.642269
735.687363	100.141010
736.106641	100.609924
736.525893	101.069216
736.945117	101.505248
737.364314	101.954921
737.783485	102.392243
738.202628	102.831273
738.621744	103.251501
739.040834	103.667578
739.459896	104.082846
739.878931	104.493121
740.297939	104.867198
740.716919	105.234210
741.135873	105.596720
741.554799	105.961927
741.973698	106.332774
742.392570	106.682133
742.811415	107.024068
743.230232	107.351650
743.649022	107.665990
744.067785	107.990726
744.486521	108.308932
744.905229	108.618237
745.323909	108.912629
745.742563	109.194725
746.161189	109.473189
746.579787	109.749621
746.998358	110.011657
747.416902	110.269789
747.835418	110.530151
748.253907	110.788063
748.672368	111.031865
749.090802	111.268411
749.509208	111.504436
749.927586	111.736800
750.345937	111.964834
750.764261	112.185133
751.182556	112.389219
751.600824	112.586973
752.019065	112.786232
752.437277	112.970814
752.855462	113.150747
753.273620	113.352054
753.691749	113.539824
754.109851	113.705756
754.527925	113.867488
754.945971	114.018652
755.363989	114.177495
755.781980	114.326425
756.199943	114.474123
756.617877	114.598500
757.035784	114.723732
757.453663	114.837418
757.871514	114.936811
758.289337	115.028214
758.707132	115.124222
759.124899	115.196910
759.542639	115.274600
759.960350	115.334966
760.378033	115.376502
760.795688	115.401447
761.213314	115.415783
761.630913	115.427627
762.048484	115.425550
762.466026	115.424517
762.883541	115.402181
763.301027	115.353276
763.718485	115.307345
764.135914	115.266086
764.553316	115.221358
764.970689	115.166459
765.388034	115.105520
765.805351	115.038043
766.222639	114.965302
766.639899	114.862224
767.057131	114.779414
767.474334	114.695240
767.891509	114.601479
768.308655	114.499119
768.725773	114.396609
769.142863	114.306693
769.559924	114.223325
769.976957	114.120542
770.393961	114.011968
770.810936	113.910574
771.227883	113.803812
771.644802	113.706823
772.061692	113.588268
772.478553	113.467728
772.895386	113.364674
773.312190	113.258766
773.728965	113.163970
774.145712	113.060942
774.562430	112.954634
774.979119	112.866227
775.395780	112.751201
775.812411	112.649378
776.229014	112.542712
776.645589	112.440270
777.062134	112.343200
777.478651	112.253117
777.895138	112.149791
778.311597	112.055743
778.728027	111.959193
779.144428	111.870248
779.560800	111.786800
779.977143	111.712348
780.393458	111.617070
780.809743	111.521030
781.225999	111.436812
781.642226	111.359340
782.058425	111.281273
782.474594	111.208411
782.890734	111.143177
783.306845	111.093907
783.722926	111.054275
784.138979	111.019234
784.555003	110.981227
784.970997	110.988321
785.386962	110.972688
785.802898	110.954107
786.218805	110.932147
786.634682	110.914554
787.050531	110.912664
787.466349	110.917375
787.882139	110.908395
788.297899	110.932153
788.713630	110.942587
789.129332	110.965793
789.545004	110.994531
789.960647	111.018236
790.376260	111.042500
790.791844	111.085896
791.207399	111.108778
791.622924	111.147915
792.038419	111.184981
792.453885	111.230137
792.869321	111.258499
793.284728	111.313894
793.700106	111.363984
794.115453	111.433355
794.530771	111.491066
794.946060	111.553094
795.361319	111.596410
795.776548	111.662469
796.191747	111.717241
796.606917	111.762351
797.022057	111.822509
797.437167	111.870722
797.852248	111.903065
798.267298	111.941849
798.682319	112.017959
799.097310	112.085877
799.512271	112.149852
799.927203	112.202625
800.342104	112.247594
800.756976	112.308106
801.171818	112.352995
801.586629	112.420559
802.001411	112.487309
802.416163	112.545800
802.830885	112.604191
803.245577	112.642485
803.660238	112.700369
804.074870	112.772055
804.489472	112.808498
804.904043	112.853922
805.318585	112.905355
805.733096	112.957612
806.147577	113.000083
806.562028	113.045029
806.976449	113.059195
807.390840	113.092352
807.805200	113.114249
808.219530	113.147451
808.633830	113.174764
809.048100	113.204071
809.462339	113.215362
809.876548	113.229147
810.290727	113.259902
810.704875	113.279386
811.118993	113.278267
811.533080	113.266236
811.947137	113.260423
812.361164	113.244176
812.775160	113.216593
813.189126	113.197716
813.603061	113.166208
814.016966	113.135842
814.430840	113.086375
814.844684	113.045219
815.258497	112.983849
815.672280	112.911208
816.086032	112.857962
816.499753	112.776817
816.913444	112.658118
817.327104	112.576893
817.740733	112.468530
818.154331	112.355783
818.567899	112.232518
818.981436	112.095696
819.394943	111.975136
819.808418	111.850469
820.221863	111.690576
820.635277	111.525823
821.048660	111.344286
821.462013	111.136710
821.875334	110.923949
822.288625	110.705878
822.701884	110.476539
823.115113	110.211428
823.528311	109.933854
823.941478	109.683917
824.354614	109.380541
824.767718	109.068904
825.180792	108.735302
825.593835	108.394767
826.006847	108.036831
826.419827	107.646700
826.832777	107.253157
827.245695	106.866645
827.658582	106.426561
828.071438	106.016923
828.484263	105.572828
828.897057	105.110095
829.309819	104.629783
829.722551	104.176585
830.135251	103.678902
830.547919	103.177026
830.960557	102.664878
831.373163	102.158588
831.785738	101.636181
832.198281	101.090364
832.610793	100.531790
833.023274	99.988446
833.435723	99.443363
833.848141	98.920958
834.260528	98.381641
834.672883	97.842800
835.085206	97.326472
835.497498	96.777759
835.909758	96.249065
836.321987	95.723302
836.734185	95.189212
837.146350	94.677783
837.558485	94.158696
837.970587	93.651199
838.382658	93.167946
838.794697	92.675813
839.206705	92.203281
839.618681	91.725323
840.030625	91.239523
840.442538	90.770358
840.854418	90.277743
841.266267	89.809189
841.678084	89.358328
842.089870	88.913451
842.501623	88.462772
842.913345	88.036187
843.325035	87.598148
843.736693	87.180818
844.148319	86.739906
844.559913	86.306504
844.971475	85.895740
845.383005	85.515081
845.794504	85.102918
846.205970	84.707809
846.617404	84.303166
847.028806	83.911134
847.440176	83.530174
847.851514	83.146244
848.262820	82.774197
848.674094	82.399592
849.085336	82.048433
849.496546	81.685351
849.907723	81.340435
850.318868	80.991727
850.729981	80.648715
851.141062	80.306053
851.552110	79.970483
851.963127	79.632384
852.374111	79.289610
852.785062	78.935069
853.195982	78.602952
853.606869	78.273191
854.017723	77.946983
854.428546	77.589409
854.839336	77.249071
855.250093	76.899850
855.660818	76.551445
856.071511	76.210141
856.482171	75.833241
856.892799	75.491516
857.303394	75.155938
857.713956	74.785188
858.124486	74.401024
858.534984	74.037480
858.945449	73.657334
859.355881	73.270263
859.766280	72.885508
860.176647	72.483607
860.586982	72.064565
860.997283	71.673815
861.407552	71.281814
861.817789	70.860818
862.227992	70.449796
862.638163	70.006129
863.048301	69.572919
863.458406	69.126780
863.868478	68.670663
864.278518	68.229902
864.688524	67.789289
865.098498	67.329996
865.508439	66.881673
865.918347	66.426860
866.328222	65.968238
866.738064	65.510317
867.147873	65.071105
867.557649	64.610042
867.967392	64.184662
868.377102	63.733961
868.786779	63.303713
869.196423	62.907766
869.606034	62.472886
870.015612	62.056136
870.425156	61.651046
870.834668	61.253123
871.244146	60.877355
871.653591	60.503845
872.063003	60.144909
872.472382	59.792925
872.881728	59.467596
873.291040	59.136790
873.700319	58.799447
874.109564	58.500568
874.518777	58.201372
874.927956	57.924473
875.337102	57.683455
875.746214	57.428834
876.155293	57.209096
876.564338	56.998852
876.973350	56.782823
877.382329	56.587885
877.791274	56.438925
878.200186	56.292756
878.609064	56.172489
879.017909	56.057372
879.426720	55.947310
879.835497	55.876368
880.244241	55.817990
880.652952	55.758189
881.061629	55.733389
881.470272	55.702035
881.878881	55.669452
882.287457	55.665115
882.695999	55.637536
883.104507	55.661110
883.512982	55.676705
883.921423	55.695834
884.329830	55.718004
884.738203	55.746134
885.146543	55.792692
885.554849	55.820343
885.963120	55.851071
886.371358	55.899091
886.779563	55.938335
887.187733	55.975338
887.595869	56.027884
888.003971	56.046461
888.412040	56.091481
888.820074	56.135093
889.228074	56.187820
889.636041	56.206112
890.043973	56.240944
890.451871	56.263890
890.859736	56.301807
891.267566	56.315542
891.675362	56.335324
892.083124	56.347242
892.490851	56.344169
892.898545	56.327088
893.306204	56.308632
893.713829	56.280587
894.121420	56.275327
894.528977	56.260623
894.936499	56.229497
895.343987	56.221415
895.751441	56.163970
896.158860	56.117787
896.566246	56.089943
896.973596	56.039389
897.380913	55.999788
897.788195	55.936258
898.195442	55.912937
898.602655	55.900346
899.009834	55.878818
899.416978	55.825275
899.824088	55.807866
900.231163	55.765745
900.638204	55.771005
901.045210	55.760582
901.452181	55.743318
901.859118	55.698308
902.266021	55.711986
902.672888	55.700832
903.079721	55.702858
903.486520	55.673285
903.893283	55.654293
904.300012	55.663408
904.706707	55.654669
905.113366	55.655684
905.519991	55.671499
905.926581	55.675961
906.333136	55.671136
906.739656	55.641228
907.146142	55.613877
907.552592	55.612087
907.959008	55.591409
908.365389	55.583390
908.771735	55.575112
909.178046	55.531030
909.584322	55.501229
909.990563	55.468437
910.396769	55.427572
910.802940	55.346296
911.209076	55.281484
911.615177	55.198640
912.021243	55.133624
912.427274	55.027504
912.833270	54.914817
913.239231	54.761122
913.645156	54.624719
914.051046	54.479881
914.456902	54.328824
914.862721	54.177219
915.268506	54.002829
915.674256	53.803516
916.079970	53.616410
916.485649	53.443855
916.891292	53.239357
917.296901	53.056040
917.702474	52.830772
918.108011	52.633082
918.513514	52.392123
918.918980	52.177162
919.324412	51.963818
919.729808	51.740251
920.135169	51.491146
920.540494	51.278583
920.945783	51.072144
921.351037	50.832482
921.756256	50.599406
922.161439	50.397768
922.566586	50.187746
922.971698	49.996999
923.376775	49.808063
923.781815	49.608680
924.186820	49.434006
924.591790	49.249061
924.996723	49.112778
925.401621	48.957764
925.806484	48.856015
926.211310	48.754353
926.616101	48.662709
927.020856	48.567178
927.425575	48.467623
927.830259	48.388772
928.234906	48.347594
928.639518	48.313374
929.044094	48.272335
929.448634	48.255138
929.853138	48.220262
930.257606	48.220617
930.662038	48.204328
931.066434	48.235960
931.470795	48.269098
931.875119	48.302570
932.279407	48.399349
932.683659	48.496347
933.087875	48.552795
933.492055	48.640882
933.896199	48.752729
934.300307	48.857129
934.704379	48.932299
935.108414	49.003792
935.512414	49.087240
935.916377	49.163303
936.320304	49.221878
936.724195	49.284534
937.128049	49.356464
937.531867	49.408585
937.935649	49.493010
938.339395	49.543214
938.743104	49.565725
939.146777	49.597223
939.550414	49.607663
939.954014	49.649290
940.357578	49.650897
940.761105	49.656555
941.164596	49.645518
941.568050	49.593922
941.971468	49.532756
942.374850	49.473250
942.778195	49.390197
943.181503	49.328371
943.584775	49.297572
943.988010	49.205935
944.391209	49.115181
944.794371	48.995270
945.197496	48.903319
945.600585	48.805131
946.003637	48.663322
946.406653	48.535354
946.809632	48.399382
947.212574	48.281007
947.615479	48.161262
948.018347	48.039029
948.421179	47.939691
948.823974	47.884918
949.226732	47.788923
949.629453	47.692104
950.032138	47.630585
950.434785	47.500084
950.837396	47.363556
951.239969	47.268424
951.642506	47.143366
952.045006	47.067503
952.447469	46.937669
952.849895	46.863547
953.252283	46.745294
953.654635	46.681716
954.056950	46.612562
954.459227	46.539511
954.861468	46.476498
955.263671	46.432175
955.665838	46.364037
956.067967	46.278306
956.470059	46.217848
956.872114	46.153365
957.274131	46.041621
957.676112	45.938456
958.078055	45.855061
958.479961	45.789204
958.881829	45.708972
959.283661	45.653472
959.685455	45.564039
960.087211	45.517622
960.488931	45.399704
960.890613	45.311079
961.292257	45.172147
961.693864	45.077082
962.095434	44.981422
962.496966	44.788201
962.898461	44.681772
963.299918	44.582404
963.701338	44.490750
964.102720	44.397985
964.504065	44.334233
964.905372	44.239464
965.306641	44.095808
965.707873	43.986807
966.109068	43.890434
966.510224	43.765321
966.911343	43.672961
967.312425	43.571723
967.713468	43.455570
968.114474	43.344531
968.515442	43.221423
968.916373	43.145822
969.317265	43.066479
969.718120	42.997971
970.118937	42.877412
970.519716	42.809935
970.920458	42.758291
971.321161	42.675347
971.721827	42.592668
972.122454	42.532153
972.523044	42.435437
972.923596	42.382890
973.324110	42.304831
973.724585	42.169575
974.125023	42.138674
974.525423	42.060783
974.925785	42.056774
975.326108	42.004632
975.726394	41.971746
976.126642	41.880011
976.526851	41.843989
976.927022	41.765706
977.327155	41.747741
977.727250	41.754574
978.127307	41.752608
978.527325	41.749749
978.927306	41.728265
979.327248	41.763827
979.727151	41.785877
980.127017	41.778918
980.526844	41.768597
980.926633	41.774531
981.326383	41.777067
981.726095	41.805207
982.125769	41.812058
982.525404	41.833634
982.925001	41.859294
983.324560	41.863524
983.724079	41.876166
984.123561	41.919664
984.523004	41.950987
984.922408	41.942521
985.321774	42.056427
985.721102	42.101662
986.120390	42.246055
986.519641	42.122098
986.918852	42.127019
987.318025	42.216661
987.717159	42.266134
988.116255	42.297239
988.515312	42.411619
988.914330	42.460143
989.313310	42.563486
989.712250	42.573231
990.111152	42.709186
990.510015	42.809759
990.908840	42.732623
991.307625	42.969774
991.706372	42.914492
992.105080	42.994501
992.503749	43.105412
992.902379	43.151629
993.300970	43.225434
993.699522	43.263669
994.098035	43.278447
994.496510	43.325676
994.894945	43.398275
995.293341	43.396455
995.691698	43.539215
996.090016	43.634364
996.488296	43.729041
996.886535	43.848741
997.284736	43.922539
997.682898	44.004462
998.081021	44.056227
998.479104	44.157741
998.877148	44.386026
999.275153	44.683560
999.673119	44.699043
1000.071046	44.982524
1000.468933	45.110358
1000.866781	45.297279
1001.264590	45.410531
1001.662359	45.285786
1002.060089	45.316159
1002.457780	45.360223
1002.855431	45.331865
1003.253043	45.350639
1003.650615	45.503781
1004.048148	45.671854
1004.445642	45.748678
1004.843096	45.757705
1005.240511	46.015499
1005.637886	45.999400
1006.035221	46.282521
1006.432517	46.458811
1006.829774	46.743155
1007.226991	46.892726
1007.624168	47.166260
1008.021306	47.245095
1008.418404	47.568396
1008.815462	47.767629
1009.212481	47.857689
1009.609460	48.183603
1010.006399	48.274817
1010.403298	48.654137
1010.800158	48.948016
1011.196978	49.187820
1011.593758	49.522727
1011.990498	49.780484
1012.387199	49.990916
1012.783860	50.290462
1013.180480	50.451205
1013.577061	50.939360
1013.973602	51.801740
1014.370103	52.707530
1014.766564	52.949575
1015.162985	53.308503
1015.559366	53.885404
1015.955708	53.669116
1016.352009	53.940077
1016.748270	54.417031
1017.144491	54.973989
1017.540671	55.069202
1017.936812	55.942377
1018.332913	55.801458
1018.728973	56.329722
1019.124994	56.498752
1019.520974	57.594534
1019.916914	58.032336
1020.312814	58.281632
