Time1=100ms:Average1=5:Objective=10X:Aperture=1: (11/21/2018 2:36:04 PM)
11/21/2018 2:36:04 PM
Reflectance
10X
Ap#: 1
Avg1: 5.000000
Avg2: 0.000000
Int.Time1:100.000000

350.166136	88.423989
350.601937	88.781990
351.037728	88.520733
351.473509	88.911765
351.909281	88.670725
352.345042	88.545473
352.780794	88.530254
353.216536	88.406371
353.652267	88.433353
354.087989	88.595189
354.523701	88.334650
354.959403	88.174909
355.395095	88.324923
355.830777	88.024545
356.266449	87.443193
356.702110	87.054538
357.137762	87.123664
357.573404	86.919459
358.009035	86.827168
358.444656	86.783018
358.880268	87.281601
359.315869	87.595233
359.751459	87.133359
360.187040	87.379209
360.622610	87.615309
361.058170	87.342520
361.493720	87.127932
361.929260	87.330450
362.364789	87.524694
362.800308	87.362692
363.235816	87.172155
363.671314	87.309395
364.106802	87.438521
364.542279	87.671233
364.977746	87.639121
365.413203	87.662145
365.848649	86.956092
366.284084	86.665346
366.719509	86.652187
367.154924	86.639676
367.590328	86.486753
368.025721	86.477430
368.461104	86.593559
368.896477	86.353290
369.331838	86.004337
369.767189	86.594883
370.202530	86.718208
370.637859	87.051793
371.073178	87.366743
371.508486	87.565953
371.943784	87.226857
372.379071	86.799762
372.814347	86.805899
373.249612	87.331750
373.684866	87.164238
374.120110	87.604938
374.555343	87.894685
374.990565	88.000396
375.425776	87.548291
375.860976	87.758127
376.296165	88.169709
376.731343	88.199249
377.166511	88.515323
377.601667	88.417940
378.036812	88.534279
378.471946	88.716989
378.907070	88.642822
379.342182	88.916039
379.777283	89.614970
380.212373	89.693047
380.647452	89.634565
381.082520	89.502546
381.517576	89.206101
381.952622	88.574190
382.387656	88.873969
382.822679	89.327457
383.257691	89.005535
383.692692	88.921699
384.127681	88.705234
384.562659	88.181215
384.997626	87.992442
385.432581	88.309353
385.867525	88.365019
386.302458	88.200702
386.737379	88.145752
387.172289	87.979491
387.607188	87.528452
388.042075	87.373690
388.476951	87.133289
388.911815	87.048533
389.346668	86.739762
389.781509	86.651032
390.216338	86.976875
390.651157	86.942288
391.085963	86.980142
391.520758	87.039640
391.955541	86.744294
392.390313	86.741929
392.825073	86.559240
393.259821	86.095909
393.694558	85.763246
394.129283	85.929695
394.563996	85.896724
394.998698	86.227989
395.433388	86.565213
395.868066	86.307015
396.302732	85.960982
396.737386	85.871184
397.172029	85.330732
397.606659	85.121906
398.041278	84.909993
398.475885	84.663137
398.910480	83.932518
399.345063	83.074389
399.779634	82.148353
400.214194	81.015548
400.648741	79.689799
401.083276	78.352845
401.517799	76.695305
401.952310	75.033900
402.386809	73.121463
402.821296	71.011568
403.255771	68.636505
403.690234	66.078386
404.124684	63.617173
404.559123	61.013725
404.993549	58.408561
405.427963	55.895253
405.862365	53.320401
406.296754	50.994942
406.731131	48.782863
407.165496	46.850341
407.599849	44.778393
408.034190	43.174070
408.468518	41.641835
408.902833	40.276448
409.337137	38.943207
409.771428	37.690954
410.205706	36.423992
410.639973	35.568689
411.074226	34.696261
411.508467	33.978604
411.942696	33.348411
412.376912	32.761270
412.811116	32.297306
413.245307	31.868562
413.679486	31.461460
414.113652	31.113363
414.547805	30.791204
414.981946	30.550528
415.416074	30.299400
415.850190	30.156234
416.284293	30.046273
416.718383	29.949926
417.152460	29.872630
417.586525	29.823089
418.020577	29.817313
418.454616	29.747514
418.888643	29.745237
419.322656	29.813934
419.756657	29.869128
420.190645	29.941514
420.624620	30.043590
421.058582	30.170832
421.492531	30.264999
421.926468	30.396498
422.360391	30.493593
422.794301	30.644271
423.228199	30.795852
423.662083	31.018833
424.095955	31.185390
424.529813	31.369524
424.963658	31.563015
425.397491	31.723419
425.831310	31.892814
426.265116	32.048329
426.698909	32.190382
427.132689	32.352474
427.566455	32.477221
428.000209	32.656148
428.433949	32.809200
428.867676	32.986034
429.301389	33.118431
429.735090	33.263943
430.168777	33.378499
430.602451	33.491738
431.036111	33.627845
431.469759	33.769820
431.903392	33.939509
432.337013	34.078783
432.770620	34.203581
433.204213	34.351825
433.637794	34.489506
434.071360	34.583000
434.504914	34.706050
434.938453	34.815877
435.371979	34.936253
435.805492	35.059280
436.238991	35.172147
436.672477	35.260491
437.105949	35.323990
437.539407	35.388373
437.972852	35.443334
438.406283	35.497860
438.839700	35.540321
439.273104	35.587263
439.706494	35.631623
440.139871	35.680259
440.573233	35.715640
441.006582	35.768507
441.439917	35.786020
441.873238	35.789179
442.306546	35.781705
442.739839	35.797998
443.173119	35.788596
443.606385	35.807338
444.039636	35.815633
444.472874	35.804260
444.906099	35.776505
445.339309	35.743996
445.772505	35.732711
446.205687	35.731305
446.638855	35.680933
447.072009	35.638946
447.505149	35.605496
447.938275	35.531439
448.371387	35.467306
448.804485	35.369048
449.237569	35.275332
449.670638	35.171570
450.103694	35.052486
450.536735	34.939739
450.969762	34.814149
451.402774	34.677094
451.835773	34.509677
452.268757	34.359285
452.701727	34.198446
453.134683	34.031733
453.567624	33.855450
454.000551	33.684023
454.433464	33.504844
454.866362	33.336267
455.299246	33.157744
455.732116	32.980150
456.164971	32.785848
456.597811	32.596982
457.030638	32.378364
457.463449	32.164362
457.896246	31.932005
458.329029	31.694951
458.761797	31.469195
459.194551	31.221244
459.627290	30.974609
460.060014	30.769434
460.492724	30.539913
460.925419	30.306671
461.358099	30.103078
461.790765	29.868134
462.223416	29.611874
462.656052	29.350685
463.088674	29.080173
463.521281	28.825701
463.953873	28.578596
464.386450	28.311865
464.819012	28.076687
465.251560	27.860043
465.684093	27.660370
466.116611	27.459341
466.549114	27.283695
466.981602	27.097418
467.414075	26.889899
467.846533	26.688161
468.278977	26.479467
468.711405	26.286845
469.143818	26.101937
469.576216	25.924777
470.008600	25.759222
470.440968	25.599650
470.873321	25.444640
471.305659	25.303870
471.737982	25.181208
472.170289	25.049713
472.602582	24.928419
473.034859	24.799749
473.467122	24.678243
473.899369	24.573369
474.331600	24.493141
474.763817	24.409942
475.196018	24.352133
475.628204	24.334619
476.060375	24.325971
476.492530	24.332340
476.924670	24.344197
477.356795	24.347595
477.788904	24.378033
478.220998	24.391191
478.653076	24.424361
479.085139	24.440140
479.517186	24.479655
479.949219	24.510324
480.381235	24.569102
480.813236	24.652777
481.245221	24.745913
481.677191	24.828636
482.109146	24.923312
482.541084	25.014909
482.973008	25.101160
483.404915	25.174399
483.836807	25.269597
484.268683	25.367187
484.700544	25.471629
485.132388	25.576280
485.564217	25.702650
485.996031	25.841710
486.427828	25.985677
486.859610	26.116693
487.291376	26.251450
487.723126	26.385486
488.154860	26.512496
488.586579	26.636253
489.018281	26.749293
489.449968	26.855510
489.881639	26.964267
490.313293	27.078827
490.744932	27.201997
491.176555	27.322465
491.608162	27.464047
492.039753	27.602544
492.471328	27.737224
492.902886	27.865586
493.334429	27.988913
493.765956	28.101128
494.197466	28.193293
494.628960	28.262085
495.060439	28.352502
495.491901	28.437721
495.923347	28.528073
496.354776	28.639494
496.786190	28.774098
497.217587	28.907994
497.648968	29.061868
498.080332	29.222882
498.511681	29.386916
498.943013	29.542887
499.374328	29.692569
499.805628	29.836502
500.236911	29.974389
500.668177	30.102540
501.099427	30.223281
501.530661	30.366641
501.961878	30.526431
502.393079	30.699241
502.824264	30.906109
503.255431	31.131211
503.686583	31.369542
504.117717	31.628821
504.548835	31.900857
504.979937	32.158432
505.411022	32.415008
505.842090	32.682066
506.273142	32.953683
506.704177	33.235953
507.135195	33.525531
507.566197	33.845372
507.997182	34.189758
508.428150	34.562871
508.859102	34.965875
509.290036	35.394550
509.720954	35.841299
510.151855	36.315296
510.582739	36.807573
511.013607	37.315956
511.444457	37.828697
511.875291	38.361185
512.306107	38.913732
512.736907	39.487692
513.167690	40.091382
513.598456	40.720022
514.029205	41.382931
514.459936	42.082955
514.890651	42.795633
515.321349	43.528950
515.752030	44.301177
516.182693	45.070847
516.613340	45.860395
517.043969	46.683032
517.474582	47.515985
517.905177	48.372978
518.335755	49.256772
518.766315	50.140271
519.196859	51.036679
519.627385	51.928264
520.057894	52.811492
520.488386	53.688641
520.918860	54.535187
521.349318	55.411139
521.779757	56.251100
522.210180	57.061187
522.640585	57.877753
523.070973	58.675891
523.501343	59.453755
523.931696	60.235046
524.362031	61.002725
524.792349	61.789882
525.222650	62.574310
525.652933	63.360290
526.083198	64.137901
526.513446	64.907408
526.943677	65.659030
527.373890	66.391145
527.804085	67.122981
528.234262	67.809885
528.664422	68.477030
529.094565	69.114620
529.524689	69.755072
529.954796	70.378787
530.384885	70.977798
530.814957	71.555072
531.245011	72.109091
531.675047	72.670572
532.105065	73.257701
532.535065	73.842292
532.965048	74.435591
533.395013	75.049778
533.824959	75.650169
534.254888	76.266448
534.684799	76.872033
535.114693	77.486977
535.544568	78.110807
535.974425	78.711569
536.404264	79.288955
536.834086	79.839659
537.263889	80.366499
537.693674	80.882363
538.123441	81.366477
538.553190	81.829575
538.982921	82.274992
539.412634	82.701947
539.842329	83.125351
540.272006	83.550639
540.701664	83.975051
541.131304	84.362959
541.560926	84.774264
541.990530	85.188615
542.420116	85.584886
542.849683	85.951867
543.279232	86.288040
543.708763	86.621515
544.138275	86.930569
544.567769	87.234697
544.997245	87.482057
545.426702	87.704762
545.856141	87.893582
546.285562	88.079050
546.714964	88.236398
547.144347	88.405072
547.573713	88.567027
548.003059	88.732117
548.432387	88.904909
548.861697	89.082730
549.290988	89.262942
549.720260	89.457907
550.149514	89.679516
550.578750	89.893068
551.007966	90.102823
551.437164	90.325438
551.866344	90.557132
552.295504	90.795177
552.724646	91.025937
553.153769	91.252158
553.582874	91.474847
554.011960	91.690966
554.441027	91.904191
554.870075	92.107506
555.299104	92.291504
555.728115	92.473102
556.157106	92.668542
556.586079	92.865319
557.015033	93.020507
557.443968	93.187318
557.872884	93.349601
558.301781	93.535437
558.730659	93.693362
559.159518	93.884531
559.588358	94.075746
560.017180	94.254683
560.445982	94.422404
560.874765	94.591907
561.303528	94.742226
561.732273	94.896346
562.160999	95.039776
562.589705	95.178081
563.018393	95.309771
563.447061	95.403623
563.875710	95.503248
564.304340	95.592767
564.732950	95.652580
565.161542	95.712121
565.590114	95.765169
566.018666	95.808158
566.447200	95.837635
566.875714	95.863697
567.304208	95.883931
567.732684	95.897965
568.161140	95.923974
568.589576	95.944509
569.017993	95.957534
569.446391	95.957543
569.874769	95.959060
570.303128	95.969513
570.731467	95.973529
571.159787	95.953350
571.588087	95.918163
572.016368	95.905103
572.444629	95.847758
572.872870	95.754093
573.301092	95.666945
573.729294	95.564200
574.157476	95.443995
574.585639	95.313534
575.013782	95.150513
575.441906	94.987500
575.870009	94.814731
576.298093	94.636858
576.726157	94.464645
577.154202	94.285496
577.582226	94.119428
578.010231	93.972623
578.438216	93.806674
578.866181	93.643774
579.294126	93.496248
579.722051	93.364825
580.149957	93.225200
580.577842	93.100604
581.005707	92.962042
581.433553	92.823472
581.861378	92.683816
582.289184	92.556879
582.716969	92.412972
583.144734	92.265557
583.572479	92.142572
584.000205	91.984457
584.427910	91.839208
584.855594	91.703027
585.283259	91.523043
585.710904	91.360554
586.138528	91.206551
586.566132	91.031779
586.993716	90.853476
587.421280	90.664356
587.848823	90.478359
588.276346	90.281876
588.703849	90.061442
589.131332	89.802691
589.558794	89.534825
589.986236	89.246833
590.413657	88.948198
590.841058	88.599938
591.268438	88.221876
591.695799	87.820104
592.123138	87.399947
592.550458	86.956859
592.977756	86.474018
593.405034	85.994263
593.832292	85.460661
594.259529	84.930360
594.686746	84.366876
595.113942	83.795378
595.541117	83.190855
595.968272	82.590494
596.395406	81.969873
596.822519	81.324341
597.249612	80.697211
597.676684	80.041477
598.103735	79.376628
598.530766	78.723896
598.957775	78.062794
599.384764	77.394740
599.811733	76.741107
600.238680	76.076664
600.665606	75.417414
601.092512	74.761687
601.519397	74.107505
601.946261	73.454856
602.373104	72.822718
602.799926	72.202579
603.226727	71.580177
603.653507	70.954458
604.080266	70.347458
604.507004	69.763221
604.933721	69.194009
605.360417	68.634642
605.787092	68.081231
606.213746	67.559484
606.640379	67.032576
607.066991	66.536216
607.493581	66.052492
607.920150	65.598655
608.346699	65.156804
608.773226	64.740634
609.199731	64.331065
609.626216	63.937168
610.052679	63.543621
610.479121	63.155621
610.905542	62.780030
611.331941	62.400327
611.758319	62.030295
612.184676	61.662914
612.611011	61.301971
613.037325	60.932079
613.463617	60.572335
613.889888	60.207584
614.316138	59.837491
614.742366	59.470703
615.168573	59.110649
615.594758	58.732687
616.020921	58.367309
616.447063	57.999096
616.873184	57.640676
617.299283	57.287688
617.725360	56.923986
618.151416	56.572506
618.577450	56.200834
619.003462	55.844488
619.429453	55.483591
619.855422	55.124205
620.281369	54.774823
620.707295	54.416161
621.133199	54.048168
621.559081	53.673825
621.984941	53.292624
622.410779	52.907448
622.836596	52.511071
623.262391	52.106914
623.688163	51.694695
624.113914	51.285229
624.539644	50.866334
624.965351	50.438714
625.391036	49.999066
625.816699	49.556697
626.242340	49.104131
626.667960	48.654318
627.093557	48.206348
627.519132	47.753672
627.944685	47.299592
628.370216	46.849877
628.795725	46.426740
629.221212	45.978246
629.646677	45.556652
630.072119	45.143717
630.497540	44.732384
630.922938	44.336937
631.348314	43.941361
631.773668	43.569422
632.198999	43.208738
632.624308	42.851740
633.049595	42.511093
633.474860	42.181693
633.900102	41.865453
634.325322	41.572435
634.750520	41.291326
635.175695	41.035734
635.600848	40.794624
636.025978	40.578428
636.451086	40.396064
636.876171	40.235100
637.301234	40.092258
637.726275	39.972940
638.151293	39.884638
638.576288	39.828978
639.001261	39.798581
639.426211	39.797900
639.851139	39.831089
640.276044	39.890677
640.700927	39.978844
641.125787	40.101745
641.550624	40.245707
641.975438	40.417782
642.400230	40.621348
642.824999	40.845384
643.249745	41.088720
643.674469	41.362242
644.099169	41.652576
644.523847	41.983239
644.948502	42.328726
645.373135	42.686828
645.797744	43.075441
646.222330	43.490747
646.646894	43.920398
647.071435	44.376382
647.495953	44.853020
647.920447	45.352012
648.344919	45.859788
648.769368	46.376078
649.193794	46.906001
649.618197	47.423349
650.042576	47.956380
650.466933	48.493372
650.891267	49.042526
651.315577	49.576088
651.739864	50.101341
652.164129	50.613266
652.588370	51.112099
653.012587	51.588006
653.436782	52.048729
653.860953	52.494359
654.285102	52.917629
654.709226	53.324463
655.133328	53.700506
655.557406	54.061857
655.981461	54.402777
656.405493	54.720993
656.829501	55.013163
657.253486	55.293103
657.677448	55.521094
658.101386	55.745642
658.525301	55.948192
658.949192	56.118438
659.373060	56.259070
659.796904	56.381020
660.220725	56.468872
660.644522	56.518281
661.068296	56.548059
661.492046	56.554341
661.915772	56.543440
662.339475	56.505090
662.763154	56.459703
663.186810	56.382135
663.610442	56.279347
664.034050	56.159950
664.457635	56.023177
664.881196	55.871306
665.304733	55.707423
665.728247	55.532188
666.151736	55.352493
666.575202	55.155271
666.998644	54.954176
667.422062	54.749431
667.845457	54.526160
668.268827	54.304138
668.692174	54.077837
669.115496	53.845238
669.538795	53.602918
669.962070	53.363225
670.385321	53.112399
670.808547	52.865902
671.231750	52.597852
671.654929	52.325178
672.078084	52.060080
672.501214	51.777167
672.924321	51.497018
673.347404	51.227163
673.770462	50.954332
674.193496	50.688538
674.616506	50.431824
675.039492	50.185315
675.462454	49.960811
675.885391	49.746244
676.308305	49.558011
676.731194	49.399721
677.154058	49.254435
677.576899	49.147466
677.999715	49.068694
678.422507	49.011964
678.845274	48.990115
679.268017	49.001027
679.690736	49.043584
680.113430	49.111072
680.536100	49.201930
680.958746	49.334500
681.381367	49.490499
681.803963	49.667225
682.226535	49.862131
682.649083	50.079546
683.071605	50.321659
683.494104	50.583787
683.916578	50.864872
684.339027	51.178350
684.761451	51.511852
685.183851	51.862041
685.606227	52.243152
686.028577	52.636814
686.450903	53.054572
686.873204	53.491957
687.295481	53.941983
687.717733	54.403630
688.139959	54.878372
688.562162	55.369741
688.984339	55.874913
689.406492	56.374077
689.828619	56.869693
690.250722	57.368569
690.672800	57.853318
691.094853	58.330407
691.516881	58.804471
691.938884	59.265659
692.360863	59.701817
692.782816	60.121952
693.204744	60.523798
693.626647	60.908664
694.048526	61.279642
694.470379	61.621518
694.892207	61.945553
695.314010	62.252737
695.735788	62.554723
696.157540	62.829681
696.579268	63.096347
697.000970	63.351299
697.422648	63.590057
697.844300	63.823564
698.265926	64.039605
698.687528	64.256505
699.109104	64.455327
699.530655	64.644761
699.952181	64.837057
700.373681	65.015317
700.795156	65.189334
701.216606	65.359878
701.638030	65.508147
702.059429	65.635626
702.480803	65.771537
702.902151	65.899981
703.323473	66.012066
703.744770	66.103192
704.166042	66.185171
704.587288	66.261187
705.008509	66.318190
705.429704	66.376829
705.850873	66.425147
706.272017	66.458242
706.693135	66.491567
707.114228	66.503040
707.535295	66.512499
707.956336	66.518634
708.377352	66.519154
708.798342	66.509927
709.219306	66.490569
709.640245	66.472646
710.061157	66.455717
710.482044	66.438476
710.902905	66.411912
711.323741	66.394864
711.744550	66.366033
712.165334	66.366696
712.586092	66.368048
713.006823	66.378263
713.427529	66.405712
713.848209	66.445285
714.268863	66.502149
714.689492	66.575792
715.110094	66.681704
715.530670	66.804253
715.951220	66.947071
716.371744	67.124144
716.792242	67.334681
717.212714	67.575614
717.633159	67.848415
718.053579	68.159748
718.473973	68.487762
718.894340	68.863647
719.314681	69.279962
719.734996	69.729673
720.155285	70.214579
720.575547	70.747359
720.995784	71.321173
721.415994	71.944799
721.836177	72.601314
722.256335	73.309263
722.676466	74.043953
723.096570	74.816098
723.516649	75.629251
723.936701	76.481656
724.356726	77.350130
724.776725	78.251839
725.196698	79.165032
725.616644	80.086890
726.036564	81.009587
726.456457	81.940725
726.876324	82.874156
727.296164	83.797256
727.715977	84.718069
728.135764	85.619207
728.555525	86.515324
728.975258	87.396418
729.394966	88.258834
729.814646	89.116094
730.234300	89.951457
730.653927	90.776670
731.073527	91.566613
731.493101	92.360472
731.912648	93.127470
732.332168	93.872227
732.751661	94.599628
733.171128	95.312646
733.590568	96.006366
734.009980	96.667642
734.429366	97.310987
734.848726	97.938254
735.268058	98.551227
735.687363	99.142482
736.106641	99.718221
736.525893	100.253393
736.945117	100.763943
737.364314	101.265263
737.783485	101.749890
738.202628	102.189349
738.621744	102.618968
739.040834	103.035345
739.459896	103.435367
739.878931	103.815311
740.297939	104.174741
740.716919	104.520568
741.135873	104.864234
741.554799	105.182261
741.973698	105.496085
742.392570	105.790185
742.811415	106.068575
743.230232	106.323245
743.649022	106.575286
744.067785	106.824392
744.486521	107.045665
744.905229	107.265632
745.323909	107.472965
745.742563	107.662743
746.161189	107.851251
746.579787	108.031839
746.998358	108.217347
747.416902	108.378067
747.835418	108.540381
748.253907	108.692637
748.672368	108.841784
749.090802	108.971661
749.509208	109.116604
749.927586	109.248533
750.345937	109.380647
750.764261	109.490204
751.182556	109.627557
751.600824	109.744699
752.019065	109.865429
752.437277	109.987488
752.855462	110.105593
753.273620	110.214037
753.691749	110.324696
754.109851	110.412812
754.527925	110.497777
754.945971	110.576162
755.363989	110.644672
755.781980	110.714264
756.199943	110.786608
756.617877	110.824255
757.035784	110.878792
757.453663	110.920411
757.871514	110.942268
758.289337	110.968793
758.707132	110.977327
759.124899	110.974308
759.542639	110.961999
759.960350	110.921487
760.378033	110.883902
760.795688	110.814361
761.213314	110.734906
761.630913	110.649839
762.048484	110.562691
762.466026	110.453567
762.883541	110.335587
763.301027	110.199432
763.718485	110.066285
764.135914	109.902676
764.553316	109.755075
764.970689	109.605394
765.388034	109.431414
765.805351	109.253093
766.222639	109.084384
766.639899	108.899358
767.057131	108.730488
767.474334	108.566737
767.891509	108.404786
768.308655	108.253616
768.725773	108.109459
769.142863	107.987291
769.559924	107.875435
769.976957	107.752247
770.393961	107.652759
770.810936	107.570608
771.227883	107.482632
771.644802	107.432107
772.061692	107.380825
772.478553	107.344051
772.895386	107.347555
773.312190	107.345315
773.728965	107.378941
774.145712	107.420306
774.562430	107.467848
774.979119	107.530569
775.395780	107.613630
775.812411	107.716386
776.229014	107.838178
776.645589	107.963754
777.062134	108.135702
777.478651	108.318354
777.895138	108.499290
778.311597	108.714298
778.728027	108.942508
779.144428	109.201072
779.560800	109.469837
779.977143	109.757719
780.393458	110.055722
780.809743	110.361175
781.225999	110.700055
781.642226	111.031384
782.058425	111.376717
782.474594	111.718211
782.890734	112.078201
783.306845	112.438239
783.722926	112.802035
784.138979	113.185804
784.555003	113.557780
784.970997	113.942697
785.386962	114.308964
785.802898	114.667830
786.218805	115.031474
786.634682	115.382483
787.050531	115.735491
787.466349	116.078907
787.882139	116.402511
788.297899	116.705397
788.713630	116.993688
789.129332	117.269743
789.545004	117.555567
789.960647	117.802755
790.376260	118.031113
790.791844	118.232707
791.207399	118.415065
791.622924	118.586669
792.038419	118.733422
792.453885	118.869302
792.869321	118.983793
793.284728	119.076246
793.700106	119.157678
794.115453	119.227172
794.530771	119.283401
794.946060	119.312504
795.361319	119.347646
795.776548	119.363147
796.191747	119.366280
796.606917	119.332028
797.022057	119.304805
797.437167	119.239654
797.852248	119.178963
798.267298	119.109183
798.682319	119.022474
799.097310	118.938154
799.512271	118.827439
799.927203	118.701199
800.342104	118.574200
800.756976	118.445025
801.171818	118.304692
801.586629	118.173835
802.001411	118.027179
802.416163	117.863224
802.830885	117.719402
803.245577	117.549345
803.660238	117.393249
804.074870	117.223208
804.489472	117.041444
804.904043	116.884550
805.318585	116.720219
805.733096	116.564642
806.147577	116.412731
806.562028	116.242536
806.976449	116.064231
807.390840	115.891140
807.805200	115.727356
808.219530	115.553066
808.633830	115.402211
809.048100	115.221565
809.462339	115.067505
809.876548	114.927558
810.290727	114.800523
810.704875	114.653464
811.118993	114.504891
811.533080	114.363342
811.947137	114.208288
812.361164	114.074651
812.775160	113.950930
813.189126	113.815623
813.603061	113.699590
814.016966	113.586849
814.430840	113.449114
814.844684	113.335860
815.258497	113.226332
815.672280	113.119710
816.086032	113.025991
816.499753	112.954926
816.913444	112.871017
817.327104	112.822442
817.740733	112.744963
818.154331	112.683134
818.567899	112.628428
818.981436	112.559112
819.394943	112.529674
819.808418	112.489441
820.221863	112.452860
820.635277	112.423070
821.048660	112.382842
821.462013	112.312188
821.875334	112.285798
822.288625	112.243306
822.701884	112.191191
823.115113	112.142370
823.528311	112.084879
823.941478	112.037177
824.354614	111.960492
824.767718	111.921092
825.180792	111.847048
825.593835	111.750620
826.006847	111.670351
826.419827	111.560568
826.832777	111.480188
827.245695	111.416135
827.658582	111.305980
828.071438	111.215380
828.484263	111.084980
828.897057	110.958630
829.309819	110.822780
829.722551	110.686053
830.135251	110.521857
830.547919	110.362083
830.960557	110.173178
831.373163	110.007104
831.785738	109.835531
832.198281	109.612127
832.610793	109.397038
833.023274	109.181316
833.435723	108.928937
833.848141	108.715228
834.260528	108.494854
834.672883	108.266953
835.085206	108.060697
835.497498	107.794520
835.909758	107.548164
836.321987	107.311998
836.734185	107.088828
837.146350	106.852528
837.558485	106.600896
837.970587	106.361301
838.382658	106.122977
838.794697	105.889059
839.206705	105.655200
839.618681	105.390716
840.030625	105.128942
840.442538	104.863678
840.854418	104.591002
841.266267	104.315799
841.678084	104.046138
842.089870	103.751322
842.501623	103.489177
842.913345	103.213864
843.325035	102.913830
843.736693	102.656101
844.148319	102.327016
844.559913	102.007830
844.971475	101.743204
845.383005	101.446932
845.794504	101.128342
846.205970	100.843833
846.617404	100.511189
847.028806	100.206516
847.440176	99.902446
847.851514	99.574571
848.262820	99.269773
848.674094	98.950105
849.085336	98.631676
849.496546	98.292502
849.907723	97.980005
850.318868	97.639134
850.729981	97.311893
851.141062	96.993441
851.552110	96.636768
851.963127	96.294981
852.374111	95.947705
852.785062	95.564015
853.195982	95.225416
853.606869	94.840934
854.017723	94.469765
854.428546	94.077770
854.839336	93.698738
855.250093	93.270192
855.660818	92.856077
856.071511	92.461115
856.482171	92.008349
856.892799	91.573329
857.303394	91.156504
857.713956	90.692165
858.124486	90.226775
858.534984	89.776576
858.945449	89.269235
859.355881	88.785066
859.766280	88.277843
860.176647	87.737979
860.586982	87.184701
860.997283	86.645385
861.407552	86.089928
861.817789	85.502270
862.227992	84.932521
862.638163	84.339043
863.048301	83.761117
863.458406	83.160879
863.868478	82.553992
864.278518	81.984904
864.688524	81.396848
865.098498	80.801150
865.508439	80.236631
865.918347	79.649499
866.328222	79.098435
866.738064	78.556307
867.147873	78.024373
867.557649	77.475427
867.967392	76.963441
868.377102	76.437269
868.786779	75.938015
869.196423	75.469268
869.606034	75.021508
870.015612	74.567825
870.425156	74.107031
870.834668	73.676724
871.244146	73.284526
871.653591	72.902905
872.063003	72.516990
872.472382	72.148628
872.881728	71.807808
873.291040	71.474507
873.700319	71.143283
874.109564	70.846402
874.518777	70.566321
874.927956	70.268347
875.337102	70.013037
875.746214	69.733507
876.155293	69.475991
876.564338	69.235048
876.973350	68.959301
877.382329	68.698861
877.791274	68.469128
878.200186	68.209622
878.609064	67.960976
879.017909	67.689371
879.426720	67.404627
879.835497	67.138268
880.244241	66.868587
880.652952	66.604253
881.061629	66.354572
881.470272	66.053741
881.878881	65.786771
882.287457	65.497325
882.695999	65.189128
883.104507	64.910544
883.512982	64.632092
883.921423	64.344706
884.329830	64.061960
884.738203	63.782657
885.146543	63.525768
885.554849	63.241989
885.963120	62.964939
886.371358	62.704926
886.779563	62.417009
887.187733	62.164873
887.595869	61.937339
888.003971	61.668689
888.412040	61.454583
888.820074	61.219277
889.228074	60.998161
889.636041	60.793121
890.043973	60.612945
890.451871	60.420731
890.859736	60.292320
891.267566	60.144259
891.675362	59.995023
892.083124	59.897111
892.490851	59.795400
892.898545	59.708661
893.306204	59.623770
893.713829	59.565835
894.121420	59.543574
894.528977	59.523204
894.936499	59.493115
895.343987	59.509591
895.751441	59.531047
896.158860	59.558687
896.566246	59.598111
896.973596	59.662881
897.380913	59.726872
897.788195	59.783584
898.195442	59.894393
898.602655	60.026113
899.009834	60.136504
899.416978	60.283464
899.824088	60.416838
900.231163	60.541825
900.638204	60.742477
901.045210	60.899171
901.452181	61.081821
901.859118	61.249069
902.266021	61.447567
902.672888	61.601162
903.079721	61.782204
903.486520	61.931492
903.893283	62.112744
904.300012	62.322515
904.706707	62.481399
905.113366	62.663787
905.519991	62.838806
905.926581	62.991523
906.333136	63.120090
906.739656	63.216598
907.146142	63.301898
907.552592	63.430202
907.959008	63.530649
908.365389	63.601938
908.771735	63.679671
909.178046	63.730693
909.584322	63.772307
909.990563	63.811795
910.396769	63.852270
910.802940	63.857221
911.209076	63.853541
911.615177	63.858044
912.021243	63.831219
912.427274	63.802987
912.833270	63.781014
913.239231	63.704999
913.645156	63.645990
914.051046	63.589954
914.456902	63.542752
914.862721	63.473774
915.268506	63.420272
915.674256	63.343421
916.079970	63.253071
916.485649	63.147643
916.891292	63.051577
917.296901	62.945334
917.702474	62.803026
918.108011	62.691100
918.513514	62.578303
918.918980	62.465966
919.324412	62.363759
919.729808	62.240424
920.135169	62.102869
920.540494	61.969097
920.945783	61.870100
921.351037	61.733944
921.756256	61.592182
922.161439	61.460880
922.566586	61.345181
922.971698	61.201728
923.376775	61.064219
923.781815	60.925345
924.186820	60.776732
924.591790	60.629489
924.996723	60.498113
925.401621	60.311707
925.806484	60.173499
926.211310	59.999307
926.616101	59.837530
927.020856	59.636632
927.425575	59.432926
927.830259	59.240805
928.234906	59.036017
928.639518	58.849440
929.044094	58.658826
929.448634	58.473147
929.853138	58.280818
930.257606	58.088537
930.662038	57.857521
931.066434	57.639271
931.470795	57.431529
931.875119	57.258556
932.279407	57.068210
932.683659	56.874584
933.087875	56.685018
933.492055	56.520774
933.896199	56.375901
934.300307	56.202925
934.704379	56.031945
935.108414	55.861965
935.512414	55.738770
935.916377	55.602404
936.320304	55.473668
936.724195	55.376389
937.128049	55.280772
937.531867	55.175354
937.935649	55.123756
938.339395	55.038943
938.743104	54.988747
939.146777	54.952139
939.550414	54.890021
939.954014	54.886694
940.357578	54.848713
940.761105	54.857917
941.164596	54.858015
941.568050	54.868298
941.971468	54.843012
942.374850	54.830551
942.778195	54.859759
943.181503	54.891252
943.584775	54.944408
943.988010	54.966169
944.391209	54.957174
944.794371	54.985642
945.197496	55.052347
945.600585	55.105318
946.003637	55.096870
946.406653	55.111371
946.809632	55.160814
947.212574	55.193590
947.615479	55.209235
948.018347	55.172074
948.421179	55.182184
948.823974	55.161549
949.226732	55.094127
949.629453	55.066063
950.032138	54.994843
950.434785	54.907408
950.837396	54.795533
951.239969	54.690498
951.642506	54.566357
952.045006	54.480057
952.447469	54.352462
952.849895	54.219548
953.252283	54.034913
953.654635	53.851565
954.056950	53.661542
954.459227	53.441683
954.861468	53.203971
955.263671	52.971406
955.665838	52.762328
956.067967	52.550750
956.470059	52.329094
956.872114	52.127831
957.274131	51.926101
957.676112	51.644524
958.078055	51.378878
958.479961	51.142164
958.881829	50.905598
959.283661	50.674556
959.685455	50.455645
960.087211	50.235272
960.488931	50.041008
960.890613	49.774624
961.292257	49.557567
961.693864	49.379460
962.095434	49.139842
962.496966	48.956805
962.898461	48.771052
963.299918	48.644133
963.701338	48.488202
964.102720	48.296059
964.504065	48.164953
964.905372	47.989394
965.306641	47.862100
965.707873	47.734639
966.109068	47.586871
966.510224	47.451147
966.911343	47.386793
967.312425	47.323417
967.713468	47.245897
968.114474	47.207598
968.515442	47.131606
968.916373	47.082943
969.317265	47.003183
969.718120	46.961637
970.118937	46.910349
970.519716	46.872459
970.920458	46.842388
971.321161	46.735351
971.721827	46.656068
972.122454	46.596891
972.523044	46.504025
972.923596	46.440781
973.324110	46.408539
973.724585	46.358178
974.125023	46.284064
974.525423	46.251360
974.925785	46.212797
975.326108	46.215909
975.726394	46.173354
976.126642	46.138487
976.526851	46.151812
976.927022	46.154347
977.327155	46.167886
977.727250	46.135979
978.127307	46.106025
978.527325	46.180808
978.927306	46.182682
979.327248	46.241399
979.727151	46.316173
980.127017	46.346186
980.526844	46.317307
980.926633	46.347006
981.326383	46.403137
981.726095	46.417476
982.125769	46.374569
982.525404	46.468195
982.925001	46.520116
983.324560	46.531424
983.724079	46.670738
984.123561	46.762750
984.523004	46.819387
984.922408	46.874423
985.321774	46.913711
985.721102	46.974645
986.120390	47.001139
986.519641	47.032511
986.918852	47.089893
987.318025	47.218747
987.717159	47.260146
988.116255	47.276582
988.515312	47.354828
988.914330	47.362007
989.313310	47.400443
989.712250	47.392116
990.111152	47.563158
990.510015	47.716916
990.908840	47.775809
991.307625	47.857339
991.706372	47.794555
992.105080	47.837455
992.503749	47.878987
992.902379	47.908571
993.300970	47.868787
993.699522	47.886986
994.098035	47.838252
994.496510	47.790668
994.894945	47.681649
995.293341	47.648592
995.691698	47.683050
996.090016	47.622270
996.488296	47.599576
996.886535	47.475329
997.284736	47.445968
997.682898	47.455382
998.081021	47.407478
998.479104	47.373418
998.877148	47.361208
999.275153	47.441742
999.673119	47.261542
1000.071046	47.247792
1000.468933	47.339379
1000.866781	47.295936
1001.264590	47.321377
1001.662359	47.121616
1002.060089	47.138654
1002.457780	47.008626
1002.855431	46.882667
1003.253043	46.719618
1003.650615	46.864370
1004.048148	47.089140
1004.445642	46.903702
1004.843096	46.885899
1005.240511	47.079251
1005.637886	47.095249
1006.035221	47.311621
1006.432517	47.475667
1006.829774	47.772489
1007.226991	48.018852
1007.624168	48.162881
1008.021306	48.248073
1008.418404	48.420246
1008.815462	48.629978
1009.212481	48.775822
1009.609460	49.410898
1010.006399	49.729730
1010.403298	50.132764
1010.800158	50.698646
1011.196978	50.922306
1011.593758	51.051136
1011.990498	51.641983
1012.387199	52.098347
1012.783860	52.464239
1013.180480	52.726570
1013.577061	53.419803
1013.973602	54.038382
1014.370103	54.507787
1014.766564	54.835801
1015.162985	55.463983
1015.559366	55.892932
1015.955708	55.864389
1016.352009	56.147272
1016.748270	56.953840
1017.144491	57.330927
1017.540671	57.612243
1017.936812	58.295318
1018.332913	58.116925
1018.728973	58.839665
1019.124994	59.289176
1019.520974	59.930092
1019.916914	60.388717
1020.312814	60.988908
