Time1=100ms:Average1=5:Objective=10X:Aperture=1: (11/21/2018 2:54:50 PM)
11/21/2018 2:54:50 PM
Reflectance
10X
Ap#: 1
Avg1: 5.000000
Avg2: 0.000000
Int.Time1:100.000000

350.166136	91.315667
350.601937	91.206465
351.037728	91.500833
351.473509	91.529412
351.909281	91.861378
352.345042	92.031204
352.780794	91.896160
353.216536	91.918093
353.652267	92.325213
354.087989	91.862192
354.523701	91.910312
354.959403	91.451979
355.395095	91.837340
355.830777	92.003167
356.266449	91.454258
356.702110	91.149833
357.137762	90.840443
357.573404	91.015089
358.009035	90.448229
358.444656	90.616727
358.880268	90.990727
359.315869	91.052940
359.751459	90.682440
360.187040	90.902879
360.622610	91.589794
361.058170	91.299213
361.493720	91.178790
361.929260	91.429133
362.364789	91.821414
362.800308	91.172687
363.235816	91.027411
363.671314	90.890310
364.106802	91.520755
364.542279	91.288065
364.977746	91.480351
365.413203	91.276364
365.848649	90.506329
366.284084	90.578562
366.719509	91.045513
367.154924	90.885751
367.590328	90.643160
368.025721	90.143899
368.461104	90.792334
368.896477	90.954973
369.331838	89.828504
369.767189	90.467253
370.202530	90.881158
370.637859	91.314741
371.073178	91.192587
371.508486	91.408661
371.943784	91.468017
372.379071	90.882002
372.814347	90.824508
373.249612	91.369755
373.684866	91.475865
374.120110	91.298765
374.555343	91.467881
374.990565	91.359493
375.425776	91.332343
375.860976	91.137239
376.296165	91.603355
376.731343	91.490413
377.166511	91.976594
377.601667	91.867915
378.036812	91.755319
378.471946	91.968861
378.907070	91.513964
379.342182	91.994917
379.777283	92.201430
380.212373	91.978033
380.647452	91.515627
381.082520	91.529573
381.517576	91.601486
381.952622	90.981150
382.387656	90.792250
382.822679	91.396819
383.257691	91.238786
383.692692	91.131644
384.127681	91.241569
384.562659	90.967681
384.997626	91.128956
385.432581	90.940931
385.867525	91.302281
386.302458	91.340226
386.737379	91.494625
387.172289	91.597038
387.607188	91.435888
388.042075	90.981207
388.476951	91.066880
388.911815	90.763732
389.346668	90.432012
389.781509	90.525328
390.216338	90.665668
390.651157	90.403143
391.085963	90.043087
391.520758	90.291444
391.955541	89.799721
392.390313	90.119425
392.825073	89.642325
393.259821	89.249606
393.694558	89.255280
394.129283	89.528215
394.563996	89.940774
394.998698	90.528267
395.433388	90.743161
395.868066	90.545097
396.302732	90.324839
396.737386	90.026992
397.172029	89.543850
397.606659	88.663650
398.041278	88.615907
398.475885	87.881139
398.910480	87.297578
399.345063	86.395406
399.779634	85.164666
400.214194	83.875275
400.648741	81.976378
401.083276	80.702403
401.517799	78.997003
401.952310	76.831583
402.386809	74.845407
402.821296	72.849472
403.255771	70.269805
403.690234	67.663141
404.124684	65.014125
404.559123	62.049691
404.993549	59.270133
405.427963	56.459514
405.862365	53.665254
406.296754	51.280166
406.731131	49.126769
407.165496	46.734580
407.599849	44.566912
408.034190	42.548769
408.468518	40.764872
408.902833	39.128632
409.337137	37.726688
409.771428	36.434137
410.205706	35.049308
410.639973	33.963265
411.074226	33.062529
411.508467	32.241930
411.942696	31.498186
412.376912	30.795005
412.811116	30.307271
413.245307	29.856376
413.679486	29.380128
414.113652	29.038879
414.547805	28.583565
414.981946	28.306381
415.416074	28.079692
415.850190	27.910905
416.284293	27.727593
416.718383	27.653849
417.152460	27.520469
417.586525	27.481354
418.020577	27.487185
418.454616	27.441994
418.888643	27.428851
419.322656	27.482972
419.756657	27.588234
420.190645	27.635427
420.624620	27.735713
421.058582	27.849641
421.492531	27.958106
421.926468	28.078636
422.360391	28.188615
422.794301	28.289485
423.228199	28.419716
423.662083	28.591583
424.095955	28.817272
424.529813	28.985027
424.963658	29.159972
425.397491	29.325483
425.831310	29.514987
426.265116	29.673433
426.698909	29.842282
427.132689	30.031464
427.566455	30.231700
428.000209	30.463092
428.433949	30.647607
428.867676	30.845836
429.301389	31.029132
429.735090	31.218610
430.168777	31.383582
430.602451	31.539072
431.036111	31.681058
431.469759	31.818574
431.903392	31.963815
432.337013	32.105230
432.770620	32.227217
433.204213	32.316899
433.637794	32.458114
434.071360	32.569857
434.504914	32.692443
434.938453	32.831041
435.371979	32.945846
435.805492	33.068190
436.238991	33.225398
436.672477	33.322916
437.105949	33.440664
437.539407	33.519083
437.972852	33.627102
438.406283	33.739406
438.839700	33.846617
439.273104	33.925997
439.706494	33.978741
440.139871	34.031330
440.573233	34.077626
441.006582	34.098165
441.439917	34.119107
441.873238	34.151813
442.306546	34.168981
442.739839	34.189059
443.173119	34.209941
443.606385	34.193643
444.039636	34.204815
444.472874	34.210105
444.906099	34.210139
445.339309	34.220230
445.772505	34.238180
446.205687	34.253034
446.638855	34.282797
447.072009	34.285165
447.505149	34.299013
447.938275	34.306857
448.371387	34.305457
448.804485	34.306650
449.237569	34.300296
449.670638	34.283374
450.103694	34.249305
450.536735	34.230840
450.969762	34.188870
451.402774	34.123997
451.835773	34.030414
452.268757	33.962009
452.701727	33.894138
453.134683	33.841138
453.567624	33.789123
454.000551	33.721111
454.433464	33.653496
454.866362	33.570009
455.299246	33.519605
455.732116	33.461134
456.164971	33.380709
456.597811	33.292364
457.030638	33.224279
457.463449	33.164558
457.896246	33.078095
458.329029	32.992517
458.761797	32.901513
459.194551	32.791558
459.627290	32.687922
460.060014	32.578292
460.492724	32.456477
460.925419	32.322846
461.358099	32.209417
461.790765	32.058851
462.223416	31.914882
462.656052	31.753223
463.088674	31.583782
463.521281	31.436197
463.953873	31.249315
464.386450	31.046768
464.819012	30.854581
465.251560	30.672552
465.684093	30.471312
466.116611	30.282638
466.549114	30.099778
466.981602	29.908208
467.414075	29.721927
467.846533	29.525124
468.278977	29.324170
468.711405	29.101134
469.143818	28.880783
469.576216	28.680578
470.008600	28.470813
470.440968	28.234282
470.873321	28.007557
471.305659	27.780321
471.737982	27.556772
472.170289	27.330456
472.602582	27.109350
473.034859	26.882917
473.467122	26.663036
473.899369	26.463503
474.331600	26.266795
474.763817	26.057848
475.196018	25.875017
475.628204	25.683862
476.060375	25.502370
476.492530	25.322315
476.924670	25.163064
477.356795	25.024670
477.788904	24.914127
478.220998	24.809205
478.653076	24.715374
479.085139	24.638112
479.517186	24.573679
479.949219	24.505762
480.381235	24.464985
480.813236	24.434000
481.245221	24.416575
481.677191	24.421243
482.109146	24.422247
482.541084	24.431937
482.973008	24.436833
483.404915	24.456286
483.836807	24.505678
484.268683	24.558510
484.700544	24.624517
485.132388	24.699644
485.564217	24.770461
485.996031	24.869414
486.427828	24.965854
486.859610	25.075522
487.291376	25.191393
487.723126	25.307609
488.154860	25.432759
488.586579	25.556097
489.018281	25.675562
489.449968	25.814770
489.881639	25.968717
490.313293	26.107979
490.744932	26.256127
491.176555	26.397978
491.608162	26.550210
492.039753	26.704019
492.471328	26.846658
492.902886	26.986891
493.334429	27.133442
493.765956	27.262853
494.197466	27.384750
494.628960	27.484823
495.060439	27.597533
495.491901	27.711220
495.923347	27.820140
496.354776	27.917925
496.786190	28.008382
497.217587	28.098799
497.648968	28.183329
498.080332	28.274869
498.511681	28.352616
498.943013	28.445291
499.374328	28.537152
499.805628	28.641620
500.236911	28.733516
500.668177	28.825856
501.099427	28.922307
501.530661	29.011949
501.961878	29.107777
502.393079	29.213306
502.824264	29.307566
503.255431	29.396582
503.686583	29.478723
504.117717	29.561340
504.548835	29.641608
504.979937	29.717346
505.411022	29.785837
505.842090	29.854162
506.273142	29.932555
506.704177	30.004325
507.135195	30.089177
507.566197	30.181919
507.997182	30.296801
508.428150	30.402127
508.859102	30.505571
509.290036	30.619842
509.720954	30.739953
510.151855	30.889585
510.582739	31.028560
511.013607	31.162059
511.444457	31.287824
511.875291	31.430829
512.306107	31.575279
512.736907	31.721768
513.167690	31.879734
513.598456	32.044877
514.029205	32.242003
514.459936	32.466569
514.890651	32.720989
515.321349	32.996957
515.752030	33.298812
516.182693	33.621622
516.613340	33.959851
517.043969	34.330811
517.474582	34.728924
517.905177	35.151214
518.335755	35.575868
518.766315	36.011882
519.196859	36.473956
519.627385	36.936053
520.057894	37.410631
520.488386	37.897722
520.918860	38.414916
521.349318	38.955773
521.779757	39.534522
522.210180	40.143126
522.640585	40.783467
523.070973	41.446572
523.501343	42.112057
523.931696	42.811369
524.362031	43.535204
524.792349	44.275393
525.222650	45.035527
525.652933	45.789640
526.083198	46.547312
526.513446	47.293306
526.943677	48.049102
527.373890	48.767260
527.804085	49.498558
528.234262	50.189470
528.664422	50.885318
529.094565	51.575618
529.524689	52.271080
529.954796	52.982208
530.384885	53.686709
530.814957	54.391236
531.245011	55.112512
531.675047	55.845805
532.105065	56.608598
532.535065	57.374232
532.965048	58.155576
533.395013	58.943939
533.824959	59.727918
534.254888	60.490083
534.684799	61.262629
535.114693	62.011584
535.544568	62.747041
535.974425	63.464115
536.404264	64.171028
536.834086	64.864936
537.263889	65.544178
537.693674	66.201386
538.123441	66.872694
538.553190	67.533816
538.982921	68.222565
539.412634	68.913127
539.842329	69.620649
540.272006	70.325133
540.701664	71.066334
541.131304	71.781027
541.560926	72.517350
541.990530	73.262947
542.420116	74.001297
542.849683	74.718802
543.279232	75.419434
543.708763	76.116192
544.138275	76.778630
544.567769	77.430878
544.997245	78.052345
545.426702	78.640705
545.856141	79.212329
546.285562	79.763463
546.714964	80.304246
547.144347	80.835655
547.573713	81.358432
548.003059	81.876660
548.432387	82.389448
548.861697	82.902453
549.290988	83.405418
549.720260	83.913660
550.149514	84.414851
550.578750	84.904794
551.007966	85.405036
551.437164	85.890243
551.866344	86.368846
552.295504	86.828912
552.724646	87.262310
553.153769	87.678524
553.582874	88.073206
554.011960	88.435726
554.441027	88.777675
554.870075	89.105901
555.299104	89.390988
555.728115	89.636600
556.157106	89.872495
556.586079	90.076996
557.015033	90.254955
557.443968	90.427477
557.872884	90.582070
558.301781	90.740309
558.730659	90.866185
559.159518	91.013655
559.588358	91.161315
560.017180	91.289275
560.445982	91.423124
560.874765	91.577058
561.303528	91.718190
561.732273	91.861915
562.160999	92.010408
562.589705	92.150960
563.018393	92.293583
563.447061	92.429795
563.875710	92.585363
564.304340	92.727018
564.732950	92.862652
565.161542	92.986647
565.590114	93.106426
566.018666	93.248625
566.447200	93.379405
566.875714	93.528216
567.304208	93.662211
567.732684	93.799071
568.161140	93.925752
568.589576	94.054927
569.017993	94.211460
569.446391	94.367128
569.874769	94.516030
570.303128	94.684997
570.731467	94.843594
571.159787	94.973475
571.588087	95.111612
572.016368	95.271179
572.444629	95.403306
572.872870	95.519188
573.301092	95.639769
573.729294	95.739746
574.157476	95.806884
574.585639	95.854910
575.013782	95.896843
575.441906	95.909572
575.870009	95.907913
576.298093	95.901697
576.726157	95.876124
577.154202	95.815564
577.582226	95.762216
578.010231	95.691448
578.438216	95.616478
578.866181	95.532213
579.294126	95.416055
579.722051	95.298915
580.149957	95.160383
580.577842	95.035769
581.005707	94.896615
581.433553	94.788259
581.861378	94.671304
582.289184	94.540211
582.716969	94.407329
583.144734	94.281813
583.572479	94.156186
584.000205	94.030940
584.427910	93.923049
584.855594	93.819573
585.283259	93.697117
585.710904	93.580140
586.138528	93.475069
586.566132	93.360809
586.993716	93.256885
587.421280	93.143222
587.848823	93.040411
588.276346	92.931688
588.703849	92.819551
589.131332	92.697596
589.558794	92.563275
589.986236	92.417493
590.413657	92.286764
590.841058	92.126282
591.268438	91.962648
591.695799	91.787815
592.123138	91.614948
592.550458	91.452231
592.977756	91.288694
593.405034	91.128788
593.832292	90.954628
594.259529	90.792820
594.686746	90.598267
595.113942	90.418376
595.541117	90.233888
595.968272	90.051189
596.395406	89.865819
596.822519	89.682294
597.249612	89.511379
597.676684	89.338654
598.103735	89.154824
598.530766	88.990655
598.957775	88.812349
599.384764	88.638718
599.811733	88.474049
600.238680	88.286990
600.665606	88.115961
601.092512	87.942859
601.519397	87.759193
601.946261	87.579791
602.373104	87.383327
602.799926	87.204439
603.226727	87.012946
603.653507	86.801937
604.080266	86.595906
604.507004	86.386578
604.933721	86.174297
605.360417	85.942977
605.787092	85.686824
606.213746	85.429711
606.640379	85.139750
607.066991	84.839109
607.493581	84.521036
607.920150	84.198332
608.346699	83.842667
608.773226	83.481611
609.199731	83.072843
609.626216	82.650303
610.052679	82.192954
610.479121	81.695499
610.905542	81.170432
611.331941	80.627297
611.758319	80.046190
612.184676	79.459153
612.611011	78.835894
613.037325	78.179561
613.463617	77.514570
613.889888	76.802995
614.316138	76.073055
614.742366	75.317261
615.168573	74.535913
615.594758	73.745269
616.020921	72.919569
616.447063	72.097790
616.873184	71.265171
617.299283	70.417090
617.725360	69.555760
618.151416	68.688161
618.577450	67.810029
619.003462	66.949767
619.429453	66.081114
619.855422	65.231546
620.281369	64.394434
620.707295	63.555237
621.133199	62.719558
621.559081	61.899718
621.984941	61.094286
622.410779	60.321990
622.836596	59.565233
623.262391	58.810423
623.688163	58.086692
624.113914	57.385158
624.539644	56.691127
624.965351	56.027175
625.391036	55.368687
625.816699	54.734789
626.242340	54.112382
626.667960	53.500889
627.093557	52.920679
627.519132	52.357835
627.944685	51.811483
628.370216	51.296710
628.795725	50.809726
629.221212	50.339431
629.646677	49.893612
630.072119	49.481211
630.497540	49.094759
630.922938	48.747723
631.348314	48.430558
631.773668	48.150856
632.198999	47.901252
632.624308	47.670317
633.049595	47.475037
633.474860	47.304514
633.900102	47.161000
634.325322	47.044753
634.750520	46.937157
635.175695	46.849313
635.600848	46.780557
636.025978	46.721368
636.451086	46.692291
636.876171	46.669346
637.301234	46.647906
637.726275	46.642443
638.151293	46.654100
638.576288	46.669004
639.001261	46.683280
639.426211	46.707778
639.851139	46.742768
640.276044	46.793331
640.700927	46.842584
641.125787	46.902648
641.550624	46.963030
641.975438	47.033487
642.400230	47.111045
642.824999	47.194621
643.249745	47.279652
643.674469	47.370562
644.099169	47.459087
644.523847	47.545301
644.948502	47.632206
645.373135	47.718786
645.797744	47.810320
646.222330	47.900384
646.646894	47.988290
647.071435	48.074682
647.495953	48.156636
647.920447	48.252371
648.344919	48.329964
648.769368	48.404127
649.193794	48.483164
649.618197	48.554440
650.042576	48.624994
650.466933	48.703603
650.891267	48.775600
651.315577	48.834071
651.739864	48.896002
652.164129	48.949622
652.588370	49.004252
653.012587	49.047241
653.436782	49.079530
653.860953	49.107714
654.285102	49.121331
654.709226	49.129042
655.133328	49.126403
655.557406	49.110551
655.981461	49.080351
656.405493	49.041100
656.829501	48.997035
657.253486	48.947016
657.677448	48.888623
658.101386	48.831558
658.525301	48.771066
658.949192	48.709729
659.373060	48.639476
659.796904	48.570082
660.220725	48.505655
660.644522	48.452495
661.068296	48.395352
661.492046	48.356460
661.915772	48.330510
662.339475	48.301449
662.763154	48.287569
663.186810	48.286772
663.610442	48.296304
664.034050	48.324423
664.457635	48.365581
664.881196	48.423326
665.304733	48.510758
665.728247	48.605953
666.151736	48.731862
666.575202	48.873117
666.998644	49.032413
667.422062	49.227040
667.845457	49.439262
668.268827	49.666494
668.692174	49.920257
669.115496	50.207556
669.538795	50.518781
669.962070	50.849065
670.385321	51.201761
670.808547	51.597250
671.231750	52.000503
671.654929	52.422104
672.078084	52.875747
672.501214	53.344616
672.924321	53.843352
673.347404	54.353863
673.770462	54.871180
674.193496	55.406327
674.616506	55.946709
675.039492	56.482128
675.462454	57.035190
675.885391	57.574791
676.308305	58.103367
676.731194	58.622127
677.154058	59.124845
677.576899	59.616424
677.999715	60.095721
678.422507	60.548578
678.845274	60.981386
679.268017	61.393379
679.690736	61.791636
680.113430	62.168739
680.536100	62.527274
680.958746	62.869254
681.381367	63.203092
681.803963	63.515944
682.226535	63.810466
682.649083	64.081930
683.071605	64.356787
683.494104	64.625974
683.916578	64.863112
684.339027	65.093380
684.761451	65.308427
685.183851	65.503971
685.606227	65.691390
686.028577	65.862952
686.450903	66.021600
686.873204	66.175640
687.295481	66.310125
687.717733	66.432341
688.139959	66.541695
688.562162	66.634854
688.984339	66.731842
689.406492	66.829153
689.828619	66.913667
690.250722	66.995240
690.672800	67.069934
691.094853	67.141856
691.516881	67.216329
691.938884	67.299024
692.360863	67.368291
692.782816	67.431459
693.204744	67.498549
693.626647	67.551136
694.048526	67.597317
694.470379	67.634073
694.892207	67.673187
695.314010	67.703470
695.735788	67.739584
696.157540	67.747148
696.579268	67.749539
697.000970	67.742386
697.422648	67.729363
697.844300	67.708410
698.265926	67.676209
698.687528	67.642810
699.109104	67.588299
699.530655	67.525116
699.952181	67.453413
700.373681	67.379014
700.795156	67.294902
701.216606	67.217816
701.638030	67.125881
702.059429	67.020513
702.480803	66.918688
702.902151	66.816763
703.323473	66.710244
703.744770	66.598212
704.166042	66.481338
704.587288	66.368108
705.008509	66.256658
705.429704	66.158036
705.850873	66.068353
706.272017	65.977831
706.693135	65.914230
707.114228	65.850670
707.535295	65.815191
707.956336	65.787606
708.377352	65.777292
708.798342	65.797916
709.219306	65.833765
709.640245	65.888547
710.061157	65.961714
710.482044	66.059221
710.902905	66.174997
711.323741	66.323464
711.744550	66.493622
712.165334	66.697888
712.586092	66.928720
713.006823	67.182035
713.427529	67.470605
713.848209	67.787781
714.268863	68.127670
714.689492	68.498299
715.110094	68.900775
715.530670	69.327996
715.951220	69.791357
716.371744	70.297943
716.792242	70.838116
717.212714	71.405740
717.633159	72.005023
718.053579	72.640599
718.473973	73.296826
718.894340	73.986789
719.314681	74.713768
719.734996	75.454096
720.155285	76.234742
720.575547	77.024106
720.995784	77.834524
721.415994	78.668989
721.836177	79.501317
722.256335	80.353109
722.676466	81.201517
723.096570	82.062807
723.516649	82.923382
723.936701	83.793175
724.356726	84.636107
724.776725	85.462400
725.196698	86.263036
725.616644	87.050830
726.036564	87.814968
726.456457	88.543422
726.876324	89.254342
727.296164	89.935722
727.715977	90.597874
728.135764	91.233349
728.555525	91.833370
728.975258	92.405836
729.394966	92.927404
729.814646	93.423642
730.234300	93.913187
730.653927	94.370720
731.073527	94.796172
731.493101	95.192266
731.912648	95.565016
732.332168	95.914367
732.751661	96.237472
733.171128	96.534257
733.590568	96.810208
734.009980	97.068986
734.429366	97.306650
734.848726	97.523048
735.268058	97.734615
735.687363	97.933229
736.106641	98.120176
736.525893	98.280473
736.945117	98.413575
737.364314	98.558601
737.783485	98.708735
738.202628	98.854326
738.621744	99.000527
739.040834	99.140202
739.459896	99.300033
739.878931	99.450951
740.297939	99.602797
740.716919	99.750206
741.135873	99.924965
741.554799	100.091577
741.973698	100.281145
742.392570	100.475287
742.811415	100.691589
743.230232	100.880037
743.649022	101.096111
744.067785	101.318628
744.486521	101.560861
744.905229	101.807340
745.323909	102.049440
745.742563	102.298235
746.161189	102.552451
746.579787	102.829903
746.998358	103.108390
747.416902	103.395111
747.835418	103.683350
748.253907	103.978454
748.672368	104.279924
749.090802	104.575954
749.509208	104.883282
749.927586	105.203339
750.345937	105.522685
750.764261	105.826417
751.182556	106.136880
751.600824	106.454083
752.019065	106.772470
752.437277	107.075328
752.855462	107.389500
753.273620	107.705282
753.691749	108.033231
754.109851	108.333467
754.527925	108.650588
754.945971	108.932089
755.363989	109.219565
755.781980	109.496937
756.199943	109.775769
756.617877	110.044081
757.035784	110.299296
757.453663	110.544535
757.871514	110.770480
758.289337	110.996371
758.707132	111.211350
759.124899	111.417335
759.542639	111.603161
759.960350	111.758952
760.378033	111.896913
760.795688	112.009037
761.213314	112.100276
761.630913	112.173783
762.048484	112.226482
762.466026	112.274483
762.883541	112.288886
763.301027	112.275976
763.718485	112.256066
764.135914	112.223827
764.553316	112.164967
764.970689	112.103736
765.388034	112.008962
765.805351	111.901728
766.222639	111.770606
766.639899	111.611949
767.057131	111.451975
767.474334	111.278388
767.891509	111.101091
768.308655	110.920669
768.725773	110.723850
769.142863	110.542823
769.559924	110.335530
769.976957	110.128728
770.393961	109.915527
770.810936	109.713263
771.227883	109.482028
771.644802	109.274337
772.061692	109.057828
772.478553	108.822158
772.895386	108.611688
773.312190	108.399445
773.728965	108.210009
774.145712	108.008262
774.562430	107.805373
774.979119	107.618889
775.395780	107.424729
775.812411	107.254766
776.229014	107.081459
776.645589	106.928328
777.062134	106.776293
777.478651	106.623493
777.895138	106.465452
778.311597	106.333335
778.728027	106.201313
779.144428	106.108081
779.560800	106.007235
779.977143	105.904154
780.393458	105.799788
780.809743	105.719185
781.225999	105.648091
781.642226	105.585593
782.058425	105.527004
782.474594	105.480728
782.890734	105.436779
783.306845	105.410612
783.722926	105.396524
784.138979	105.401937
784.555003	105.396251
784.970997	105.404690
785.386962	105.427983
785.802898	105.442530
786.218805	105.460852
786.634682	105.472819
787.050531	105.508015
787.466349	105.537630
787.882139	105.576554
788.297899	105.616640
788.713630	105.637875
789.129332	105.658045
789.545004	105.686192
789.960647	105.703234
790.376260	105.725662
790.791844	105.751879
791.207399	105.770361
791.622924	105.792419
792.038419	105.777410
792.453885	105.779274
792.869321	105.770914
793.284728	105.761758
793.700106	105.735196
794.115453	105.724553
794.530771	105.685020
794.946060	105.640334
795.361319	105.574704
795.776548	105.520098
796.191747	105.454646
796.606917	105.347701
797.022057	105.262895
797.437167	105.146285
797.852248	105.030860
798.267298	104.905238
798.682319	104.790726
799.097310	104.663856
799.512271	104.532976
799.927203	104.384429
800.342104	104.242802
800.756976	104.098337
801.171818	103.952034
801.586629	103.826035
802.001411	103.703568
802.416163	103.566549
802.830885	103.463111
803.245577	103.347992
803.660238	103.258492
804.074870	103.175610
804.489472	103.077825
804.904043	103.024099
805.318585	102.967982
805.733096	102.923428
806.147577	102.892715
806.562028	102.865804
806.976449	102.827146
807.390840	102.829111
807.805200	102.848560
808.219530	102.868917
808.633830	102.905774
809.048100	102.923735
809.462339	102.975231
809.876548	103.041906
810.290727	103.123338
810.704875	103.203604
811.118993	103.281918
811.533080	103.365855
811.947137	103.448425
812.361164	103.535103
812.775160	103.613514
813.189126	103.701675
813.603061	103.791791
814.016966	103.881127
814.430840	103.945099
814.844684	104.028443
815.258497	104.085203
815.672280	104.129158
816.086032	104.184016
816.499753	104.224249
816.913444	104.232537
817.327104	104.261350
817.740733	104.248902
818.154331	104.242334
818.567899	104.213244
818.981436	104.168477
819.394943	104.111585
819.808418	104.042581
820.221863	103.937727
820.635277	103.801579
821.048660	103.665562
821.462013	103.493349
821.875334	103.329213
822.288625	103.107296
822.701884	102.847884
823.115113	102.580422
823.528311	102.267141
823.941478	101.943826
824.354614	101.573734
824.767718	101.186667
825.180792	100.747268
825.593835	100.306084
826.006847	99.822490
826.419827	99.286306
826.832777	98.738901
827.245695	98.171314
827.658582	97.543240
828.071438	96.920740
828.484263	96.245050
828.897057	95.544805
829.309819	94.808094
829.722551	94.087385
830.135251	93.329592
830.547919	92.564416
830.960557	91.782402
831.373163	91.019374
831.785738	90.227481
832.198281	89.432447
832.610793	88.633302
833.023274	87.848643
833.435723	87.049629
833.848141	86.270714
834.260528	85.502369
834.672883	84.735491
835.085206	83.988181
835.497498	83.241086
835.909758	82.516773
836.321987	81.813233
836.734185	81.128342
837.146350	80.450196
837.558485	79.800418
837.970587	79.186532
838.382658	78.573045
838.794697	77.976026
839.206705	77.402112
839.618681	76.843826
840.030625	76.304109
840.442538	75.767796
840.854418	75.255317
841.266267	74.762746
841.678084	74.299932
842.089870	73.846305
842.501623	73.413067
842.913345	73.000868
843.325035	72.603014
843.736693	72.224666
844.148319	71.842503
844.559913	71.494170
844.971475	71.171183
845.383005	70.876803
845.794504	70.569508
846.205970	70.315537
846.617404	70.051606
847.028806	69.797043
847.440176	69.571757
847.851514	69.351592
848.262820	69.156247
848.674094	68.940946
849.085336	68.754035
849.496546	68.571250
849.907723	68.415945
850.318868	68.223730
850.729981	68.035001
851.141062	67.869173
851.552110	67.706297
851.963127	67.552611
852.374111	67.395111
852.785062	67.207568
853.195982	67.044002
853.606869	66.871447
854.017723	66.717455
854.428546	66.534929
854.839336	66.352733
855.250093	66.164591
855.660818	65.962078
856.071511	65.765225
856.482171	65.533239
856.892799	65.302009
857.303394	65.093692
857.713956	64.853157
858.124486	64.587074
858.534984	64.327418
858.945449	64.037393
859.355881	63.743985
859.766280	63.435516
860.176647	63.095360
860.586982	62.770491
860.997283	62.418651
861.407552	62.088405
861.817789	61.739444
862.227992	61.369368
862.638163	60.973919
863.048301	60.581336
863.458406	60.173897
863.868478	59.766793
864.278518	59.353877
864.688524	58.928718
865.098498	58.460233
865.508439	58.028353
865.918347	57.588304
866.328222	57.140917
866.738064	56.665619
867.147873	56.205317
867.557649	55.746690
867.967392	55.275867
868.377102	54.807973
868.786779	54.324938
869.196423	53.871060
869.606034	53.415457
870.015612	52.914524
870.425156	52.432946
870.834668	51.948467
871.244146	51.481860
871.653591	51.017945
872.063003	50.549443
872.472382	50.076804
872.881728	49.620516
873.291040	49.150690
873.700319	48.691404
874.109564	48.214975
874.518777	47.745776
874.927956	47.291328
875.337102	46.841228
875.746214	46.409072
876.155293	45.982621
876.564338	45.545927
876.973350	45.109004
877.382329	44.681179
877.791274	44.289991
878.200186	43.888816
878.609064	43.505284
879.017909	43.111729
879.426720	42.746378
879.835497	42.386315
880.244241	42.020379
880.652952	41.652941
881.061629	41.321431
881.470272	40.998419
881.878881	40.677832
882.287457	40.363330
882.695999	40.059385
883.104507	39.771793
883.512982	39.504128
883.921423	39.249021
884.329830	38.990058
884.738203	38.769753
885.146543	38.561192
885.554849	38.361995
885.963120	38.192694
886.371358	38.031803
886.779563	37.896632
887.187733	37.770687
887.595869	37.665450
888.003971	37.562435
888.412040	37.488616
888.820074	37.426591
889.228074	37.395185
889.636041	37.366379
890.043973	37.361917
890.451871	37.353452
890.859736	37.377957
891.267566	37.426038
891.675362	37.480725
892.083124	37.536479
892.490851	37.625931
892.898545	37.714817
893.306204	37.852311
893.713829	37.982643
894.121420	38.140670
894.528977	38.304182
894.936499	38.484881
895.343987	38.689590
895.751441	38.886535
896.158860	39.102662
896.566246	39.313235
896.973596	39.531112
897.380913	39.739543
897.788195	39.951641
898.195442	40.193711
898.602655	40.427465
899.009834	40.651409
899.416978	40.873927
899.824088	41.114252
900.231163	41.311073
900.638204	41.541217
901.045210	41.740762
901.452181	41.929813
901.859118	42.075271
902.266021	42.271382
902.672888	42.410951
903.079721	42.568073
903.486520	42.678006
903.893283	42.772582
904.300012	42.861439
904.706707	42.971361
905.113366	43.030786
905.519991	43.094081
905.926581	43.133277
906.333136	43.143248
906.739656	43.124295
907.146142	43.106475
907.552592	43.077525
907.959008	43.012874
908.365389	42.954048
908.771735	42.851313
909.178046	42.766307
909.584322	42.667616
909.990563	42.551161
910.396769	42.439100
910.802940	42.265478
911.209076	42.101345
911.615177	41.961370
912.021243	41.807046
912.427274	41.610620
912.833270	41.439040
913.239231	41.249185
913.645156	41.063426
914.051046	40.865058
914.456902	40.691291
914.862721	40.487284
915.268506	40.286163
915.674256	40.074162
916.079970	39.887802
916.485649	39.698785
916.891292	39.504239
917.296901	39.278012
917.702474	39.059986
918.108011	38.870151
918.513514	38.660419
918.918980	38.454844
919.324412	38.274464
919.729808	38.076905
920.135169	37.889800
920.540494	37.744133
920.945783	37.589898
921.351037	37.477398
921.756256	37.339174
922.161439	37.231825
922.566586	37.121450
922.971698	37.014034
923.376775	36.950030
923.781815	36.879855
924.186820	36.810974
924.591790	36.728449
924.996723	36.676903
925.401621	36.605967
925.806484	36.565456
926.211310	36.540550
926.616101	36.527723
927.020856	36.521543
927.425575	36.485740
927.830259	36.483890
928.234906	36.482713
928.639518	36.495437
929.044094	36.504532
929.448634	36.534063
929.853138	36.566869
930.257606	36.600290
930.662038	36.616956
931.066434	36.646864
931.470795	36.690879
931.875119	36.717717
932.279407	36.781926
932.683659	36.813285
933.087875	36.838174
933.492055	36.872557
933.896199	36.881884
934.300307	36.900141
934.704379	36.865916
935.108414	36.850739
935.512414	36.827151
935.916377	36.754900
936.320304	36.676906
936.724195	36.586393
937.128049	36.489470
937.531867	36.382120
937.935649	36.284067
938.339395	36.151945
938.743104	35.983440
939.146777	35.808981
939.550414	35.625752
939.954014	35.479112
940.357578	35.283880
940.761105	35.089401
941.164596	34.887641
941.568050	34.660185
941.971468	34.414901
942.374850	34.183301
942.778195	33.960465
943.181503	33.705231
943.584775	33.468284
943.988010	33.218653
944.391209	32.977519
944.794371	32.732488
945.197496	32.519591
945.600585	32.252830
946.003637	32.015590
946.406653	31.765020
946.809632	31.542638
947.212574	31.357372
947.615479	31.162615
948.018347	30.998626
948.421179	30.862101
948.823974	30.731907
949.226732	30.587658
949.629453	30.509819
950.032138	30.422829
950.434785	30.346932
950.837396	30.276109
951.239969	30.227526
951.642506	30.188197
952.045006	30.149237
952.447469	30.103060
952.849895	30.086584
953.252283	30.091166
953.654635	30.062898
954.056950	30.083637
954.459227	30.082286
954.861468	30.092943
955.263671	30.100558
955.665838	30.133035
956.067967	30.183406
956.470059	30.203251
956.872114	30.224584
957.274131	30.215788
957.676112	30.239237
958.078055	30.277160
958.479961	30.270611
958.881829	30.321597
959.283661	30.308935
959.685455	30.300045
960.087211	30.314624
960.488931	30.295455
960.890613	30.269352
961.292257	30.251209
961.693864	30.228588
962.095434	30.152808
962.496966	30.099384
962.898461	30.058426
963.299918	29.966797
963.701338	29.925557
964.102720	29.892518
964.504065	29.821656
964.905372	29.753838
965.306641	29.657507
965.707873	29.550694
966.109068	29.465326
966.510224	29.359956
966.911343	29.301944
967.312425	29.209236
967.713468	29.108503
968.114474	29.049655
968.515442	28.953887
968.916373	28.898681
969.317265	28.807790
969.718120	28.761546
970.118937	28.606321
970.519716	28.526843
970.920458	28.458645
971.321161	28.336130
971.721827	28.238627
972.122454	28.157277
972.523044	28.028439
972.923596	27.932700
973.324110	27.843120
973.724585	27.679879
974.125023	27.582787
974.525423	27.471643
974.925785	27.344045
975.326108	27.221830
975.726394	27.101582
976.126642	26.949302
976.526851	26.788648
976.927022	26.698717
977.327155	26.581986
977.727250	26.472068
978.127307	26.344475
978.527325	26.258352
978.927306	26.151003
979.327248	26.029689
979.727151	25.916173
980.127017	25.791629
980.526844	25.662941
980.926633	25.478916
981.326383	25.351687
981.726095	25.247883
982.125769	25.094315
982.525404	25.034252
982.925001	24.920292
983.324560	24.776764
983.724079	24.639262
984.123561	24.543493
984.523004	24.403210
984.922408	24.261311
985.321774	24.139230
985.721102	23.960334
986.120390	23.903968
986.519641	23.772397
986.918852	23.690388
987.318025	23.683662
987.717159	23.671324
988.116255	23.732061
988.515312	23.716293
988.914330	23.670375
989.313310	23.589402
989.712250	23.513906
990.111152	23.585964
990.510015	23.633715
990.908840	23.638751
991.307625	23.655879
991.706372	23.762638
992.105080	23.847036
992.503749	23.900663
992.902379	23.867731
993.300970	24.036396
993.699522	24.151376
994.098035	24.256574
994.496510	24.340289
994.894945	24.429048
995.293341	24.508397
995.691698	24.728604
996.090016	24.872603
996.488296	25.088163
996.886535	25.319733
997.284736	25.356429
997.682898	25.643707
998.081021	25.989440
998.479104	26.273126
998.877148	26.587262
999.275153	26.973131
999.673119	27.121295
1000.071046	27.319299
1000.468933	27.584135
1000.866781	27.816034
1001.264590	28.101186
1001.662359	28.279422
1002.060089	28.568426
1002.457780	28.664395
1002.855431	28.905316
1003.253043	29.084334
1003.650615	29.384763
1004.048148	29.640932
1004.445642	29.832313
1004.843096	30.297530
1005.240511	30.757421
1005.637886	30.991518
1006.035221	31.312392
1006.432517	31.617473
1006.829774	32.129053
1007.226991	32.590924
1007.624168	33.080970
1008.021306	33.509986
1008.418404	34.019922
1008.815462	34.470768
1009.212481	34.745601
1009.609460	35.704467
1010.006399	36.084870
1010.403298	36.564794
1010.800158	36.891697
1011.196978	37.492429
1011.593758	37.931818
1011.990498	38.640754
1012.387199	39.290256
1012.783860	39.665188
1013.180480	40.273302
1013.577061	41.037641
1013.973602	42.137236
1014.370103	43.199028
1014.766564	43.788983
1015.162985	44.425073
1015.559366	45.161020
1015.955708	45.675843
1016.352009	45.928431
1016.748270	46.488261
1017.144491	46.873341
1017.540671	47.316305
1017.936812	47.803121
1018.332913	48.202635
1018.728973	48.827321
1019.124994	49.155529
1019.520974	49.920559
1019.916914	50.584795
1020.312814	50.930626
