Time1=100ms:Average1=5:Objective=10X:Aperture=1: (11/21/2018 2:52:27 PM)
11/21/2018 2:52:27 PM
Reflectance
10X
Ap#: 1
Avg1: 5.000000
Avg2: 0.000000
Int.Time1:100.000000

350.166136	88.953975
350.601937	89.253415
351.037728	89.471620
351.473509	89.754902
351.909281	89.711369
352.345042	89.997038
352.780794	89.556806
353.216536	89.731922
353.652267	89.968311
354.087989	89.892090
354.523701	90.142236
354.959403	90.168789
355.395095	90.274067
355.830777	89.914885
356.266449	89.824145
356.702110	89.643631
357.137762	89.134059
357.573404	89.192632
358.009035	89.009591
358.444656	88.930287
358.880268	88.501708
359.315869	88.874780
359.751459	88.560813
360.187040	88.482186
360.622610	89.136408
361.058170	89.104331
361.493720	88.764045
361.929260	88.834283
362.364789	89.608850
362.800308	89.708065
363.235816	89.854072
363.671314	90.280374
364.106802	90.281330
364.542279	89.937913
364.977746	90.239338
365.413203	90.276265
365.848649	90.110760
366.284084	90.033683
366.719509	89.732451
367.154924	89.266318
367.590328	89.126367
368.025721	88.635916
368.461104	88.707765
368.896477	89.045027
369.331838	89.030160
369.767189	88.985479
370.202530	88.869065
370.637859	89.073705
371.073178	88.661951
371.508486	88.670981
371.943784	88.170441
372.379071	88.011522
372.814347	87.548253
373.249612	87.876089
373.684866	87.887799
374.120110	87.565432
374.555343	87.716520
374.990565	87.831946
375.425776	87.419515
375.860976	87.115898
376.296165	87.340898
376.731343	87.210911
377.166511	86.888823
377.601667	87.077378
378.036812	87.263593
378.471946	87.366969
378.907070	87.310142
379.342182	87.518327
379.777283	87.733908
380.212373	87.741493
380.647452	87.577153
381.082520	87.524481
381.517576	87.651545
381.952622	87.124215
382.387656	86.802225
382.822679	86.597049
383.257691	86.361901
383.692692	86.654601
384.127681	86.643868
384.562659	86.503649
384.997626	86.178555
385.432581	86.397198
385.867525	86.815589
386.302458	86.654652
386.737379	86.556940
387.172289	86.355868
387.607188	86.219651
388.042075	85.532156
388.476951	85.671163
388.911815	85.355530
389.346668	84.987349
389.781509	85.009381
390.216338	85.366539
390.651157	85.688897
391.085963	85.575122
391.520758	85.905726
391.955541	85.654401
392.390313	85.501026
392.825073	85.022355
393.259821	85.019942
393.694558	84.883290
394.129283	85.097132
394.563996	85.258190
394.998698	85.347544
395.433388	85.608253
395.868066	85.684181
396.302732	85.946980
396.737386	85.680380
397.172029	85.335377
397.606659	85.034171
398.041278	84.455364
398.475885	84.266022
398.910480	83.467906
399.345063	82.259716
399.779634	81.396474
400.214194	80.175718
400.648741	78.643184
401.083276	77.223249
401.517799	75.852148
401.952310	73.720507
402.386809	71.678597
402.821296	69.134023
403.255771	66.469109
403.690234	63.455683
404.124684	60.335889
404.559123	57.071786
404.993549	54.048566
405.427963	50.860499
405.862365	47.953637
406.296754	45.123337
406.731131	42.644347
407.165496	40.211456
407.599849	37.976952
408.034190	35.904941
408.468518	34.133613
408.902833	32.408982
409.337137	30.665039
409.771428	28.995408
410.205706	27.487973
410.639973	26.209904
411.074226	25.000742
411.508467	24.019821
411.942696	23.042128
412.376912	22.150306
412.811116	21.455155
413.245307	20.764544
413.679486	20.153390
414.113652	19.557565
414.547805	18.977320
414.981946	18.497285
415.416074	18.115966
415.850190	17.861290
416.284293	17.638065
416.718383	17.422895
417.152460	17.205588
417.586525	17.080520
418.020577	16.938274
418.454616	16.811393
418.888643	16.738750
419.322656	16.694951
419.756657	16.724595
420.190645	16.682045
420.624620	16.705680
421.058582	16.729593
421.492531	16.766737
421.926468	16.786182
422.360391	16.830060
422.794301	16.975116
423.228199	17.130899
423.662083	17.267813
424.095955	17.429234
424.529813	17.618328
424.963658	17.863489
425.397491	18.094469
425.831310	18.341854
426.265116	18.612616
426.698909	18.860420
427.132689	19.123635
427.566455	19.420160
428.000209	19.762636
428.433949	20.059561
428.867676	20.386707
429.301389	20.719138
429.735090	21.054615
430.168777	21.405115
430.602451	21.733277
431.036111	22.079610
431.469759	22.452267
431.903392	22.808556
432.337013	23.153074
432.770620	23.540929
433.204213	23.893986
433.637794	24.284958
434.071360	24.655928
434.504914	25.035169
434.938453	25.434217
435.371979	25.819419
435.805492	26.226619
436.238991	26.595514
436.672477	26.947670
437.105949	27.341218
437.539407	27.717445
437.972852	28.081350
438.406283	28.409079
438.839700	28.767160
439.273104	29.136737
439.706494	29.459809
440.139871	29.812678
440.573233	30.112908
441.006582	30.460086
441.439917	30.769539
441.873238	31.088915
442.306546	31.385829
442.739839	31.653645
443.173119	31.908261
443.606385	32.167935
444.039636	32.441346
444.472874	32.692410
444.906099	32.920615
445.339309	33.176106
445.772505	33.432534
446.205687	33.650496
446.638855	33.867451
447.072009	34.073793
447.505149	34.253144
447.938275	34.460382
448.371387	34.631796
448.804485	34.799203
449.237569	34.948489
449.670638	35.107176
450.103694	35.244694
450.536735	35.380516
450.969762	35.483802
451.402774	35.605642
451.835773	35.725785
452.268757	35.842538
452.701727	35.920060
453.134683	35.995533
453.567624	36.087517
454.000551	36.200082
454.433464	36.240256
454.866362	36.303654
455.299246	36.356980
455.732116	36.397194
456.164971	36.464154
456.597811	36.543362
457.030638	36.583584
457.463449	36.640142
457.896246	36.677254
458.329029	36.719751
458.761797	36.745132
459.194551	36.773509
459.627290	36.789023
460.060014	36.806372
460.492724	36.819189
460.925419	36.840969
461.358099	36.848222
461.790765	36.838070
462.223416	36.822388
462.656052	36.808421
463.088674	36.790972
463.521281	36.790629
463.953873	36.773459
464.386450	36.750086
464.819012	36.728388
465.251560	36.698388
465.684093	36.662669
466.116611	36.649108
466.549114	36.639648
466.981602	36.601303
467.414075	36.554656
467.846533	36.517777
468.278977	36.456063
468.711405	36.417271
469.143818	36.390480
469.576216	36.346176
470.008600	36.283126
470.440968	36.235133
470.873321	36.186092
471.305659	36.127586
471.737982	36.084937
472.170289	36.032168
472.602582	35.955104
473.034859	35.896271
473.467122	35.809340
473.899369	35.731649
474.331600	35.663254
474.763817	35.578315
475.196018	35.519907
475.628204	35.461619
476.060375	35.394749
476.492530	35.307100
476.924670	35.240658
477.356795	35.150141
477.788904	35.080948
478.220998	34.989945
478.653076	34.905643
479.085139	34.808155
479.517186	34.704562
479.949219	34.589556
480.381235	34.489652
480.813236	34.400393
481.245221	34.311358
481.677191	34.229225
482.109146	34.112474
482.541084	33.992654
482.973008	33.862023
483.404915	33.738986
483.836807	33.606052
484.268683	33.450739
484.700544	33.298921
485.132388	33.153525
485.564217	32.991445
485.996031	32.832233
486.427828	32.668628
486.859610	32.527971
487.291376	32.363171
487.723126	32.189399
488.154860	32.008829
488.586579	31.817999
489.018281	31.638744
489.449968	31.444606
489.881639	31.257937
490.313293	31.045377
490.744932	30.846145
491.176555	30.618383
491.608162	30.394971
492.039753	30.170778
492.471328	29.938118
492.902886	29.697560
493.334429	29.464090
493.765956	29.214952
494.197466	28.956658
494.628960	28.701328
495.060439	28.439531
495.491901	28.193357
495.923347	27.932756
496.354776	27.683947
496.786190	27.425672
497.217587	27.184584
497.648968	26.949350
498.080332	26.717590
498.511681	26.472023
498.943013	26.247143
499.374328	26.034169
499.805628	25.826859
500.236911	25.632040
500.668177	25.460860
501.099427	25.299141
501.530661	25.148850
501.961878	25.023085
502.393079	24.900274
502.824264	24.810427
503.255431	24.725712
503.686583	24.658064
504.117717	24.625755
504.548835	24.606592
504.979937	24.599125
505.411022	24.597454
505.842090	24.619478
506.273142	24.662087
506.704177	24.709779
507.135195	24.768426
507.566197	24.848084
507.997182	24.932998
508.428150	25.038718
508.859102	25.143750
509.290036	25.262148
509.720954	25.383993
510.151855	25.515179
510.582739	25.650313
511.013607	25.784384
511.444457	25.921423
511.875291	26.077363
512.306107	26.222630
512.736907	26.374739
513.167690	26.536557
513.598456	26.694402
514.029205	26.865419
514.459936	27.045406
514.890651	27.248759
515.321349	27.439742
515.752030	27.649326
516.182693	27.845320
516.613340	28.054491
517.043969	28.264675
517.474582	28.457881
517.905177	28.662683
518.335755	28.859386
518.766315	29.061993
519.196859	29.265248
519.627385	29.454571
520.057894	29.659089
520.488386	29.871761
520.918860	30.086216
521.349318	30.325149
521.779757	30.569387
522.210180	30.834476
522.640585	31.114985
523.070973	31.406060
523.501343	31.713403
523.931696	32.030709
524.362031	32.357228
524.792349	32.697995
525.222650	33.040562
525.652933	33.398945
526.083198	33.769428
526.513446	34.151549
526.943677	34.552016
527.373890	34.963343
527.804085	35.403150
528.234262	35.849221
528.664422	36.338658
529.094565	36.823938
529.524689	37.350459
529.954796	37.899061
530.384885	38.475503
530.814957	39.051481
531.245011	39.639543
531.675047	40.238612
532.105065	40.852157
532.535065	41.467264
532.965048	42.096630
533.395013	42.720318
533.824959	43.340859
534.254888	43.959152
534.684799	44.593430
535.114693	45.232934
535.544568	45.870775
535.974425	46.502322
536.404264	47.148640
536.834086	47.795058
537.263889	48.444404
537.693674	49.099765
538.123441	49.771455
538.553190	50.438409
538.982921	51.120186
539.412634	51.791357
539.842329	52.446367
540.272006	53.091370
540.701664	53.717741
541.131304	54.319326
541.560926	54.902368
541.990530	55.456596
542.420116	55.994823
542.849683	56.500365
543.279232	56.984062
543.708763	57.458893
544.138275	57.924299
544.567769	58.399951
544.997245	58.857549
545.426702	59.329598
545.856141	59.805721
546.285562	60.301873
546.714964	60.795208
547.144347	61.308125
547.573713	61.835854
548.003059	62.350450
548.432387	62.871523
548.861697	63.397632
549.290988	63.913088
549.720260	64.418712
550.149514	64.899499
550.578750	65.370248
551.007966	65.829281
551.437164	66.261010
551.866344	66.696323
552.295504	67.121525
552.724646	67.537624
553.153769	67.956122
553.582874	68.373452
554.011960	68.791700
554.441027	69.218046
554.870075	69.647859
555.299104	70.068069
555.728115	70.505189
556.157106	70.945659
556.586079	71.374940
557.015033	71.784480
557.443968	72.173945
557.872884	72.555393
558.301781	72.949106
558.730659	73.278820
559.159518	73.601654
559.588358	73.897317
560.017180	74.174127
560.445982	74.422677
560.874765	74.655906
561.303528	74.873607
561.732273	75.070148
562.160999	75.241863
562.589705	75.419588
563.018393	75.585870
563.447061	75.752562
563.875710	75.916728
564.304340	76.081165
564.732950	76.249147
565.161542	76.403960
565.590114	76.566670
566.018666	76.734990
566.447200	76.908296
566.875714	77.087873
567.304208	77.276668
567.732684	77.450146
568.161140	77.615505
568.589576	77.784142
569.017993	77.945995
569.446391	78.101655
569.874769	78.249219
570.303128	78.399084
570.731467	78.563943
571.159787	78.712626
571.588087	78.841727
572.016368	79.014761
572.444629	79.181627
572.872870	79.343399
573.301092	79.522745
573.729294	79.701279
574.157476	79.881747
574.585639	80.073915
575.013782	80.263728
575.441906	80.467475
575.870009	80.673418
576.298093	80.878836
576.726157	81.094491
577.154202	81.303929
577.582226	81.502277
578.010231	81.707190
578.438216	81.917801
578.866181	82.115701
579.294126	82.301527
579.722051	82.471320
580.149957	82.637827
580.577842	82.779762
581.005707	82.921699
581.433553	83.075449
581.861378	83.206135
582.289184	83.323064
582.716969	83.421902
583.144734	83.520074
583.572479	83.610984
584.000205	83.675644
584.427910	83.732019
584.855594	83.803680
585.283259	83.828076
585.710904	83.862145
586.138528	83.891800
586.566132	83.899194
586.993716	83.899747
587.421280	83.884781
587.848823	83.872709
588.276346	83.856754
588.703849	83.816334
589.131332	83.759596
589.558794	83.694205
589.986236	83.607174
590.413657	83.532266
590.841058	83.438802
591.268438	83.325887
591.695799	83.201215
592.123138	83.071805
592.550458	82.945487
592.977756	82.822508
593.405034	82.689298
593.832292	82.557383
594.259529	82.413591
594.686746	82.257222
595.113942	82.117537
595.541117	81.973304
595.968272	81.841999
596.395406	81.713136
596.822519	81.577187
597.249612	81.464742
597.676684	81.348899
598.103735	81.221525
598.530766	81.122856
598.957775	81.008767
599.384764	80.905976
599.811733	80.819374
600.238680	80.732444
600.665606	80.643801
601.092512	80.547474
601.519397	80.447276
601.946261	80.359024
602.373104	80.271448
602.799926	80.181200
603.226727	80.100756
603.653507	79.990078
604.080266	79.884909
604.507004	79.778583
604.933721	79.663383
605.360417	79.549010
605.787092	79.415548
606.213746	79.280114
606.640379	79.131323
607.066991	78.978353
607.493581	78.812678
607.920150	78.649343
608.346699	78.466337
608.773226	78.294472
609.199731	78.090976
609.626216	77.867805
610.052679	77.636854
610.479121	77.386319
610.905542	77.129022
611.331941	76.858588
611.758319	76.561586
612.184676	76.265421
612.611011	75.938949
613.037325	75.582876
613.463617	75.218463
613.889888	74.839733
614.316138	74.437491
614.742366	74.024484
615.168573	73.590959
615.594758	73.134843
616.020921	72.666207
616.447063	72.164548
616.873184	71.654414
617.299283	71.134702
617.725360	70.604093
618.151416	70.058593
618.577450	69.485005
619.003462	68.913213
619.429453	68.321335
619.855422	67.730178
620.281369	67.134427
620.707295	66.535636
621.133199	65.925508
621.559081	65.316025
621.984941	64.692985
622.410779	64.085560
622.836596	63.479426
623.262391	62.868440
623.688163	62.261563
624.113914	61.653154
624.539644	61.051531
624.965351	60.465474
625.391036	59.867866
625.816699	59.289908
626.242340	58.716660
626.667960	58.151005
627.093557	57.584117
627.519132	57.037898
627.944685	56.494182
628.370216	55.964979
628.795725	55.461932
629.221212	54.959630
629.646677	54.494910
630.072119	54.056178
630.497540	53.632344
630.922938	53.233725
631.348314	52.861479
631.773668	52.513106
632.198999	52.199126
632.624308	51.906037
633.049595	51.633849
633.474860	51.392589
633.900102	51.170062
634.325322	50.974505
634.750520	50.800112
635.175695	50.646307
635.600848	50.510814
636.025978	50.396423
636.451086	50.309935
636.876171	50.240558
637.301234	50.180612
637.726275	50.127226
638.151293	50.095486
638.576288	50.072454
639.001261	50.051496
639.426211	50.045198
639.851139	50.042888
640.276044	50.060759
640.700927	50.073040
641.125787	50.093653
641.550624	50.121183
641.975438	50.149726
642.400230	50.189974
642.824999	50.216908
643.249745	50.236024
643.674469	50.264953
644.099169	50.287350
644.523847	50.308605
644.948502	50.323109
645.373135	50.330061
645.797744	50.336425
646.222330	50.346408
646.646894	50.336925
647.071435	50.331238
647.495953	50.311420
647.920447	50.297073
648.344919	50.264100
648.769368	50.217126
649.193794	50.175301
649.618197	50.115283
650.042576	50.042967
650.466933	49.967133
650.891267	49.886190
651.315577	49.785766
651.739864	49.684260
652.164129	49.576948
652.588370	49.456696
653.012587	49.322388
653.436782	49.183413
653.860953	49.040762
654.285102	48.886313
654.709226	48.724023
655.133328	48.549172
655.557406	48.363437
655.981461	48.182884
656.405493	48.011660
656.829501	47.822791
657.253486	47.638258
657.677448	47.445846
658.101386	47.271304
658.525301	47.095136
658.949192	46.923357
659.373060	46.754526
659.796904	46.605290
660.220725	46.464453
660.644522	46.337183
661.068296	46.217402
661.492046	46.116339
661.915772	46.039261
662.339475	45.969317
662.763154	45.914179
663.186810	45.880152
663.610442	45.860905
664.034050	45.870603
664.457635	45.892066
664.881196	45.944103
665.304733	46.009862
665.728247	46.101471
666.151736	46.223925
666.575202	46.358094
666.998644	46.510791
667.422062	46.692497
667.845457	46.885054
668.268827	47.103117
668.692174	47.347718
669.115496	47.614033
669.538795	47.895634
669.962070	48.219478
670.385321	48.558880
670.808547	48.931476
671.231750	49.313397
671.654929	49.710227
672.078084	50.144526
672.501214	50.588405
672.924321	51.054260
673.347404	51.536613
673.770462	52.027359
674.193496	52.521165
674.616506	53.026454
675.039492	53.534444
675.462454	54.037036
675.885391	54.544376
676.308305	55.049676
676.731194	55.559337
677.154058	56.050493
677.576899	56.549015
677.999715	57.024824
678.422507	57.490144
678.845274	57.952850
679.268017	58.400856
679.690736	58.848461
680.113430	59.282157
680.536100	59.705360
680.958746	60.123211
681.381367	60.538289
681.803963	60.942451
682.226535	61.332895
682.649083	61.718554
683.071605	62.087346
683.494104	62.447468
683.916578	62.795539
684.339027	63.135586
684.761451	63.468308
685.183851	63.770600
685.606227	64.077320
686.028577	64.357836
686.450903	64.636574
686.873204	64.901658
687.295481	65.155373
687.717733	65.386705
688.139959	65.601796
688.562162	65.814944
688.984339	66.011511
689.406492	66.193031
689.828619	66.352339
690.250722	66.509244
690.672800	66.639827
691.094853	66.760123
691.516881	66.881419
691.938884	66.989568
692.360863	67.084695
692.782816	67.159998
693.204744	67.234316
693.626647	67.286638
694.048526	67.343744
694.470379	67.383911
694.892207	67.417935
695.314010	67.440316
695.735788	67.457899
696.157540	67.473477
696.579268	67.482425
697.000970	67.486365
697.422648	67.488122
697.844300	67.475615
698.265926	67.474381
698.687528	67.475212
699.109104	67.478460
699.530655	67.467877
699.952181	67.472138
700.373681	67.490233
700.795156	67.513629
701.216606	67.551247
701.638030	67.587993
702.059429	67.634361
702.480803	67.701382
702.902151	67.785516
703.323473	67.874259
703.744770	67.981442
704.166042	68.108705
704.587288	68.250784
705.008509	68.403670
705.429704	68.585448
705.850873	68.790499
706.272017	69.005571
706.693135	69.262440
707.114228	69.524534
707.535295	69.798905
707.956336	70.095107
708.377352	70.429056
708.798342	70.777697
709.219306	71.137608
709.640245	71.522882
710.061157	71.927706
710.482044	72.339438
710.902905	72.770811
711.323741	73.214132
711.744550	73.655755
712.165334	74.116827
712.586092	74.592798
713.006823	75.079086
713.427529	75.566807
713.848209	76.071315
714.268863	76.578756
714.689492	77.091017
715.110094	77.616207
715.530670	78.135465
715.951220	78.659537
716.371744	79.189690
716.792242	79.734495
717.212714	80.269019
717.633159	80.809577
718.053579	81.346361
718.473973	81.873984
718.894340	82.403871
719.314681	82.935619
719.734996	83.448255
720.155285	83.964245
720.575547	84.471885
720.995784	84.973107
721.415994	85.447028
721.836177	85.907604
722.256335	86.359854
722.676466	86.780443
723.096570	87.176355
723.516649	87.579163
723.936701	87.958229
724.356726	88.321581
724.776725	88.666740
725.196698	88.987673
725.616644	89.296700
726.036564	89.569809
726.456457	89.832040
726.876324	90.067915
727.296164	90.295390
727.715977	90.524085
728.135764	90.722832
728.555525	90.926037
728.975258	91.116547
729.394966	91.298347
729.814646	91.456745
730.234300	91.621102
730.653927	91.784270
731.073527	91.934242
731.493101	92.081185
731.912648	92.223707
732.332168	92.361339
732.751661	92.494402
733.171128	92.616461
733.590568	92.747658
734.009980	92.864309
734.429366	93.007137
734.848726	93.141847
735.268058	93.287145
735.687363	93.447535
736.106641	93.616304
736.525893	93.771697
736.945117	93.932547
737.364314	94.104753
737.783485	94.286597
738.202628	94.474168
738.621744	94.658454
739.040834	94.852334
739.459896	95.055040
739.878931	95.268243
740.297939	95.464061
740.716919	95.657308
741.135873	95.878981
741.554799	96.083244
741.973698	96.295404
742.392570	96.498860
742.811415	96.710694
743.230232	96.909031
743.649022	97.101125
744.067785	97.293970
744.486521	97.489268
744.905229	97.683334
745.323909	97.862770
745.742563	98.030564
746.161189	98.210319
746.579787	98.381303
746.998358	98.550622
747.416902	98.692352
747.835418	98.838257
748.253907	98.983743
748.672368	99.104558
749.090802	99.227301
749.509208	99.343420
749.927586	99.476221
750.345937	99.586929
750.764261	99.692637
751.182556	99.792525
751.600824	99.891617
752.019065	100.003853
752.437277	100.099865
752.855462	100.203222
753.273620	100.310030
753.691749	100.418476
754.109851	100.513241
754.527925	100.608989
754.945971	100.700717
755.363989	100.797651
755.781980	100.908263
756.199943	101.009540
756.617877	101.107476
757.035784	101.218225
757.453663	101.324971
757.871514	101.425455
758.289337	101.550891
758.707132	101.677752
759.124899	101.795522
759.542639	101.923118
759.960350	102.058791
760.378033	102.191991
760.795688	102.314203
761.213314	102.427073
761.630913	102.561847
762.048484	102.695935
762.466026	102.826716
762.883541	102.942575
763.301027	103.056112
763.718485	103.173708
764.135914	103.290264
764.553316	103.415399
764.970689	103.526188
765.388034	103.617698
765.805351	103.702446
766.222639	103.795025
766.639899	103.873069
767.057131	103.955794
767.474334	104.018100
767.891509	104.083167
768.308655	104.153542
768.725773	104.198365
769.142863	104.268415
769.559924	104.321987
769.976957	104.382374
770.393961	104.425927
770.810936	104.470064
771.227883	104.477605
771.644802	104.509605
772.061692	104.524499
772.478553	104.525062
772.895386	104.526901
773.312190	104.532552
773.728965	104.540842
774.145712	104.543760
774.562430	104.529676
774.979119	104.501622
775.395780	104.470305
775.812411	104.438630
776.229014	104.390431
776.645589	104.335499
777.062134	104.296262
777.478651	104.237195
777.895138	104.157444
778.311597	104.094626
778.728027	104.019605
779.144428	103.943400
779.560800	103.858530
779.977143	103.758614
780.393458	103.670182
780.809743	103.572671
781.225999	103.470226
781.642226	103.375085
782.058425	103.277282
782.474594	103.163965
782.890734	103.036743
783.306845	102.934262
783.722926	102.810781
784.138979	102.706358
784.555003	102.594891
784.970997	102.483710
785.386962	102.370187
785.802898	102.251437
786.218805	102.128496
786.634682	102.004403
787.050531	101.881183
787.466349	101.763114
787.882139	101.642583
788.297899	101.529838
788.713630	101.408868
789.129332	101.301693
789.545004	101.202044
789.960647	101.088698
790.376260	100.979469
790.791844	100.881531
791.207399	100.791628
791.622924	100.704357
792.038419	100.616296
792.453885	100.522733
792.869321	100.441819
793.284728	100.374930
793.700106	100.299316
794.115453	100.235208
794.530771	100.154825
794.946060	100.086217
795.361319	100.023524
795.776548	99.968775
796.191747	99.912140
796.606917	99.846587
797.022057	99.797383
797.437167	99.726837
797.852248	99.682245
798.267298	99.650303
798.682319	99.629666
799.097310	99.613435
799.512271	99.591035
799.927203	99.567288
800.342104	99.571278
800.756976	99.563806
801.171818	99.562484
801.586629	99.585685
802.001411	99.610071
802.416163	99.633602
802.830885	99.673663
803.245577	99.708147
803.660238	99.761728
804.074870	99.794476
804.489472	99.826253
804.904043	99.872752
805.318585	99.940004
805.733096	99.986629
806.147577	100.039340
806.562028	100.086320
806.976449	100.120579
807.390840	100.174456
807.805200	100.200341
808.219530	100.236368
808.633830	100.280650
809.048100	100.297452
809.462339	100.329926
809.876548	100.364512
810.290727	100.412140
810.704875	100.441122
811.118993	100.453229
811.533080	100.466091
811.947137	100.460314
812.361164	100.470175
812.775160	100.461904
813.189126	100.428288
813.603061	100.420115
814.016966	100.400669
814.430840	100.366048
814.844684	100.323377
815.258497	100.265231
815.672280	100.194254
816.086032	100.122704
816.499753	100.047597
816.913444	99.957664
817.327104	99.895694
817.740733	99.796311
818.154331	99.686439
818.567899	99.589844
818.981436	99.468091
819.394943	99.365663
819.808418	99.263689
820.221863	99.141572
820.635277	99.035061
821.048660	98.911594
821.462013	98.764008
821.875334	98.640709
822.288625	98.505271
822.701884	98.360001
823.115113	98.199635
823.528311	98.033198
823.941478	97.874277
824.354614	97.692004
824.767718	97.522239
825.180792	97.321185
825.593835	97.129728
826.006847	96.946391
826.419827	96.732532
826.832777	96.517554
827.245695	96.295539
827.658582	96.074478
828.071438	95.855761
828.484263	95.615227
828.897057	95.375610
829.309819	95.105121
829.722551	94.854758
830.135251	94.566335
830.547919	94.271052
830.960557	93.974201
831.373163	93.673586
831.785738	93.351181
832.198281	92.995720
832.610793	92.636503
833.023274	92.292768
833.435723	91.895718
833.848141	91.539502
834.260528	91.161611
834.672883	90.766188
835.085206	90.354688
835.497498	89.923092
835.909758	89.497187
836.321987	89.065236
836.734185	88.620005
837.146350	88.170289
837.558485	87.702196
837.970587	87.264635
838.382658	86.813030
838.794697	86.323839
839.206705	85.836632
839.618681	85.343547
840.030625	84.860520
840.442538	84.346546
840.854418	83.826388
841.266267	83.299320
841.678084	82.769307
842.089870	82.230082
842.501623	81.683821
842.913345	81.131904
843.325035	80.571685
843.736693	80.013344
844.148319	79.421589
844.559913	78.854955
844.971475	78.285050
845.383005	77.725623
845.794504	77.115473
846.205970	76.550055
846.617404	75.949460
847.028806	75.347299
847.440176	74.751808
847.851514	74.173376
848.262820	73.582471
848.674094	72.988075
849.085336	72.399568
849.496546	71.809895
849.907723	71.216919
850.318868	70.633565
850.729981	70.027794
851.141062	69.436676
851.552110	68.871826
851.963127	68.323444
852.374111	67.765338
852.785062	67.174061
853.195982	66.623946
853.606869	66.071223
854.017723	65.531578
854.428546	64.982874
854.839336	64.465288
855.250093	63.935833
855.660818	63.433429
856.071511	62.970646
856.482171	62.486566
856.892799	62.042830
857.303394	61.578818
857.713956	61.148128
858.124486	60.700481
858.534984	60.277680
858.945449	59.860084
859.355881	59.454634
859.766280	59.072853
860.176647	58.670712
860.586982	58.306527
860.997283	57.963800
861.407552	57.634818
861.817789	57.312601
862.227992	57.028028
862.638163	56.755010
863.048301	56.504286
863.458406	56.257363
863.868478	56.042837
864.278518	55.828557
864.688524	55.639890
865.098498	55.452839
865.508439	55.289267
865.918347	55.141122
866.328222	55.016744
866.738064	54.910799
867.147873	54.843164
867.557649	54.765221
867.967392	54.714193
868.377102	54.647465
868.786779	54.594009
869.196423	54.563692
869.606034	54.530962
870.015612	54.517909
870.425156	54.508557
870.834668	54.492624
871.244146	54.521182
871.653591	54.533433
872.063003	54.542002
872.472382	54.564642
872.881728	54.599413
873.291040	54.635692
873.700319	54.678199
874.109564	54.715710
874.518777	54.751896
874.927956	54.771629
875.337102	54.802285
875.746214	54.807421
876.155293	54.845521
876.564338	54.842536
876.973350	54.851734
877.382329	54.828776
877.791274	54.837102
878.200186	54.847676
878.609064	54.827908
879.017909	54.783328
879.426720	54.711939
879.835497	54.643203
880.244241	54.559382
880.652952	54.465574
881.061629	54.378835
881.470272	54.278617
881.878881	54.172863
882.287457	54.047844
882.695999	53.917842
883.104507	53.786115
883.512982	53.668294
883.921423	53.526970
884.329830	53.359405
884.738203	53.212278
885.146543	53.061438
885.554849	52.909665
885.963120	52.747379
886.371358	52.603061
886.779563	52.436434
887.187733	52.288376
887.595869	52.153086
888.003971	51.994786
888.412040	51.867301
888.820074	51.716448
889.228074	51.577794
889.636041	51.453818
890.043973	51.337363
890.451871	51.223780
890.859736	51.129677
891.267566	51.039865
891.675362	50.963717
892.083124	50.904489
892.490851	50.841198
892.898545	50.781282
893.306204	50.747305
893.713829	50.730033
894.121420	50.727061
894.528977	50.712958
894.936499	50.707487
895.343987	50.733971
895.751441	50.739929
896.158860	50.763044
896.566246	50.794791
896.973596	50.857231
897.380913	50.925800
897.788195	50.992688
898.195442	51.074263
898.602655	51.164738
899.009834	51.241806
899.416978	51.360297
899.824088	51.444496
900.231163	51.555298
900.638204	51.697638
901.045210	51.805790
901.452181	51.918882
901.859118	52.055817
902.266021	52.185021
902.672888	52.314267
903.079721	52.443190
903.486520	52.548073
903.893283	52.668325
904.300012	52.789201
904.706707	52.902840
905.113366	53.011265
905.519991	53.148550
905.926581	53.247945
906.333136	53.323271
906.739656	53.401117
907.146142	53.501741
907.552592	53.601855
907.959008	53.676614
908.365389	53.755054
908.771735	53.826774
909.178046	53.897256
909.584322	53.956583
909.990563	54.008958
910.396769	54.072138
910.802940	54.111248
911.209076	54.139468
911.615177	54.185029
912.021243	54.203413
912.427274	54.242432
912.833270	54.243913
913.239231	54.256709
913.645156	54.282470
914.051046	54.300602
914.456902	54.293429
914.862721	54.286852
915.268506	54.276072
915.674256	54.216669
916.079970	54.191166
916.485649	54.170591
916.891292	54.124091
917.296901	54.091275
917.702474	54.037882
918.108011	53.985177
918.513514	53.947589
918.918980	53.912556
919.324412	53.838118
919.729808	53.733634
920.135169	53.649096
920.540494	53.585012
920.945783	53.525545
921.351037	53.440871
921.756256	53.333142
922.161439	53.236696
922.566586	53.139467
922.971698	53.006933
923.376775	52.891125
923.781815	52.783886
924.186820	52.663530
924.591790	52.532860
924.996723	52.415643
925.401621	52.283681
925.806484	52.145984
926.211310	51.998313
926.616101	51.855456
927.020856	51.692695
927.425575	51.543221
927.830259	51.385227
928.234906	51.267322
928.639518	51.120781
929.044094	50.967199
929.448634	50.818844
929.853138	50.670205
930.257606	50.532738
930.662038	50.356579
931.066434	50.181168
931.470795	50.023893
931.875119	49.900872
932.279407	49.783349
932.683659	49.639671
933.087875	49.476791
933.492055	49.334556
933.896199	49.170885
934.300307	49.025822
934.704379	48.877212
935.108414	48.724345
935.512414	48.596969
935.916377	48.446760
936.320304	48.295629
936.724195	48.140683
937.128049	48.016185
937.531867	47.902480
937.935649	47.787358
938.339395	47.680879
938.743104	47.576616
939.146777	47.465930
939.550414	47.379687
939.954014	47.313710
940.357578	47.223858
940.761105	47.137961
941.164596	47.060305
941.568050	46.995501
941.971468	46.942195
942.374850	46.870199
942.778195	46.793944
943.181503	46.740672
943.584775	46.728881
943.988010	46.668109
944.391209	46.596083
944.794371	46.571965
945.197496	46.572730
945.600585	46.535843
946.003637	46.497357
946.406653	46.460551
946.809632	46.434676
947.212574	46.445273
947.615479	46.437641
948.018347	46.435239
948.421179	46.452254
948.823974	46.469947
949.226732	46.467146
949.629453	46.474370
950.032138	46.461832
950.434785	46.439753
950.837396	46.413769
951.239969	46.383750
951.642506	46.389338
952.045006	46.406835
952.447469	46.358871
952.849895	46.359810
953.252283	46.356606
953.654635	46.327968
954.056950	46.253705
954.459227	46.203513
954.861468	46.167534
955.263671	46.128194
955.665838	46.096325
956.067967	46.060914
956.470059	46.009952
956.872114	45.957569
957.274131	45.883485
957.676112	45.794183
958.078055	45.741539
958.479961	45.659030
958.881829	45.621646
959.283661	45.585658
959.685455	45.476146
960.087211	45.372501
960.488931	45.271245
960.890613	45.178152
961.292257	45.061981
961.693864	44.949294
962.095434	44.804688
962.496966	44.653461
962.898461	44.549826
963.299918	44.392903
963.701338	44.281835
964.102720	44.161076
964.504065	44.017950
964.905372	43.876640
965.306641	43.741466
965.707873	43.596503
966.109068	43.443238
966.510224	43.352672
966.911343	43.223497
967.312425	43.070741
967.713468	42.953012
968.114474	42.855921
968.515442	42.708713
968.916373	42.615163
969.317265	42.501471
969.718120	42.394331
970.118937	42.256760
970.519716	42.146398
970.920458	42.014582
971.321161	41.892073
971.721827	41.753628
972.122454	41.676128
972.523044	41.621301
972.923596	41.531050
973.324110	41.442022
973.724585	41.336350
974.125023	41.279031
974.525423	41.218643
974.925785	41.164956
975.326108	41.142590
975.726394	41.102796
976.126642	41.067934
976.526851	41.020092
976.927022	40.962817
977.327155	40.987926
977.727250	40.961309
978.127307	40.923994
978.527325	40.964794
978.927306	40.949490
979.327248	41.006827
979.727151	41.072437
980.127017	41.053529
980.526844	41.007181
980.926633	40.998869
981.326383	41.067840
981.726095	41.063790
982.125769	41.068665
982.525404	41.107391
982.925001	41.178630
983.324560	41.258248
983.724079	41.313381
984.123561	41.395876
984.523004	41.487384
984.922408	41.478532
985.321774	41.530074
985.721102	41.578227
986.120390	41.689010
986.519641	41.711023
986.918852	41.810620
987.318025	41.906475
987.717159	41.940120
988.116255	42.025440
988.515312	42.147796
988.914330	42.165379
989.313310	42.295490
989.712250	42.315553
990.111152	42.436236
990.510015	42.509067
990.908840	42.579175
991.307625	42.720458
991.706372	42.744334
992.105080	42.748220
992.503749	42.886235
992.902379	42.983820
993.300970	43.093643
993.699522	43.004971
994.098035	43.051591
994.496510	43.159663
994.894945	43.307475
995.293341	43.192336
995.691698	43.245590
996.090016	43.312964
996.488296	43.400186
996.886535	43.450458
997.284736	43.554758
997.682898	43.718628
998.081021	43.739892
998.479104	43.848588
998.877148	43.972391
999.275153	44.074876
999.673119	44.078622
1000.071046	44.147389
1000.468933	44.296329
1000.866781	44.317546
1001.264590	44.490918
1001.662359	44.411860
1002.060089	44.610581
1002.457780	44.626577
1002.855431	44.724756
1003.253043	44.614491
1003.650615	44.678181
1004.048148	44.746211
1004.445642	44.885889
1004.843096	44.988967
1005.240511	45.273432
1005.637886	45.158748
1006.035221	45.384467
1006.432517	45.667484
1006.829774	45.835876
1007.226991	45.854188
1007.624168	46.374952
1008.021306	46.671338
1008.418404	47.000496
1008.815462	47.248366
1009.212481	47.341239
1009.609460	47.859597
1010.006399	48.017176
1010.403298	48.372989
1010.800158	48.589325
1011.196978	48.995099
1011.593758	49.375000
1011.990498	49.973658
1012.387199	50.535941
1012.783860	50.940096
1013.180480	51.089339
1013.577061	51.741659
1013.973602	52.761287
1014.370103	53.086155
1014.766564	53.445555
1015.162985	53.886996
1015.559366	54.504391
1015.955708	54.775604
1016.352009	55.198648
1016.748270	55.750099
1017.144491	56.194925
1017.540671	56.464499
1017.936812	57.551020
1018.332913	58.078547
1018.728973	58.647648
1019.124994	59.127625
1019.520974	60.025421
1019.916914	60.027520
1020.312814	60.368490
