Time1=100ms:Average1=5:Objective=10X:Aperture=1: (11/21/2018 11:39:38 AM)
11/21/2018 11:39:38 AM
Reflectance
10X
Ap#: 1
Avg1: 5.000000
Avg2: 0.000000
Int.Time1:100.000000

350.166136	94.796685
350.601937	94.963169
351.037728	95.394001
351.473509	95.623168
351.909281	95.847294
352.345042	95.579829
352.780794	95.448967
353.216536	95.558959
353.652267	95.519182
354.087989	94.932053
354.523701	94.713207
354.959403	94.339815
355.395095	94.506280
355.830777	94.964835
356.266449	95.058703
356.702110	94.496808
357.137762	94.938385
357.573404	94.649995
358.009035	94.317600
358.444656	94.422761
358.880268	94.660494
359.315869	94.786193
359.751459	94.690356
360.187040	94.716787
360.622610	95.192407
361.058170	95.062365
361.493720	95.291688
361.929260	95.825584
362.364789	95.290973
362.800308	95.388250
363.235816	95.849212
363.671314	95.967576
364.106802	96.365876
364.542279	96.279594
364.977746	96.576614
365.413203	97.084970
365.848649	96.684227
366.284084	96.486016
366.719509	96.154635
367.154924	96.940138
367.590328	97.215682
368.025721	97.205160
368.461104	98.041628
368.896477	98.392382
369.331838	97.911548
369.767189	97.352673
370.202530	97.140815
370.637859	96.461787
371.073178	96.920895
371.508486	96.846481
371.943784	96.934321
372.379071	96.421330
372.814347	96.552426
373.249612	97.252188
373.684866	96.727603
374.120110	96.934129
374.555343	97.157309
374.990565	97.291855
375.425776	97.434866
375.860976	97.964530
376.296165	97.310907
376.731343	97.284297
377.166511	96.984925
377.601667	96.977280
378.036812	96.680706
378.471946	96.513138
378.907070	96.141575
379.342182	96.496815
379.777283	96.815604
380.212373	96.693476
380.647452	96.301424
381.082520	96.058870
381.517576	95.896627
381.952622	95.878029
382.387656	96.238651
382.822679	96.700887
383.257691	97.397658
383.692692	97.419291
384.127681	97.908117
384.562659	97.506953
384.997626	97.729076
385.432581	97.407334
385.867525	97.992719
386.302458	97.767114
386.737379	97.599922
387.172289	97.592484
387.607188	97.358197
388.042075	97.509728
388.476951	97.664234
388.911815	97.870064
389.346668	98.296505
389.781509	99.208598
390.216338	99.510907
390.651157	100.195236
391.085963	100.549235
391.520758	100.753572
391.955541	100.784391
392.390313	100.214029
392.825073	100.107004
393.259821	100.313142
393.694558	100.717939
394.129283	100.303060
394.563996	100.657766
394.998698	101.085562
395.433388	100.700980
395.868066	100.063310
396.302732	99.956102
396.737386	99.596186
397.172029	99.801029
397.606659	99.472717
398.041278	99.098969
398.475885	98.789126
398.910480	98.689165
399.345063	97.699684
399.779634	97.009407
400.214194	95.761035
400.648741	95.058759
401.083276	93.208369
401.517799	91.341637
401.952310	88.895395
402.386809	86.112345
402.821296	82.631762
403.255771	79.634629
403.690234	76.752275
404.124684	73.053099
404.559123	69.573866
404.993549	66.538316
405.427963	63.508839
405.862365	60.360200
406.296754	57.675651
406.731131	55.118940
407.165496	52.690953
407.599849	50.286492
408.034190	48.030598
408.468518	45.896001
408.902833	44.045812
409.337137	42.385960
409.771428	40.863315
410.205706	39.277796
410.639973	37.999265
411.074226	36.887450
411.508467	35.807865
411.942696	34.858287
412.376912	34.053619
412.811116	33.371445
413.245307	32.705815
413.679486	32.096392
414.113652	31.418337
414.547805	30.874440
414.981946	30.392037
415.416074	29.964387
415.850190	29.622216
416.284293	29.303262
416.718383	29.019655
417.152460	28.638755
417.586525	28.391865
418.020577	28.138260
418.454616	27.895967
418.888643	27.704353
419.322656	27.551312
419.756657	27.379740
420.190645	27.202966
420.624620	27.066190
421.058582	26.936379
421.492531	26.812646
421.926468	26.695037
422.360391	26.587548
422.794301	26.484888
423.228199	26.408476
423.662083	26.352799
424.095955	26.282440
424.529813	26.219350
424.963658	26.154597
425.397491	26.087595
425.831310	26.015558
426.265116	25.933240
426.698909	25.879664
427.132689	25.788484
427.566455	25.785601
428.000209	25.755839
428.433949	25.689486
428.867676	25.645083
429.301389	25.574950
429.735090	25.496215
430.168777	25.409323
430.602451	25.351232
431.036111	25.238369
431.469759	25.166390
431.903392	25.070564
432.337013	24.936932
432.770620	24.833240
433.204213	24.723645
433.637794	24.648332
434.071360	24.541100
434.504914	24.441023
434.938453	24.382662
435.371979	24.294266
435.805492	24.220068
436.238991	24.136604
436.672477	24.071335
437.105949	23.962261
437.539407	23.876777
437.972852	23.757316
438.406283	23.664591
438.839700	23.552431
439.273104	23.417357
439.706494	23.292286
440.139871	23.153744
440.573233	23.031867
441.006582	22.888804
441.439917	22.715164
441.873238	22.556675
442.306546	22.397839
442.739839	22.239831
443.173119	22.093162
443.606385	21.930503
444.039636	21.780337
444.472874	21.628041
444.906099	21.468760
445.339309	21.337809
445.772505	21.225666
446.205687	21.078836
446.638855	20.949479
447.072009	20.793296
447.505149	20.649087
447.938275	20.528021
448.371387	20.379320
448.804485	20.223909
449.237569	20.068697
449.670638	19.904118
450.103694	19.722459
450.536735	19.573805
450.969762	19.414896
451.402774	19.262726
451.835773	19.109436
452.268757	18.962051
452.701727	18.826750
453.134683	18.703064
453.567624	18.578208
454.000551	18.473759
454.433464	18.357752
454.866362	18.272234
455.299246	18.184541
455.732116	18.100928
456.164971	18.025407
456.597811	17.967401
457.030638	17.902252
457.463449	17.842817
457.896246	17.800273
458.329029	17.763937
458.761797	17.713751
459.194551	17.666063
459.627290	17.628121
460.060014	17.581967
460.492724	17.543558
460.925419	17.523582
461.358099	17.495373
461.790765	17.476812
462.223416	17.475746
462.656052	17.462548
463.088674	17.480168
463.521281	17.485112
463.953873	17.505514
464.386450	17.518343
464.819012	17.549153
465.251560	17.576051
465.684093	17.605144
466.116611	17.650578
466.549114	17.680511
466.981602	17.738598
467.414075	17.790592
467.846533	17.851812
468.278977	17.914542
468.711405	17.985044
469.143818	18.064248
469.576216	18.133542
470.008600	18.198598
470.440968	18.262893
470.873321	18.321157
471.305659	18.383601
471.737982	18.443120
472.170289	18.493658
472.602582	18.555716
473.034859	18.605439
473.467122	18.657622
473.899369	18.701653
474.331600	18.728047
474.763817	18.766296
475.196018	18.786550
475.628204	18.814570
476.060375	18.832108
476.492530	18.843830
476.924670	18.847520
477.356795	18.860503
477.788904	18.875006
478.220998	18.884611
478.653076	18.883963
479.085139	18.886207
479.517186	18.869550
479.949219	18.848960
480.381235	18.805402
480.813236	18.746228
481.245221	18.689091
481.677191	18.623126
482.109146	18.536838
482.541084	18.423874
482.973008	18.312875
483.404915	18.209570
483.836807	18.105636
484.268683	17.987961
484.700544	17.864032
485.132388	17.747415
485.564217	17.626101
485.996031	17.488793
486.427828	17.365747
486.859610	17.234867
487.291376	17.105235
487.723126	16.980879
488.154860	16.856281
488.586579	16.746852
489.018281	16.643888
489.449968	16.560230
489.881639	16.473663
490.313293	16.411567
490.744932	16.340322
491.176555	16.263355
491.608162	16.194069
492.039753	16.140413
492.471328	16.090525
492.902886	16.055820
493.334429	16.035200
493.765956	16.040310
494.197466	16.065064
494.628960	16.087029
495.060439	16.141415
495.491901	16.214791
495.923347	16.316701
496.354776	16.426568
496.786190	16.556795
497.217587	16.695923
497.648968	16.856653
498.080332	17.032081
498.511681	17.221849
498.943013	17.447162
499.374328	17.703502
499.805628	17.989808
500.236911	18.315903
500.668177	18.673712
501.099427	19.053091
501.530661	19.474059
501.961878	19.920301
502.393079	20.385805
502.824264	20.871296
503.255431	21.382834
503.686583	21.894265
504.117717	22.435478
504.548835	23.012975
504.979937	23.615130
505.411022	24.233315
505.842090	24.871217
506.273142	25.531621
506.704177	26.227929
507.135195	26.940872
507.566197	27.684127
507.997182	28.457148
508.428150	29.248694
508.859102	30.064396
509.290036	30.895510
509.720954	31.767219
510.151855	32.636061
510.582739	33.542375
511.013607	34.471981
511.444457	35.416302
511.875291	36.361240
512.306107	37.320243
512.736907	38.285533
513.167690	39.259717
513.598456	40.248089
514.029205	41.241032
514.459936	42.244845
514.890651	43.237789
515.321349	44.228631
515.752030	45.225112
516.182693	46.219295
516.613340	47.216746
517.043969	48.244605
517.474582	49.251604
517.905177	50.247545
518.335755	51.224281
518.766315	52.182792
519.196859	53.140059
519.627385	54.082910
520.057894	54.980505
520.488386	55.854489
520.918860	56.720054
521.349318	57.590590
521.779757	58.437851
522.210180	59.276600
522.640585	60.091823
523.070973	60.892882
523.501343	61.679442
523.931696	62.440282
524.362031	63.192608
524.792349	63.940485
525.222650	64.694636
525.652933	65.422274
526.083198	66.128627
526.513446	66.808055
526.943677	67.485101
527.373890	68.161270
527.804085	68.824028
528.234262	69.470761
528.664422	70.127683
529.094565	70.771983
529.524689	71.400951
529.954796	72.013483
530.384885	72.596126
530.814957	73.164121
531.245011	73.743119
531.675047	74.316519
532.105065	74.873784
532.535065	75.435769
532.965048	75.984838
533.395013	76.524829
533.824959	77.053891
534.254888	77.595109
534.684799	78.119174
535.114693	78.643078
535.544568	79.150990
535.974425	79.652656
536.404264	80.115183
536.834086	80.574313
537.263889	81.034499
537.693674	81.465752
538.123441	81.873824
538.553190	82.261052
538.982921	82.655662
539.412634	83.031582
539.842329	83.416898
540.272006	83.764536
540.701664	84.097991
541.131304	84.421087
541.560926	84.724227
541.990530	85.015521
542.420116	85.312845
542.849683	85.590685
543.279232	85.887081
543.708763	86.169313
544.138275	86.453230
544.567769	86.701020
544.997245	86.954245
545.426702	87.218782
545.856141	87.460642
546.285562	87.717544
546.714964	87.964400
547.144347	88.228645
547.573713	88.468936
548.003059	88.710153
548.432387	88.951280
548.861697	89.214798
549.290988	89.490908
549.720260	89.771407
550.149514	90.043757
550.578750	90.298376
551.007966	90.552500
551.437164	90.831796
551.866344	91.102047
552.295504	91.339733
552.724646	91.596106
553.153769	91.841758
553.582874	92.100297
554.011960	92.332457
554.441027	92.568384
554.870075	92.794676
555.299104	92.999096
555.728115	93.161488
556.157106	93.340950
556.586079	93.463763
557.015033	93.589323
557.443968	93.704893
557.872884	93.800965
558.301781	93.884466
558.730659	93.976002
559.159518	94.049823
559.588358	94.104374
560.017180	94.180236
560.445982	94.227893
560.874765	94.277826
561.303528	94.321253
561.732273	94.386442
562.160999	94.418910
562.589705	94.456569
563.018393	94.505723
563.447061	94.561277
563.875710	94.635828
564.304340	94.711341
564.732950	94.771137
565.161542	94.856079
565.590114	94.951896
566.018666	95.040873
566.447200	95.128331
566.875714	95.213517
567.304208	95.313282
567.732684	95.414128
568.161140	95.531004
568.589576	95.653893
569.017993	95.772924
569.446391	95.892721
569.874769	96.031436
570.303128	96.138070
570.731467	96.246785
571.159787	96.366494
571.588087	96.469497
572.016368	96.558265
572.444629	96.628215
572.872870	96.687635
573.301092	96.729895
573.729294	96.766835
574.157476	96.793369
574.585639	96.808744
575.013782	96.793239
575.441906	96.789954
575.870009	96.757568
576.298093	96.713430
576.726157	96.668119
577.154202	96.602222
577.582226	96.549603
578.010231	96.463682
578.438216	96.371274
578.866181	96.269992
579.294126	96.193449
579.722051	96.117176
580.149957	96.035296
580.577842	95.937648
581.005707	95.846701
581.433553	95.751715
581.861378	95.670120
582.289184	95.599649
582.716969	95.522941
583.144734	95.418775
583.572479	95.370985
584.000205	95.298136
584.427910	95.235570
584.855594	95.171019
585.283259	95.087754
585.710904	95.041555
586.138528	94.990279
586.566132	94.932962
586.993716	94.871196
587.421280	94.813963
587.848823	94.754383
588.276346	94.697279
588.703849	94.612416
589.131332	94.530092
589.558794	94.439290
589.986236	94.339179
590.413657	94.236387
590.841058	94.115776
591.268438	94.012819
591.695799	93.881425
592.123138	93.741320
592.550458	93.580739
592.977756	93.419563
593.405034	93.255373
593.832292	93.102121
594.259529	92.928017
594.686746	92.739210
595.113942	92.548651
595.541117	92.354906
595.968272	92.138729
596.395406	91.962292
596.822519	91.746755
597.249612	91.557058
597.676684	91.350218
598.103735	91.123703
598.530766	90.917596
598.957775	90.701372
599.384764	90.473045
599.811733	90.245317
600.238680	90.026032
600.665606	89.778271
601.092512	89.533937
601.519397	89.279927
601.946261	89.031319
602.373104	88.772892
602.799926	88.490567
603.226727	88.204301
603.653507	87.899870
604.080266	87.573011
604.507004	87.234880
604.933721	86.879276
605.360417	86.525967
605.787092	86.147350
606.213746	85.737768
606.640379	85.300757
607.066991	84.850437
607.493581	84.383295
607.920150	83.897782
608.346699	83.376198
608.773226	82.839029
609.199731	82.294222
609.626216	81.719264
610.052679	81.123891
610.479121	80.503004
610.905542	79.868873
611.331941	79.240972
611.758319	78.582445
612.184676	77.902474
612.611011	77.223547
613.037325	76.517103
613.463617	75.793215
613.889888	75.070868
614.316138	74.331817
614.742366	73.579739
615.168573	72.815276
615.594758	72.043959
616.020921	71.275847
616.447063	70.500099
616.873184	69.728126
617.299283	68.958609
617.725360	68.192077
618.151416	67.440307
618.577450	66.685169
619.003462	65.920623
619.429453	65.180719
619.855422	64.444221
620.281369	63.700569
620.707295	62.963626
621.133199	62.238431
621.559081	61.514298
621.984941	60.797556
622.410779	60.071990
622.836596	59.334981
623.262391	58.609619
623.688163	57.876172
624.113914	57.135556
624.539644	56.373902
624.965351	55.588719
625.391036	54.787975
625.816699	53.961411
626.242340	53.122071
626.667960	52.250177
627.093557	51.351386
627.519132	50.428514
627.944685	49.488518
628.370216	48.523622
628.795725	47.537798
629.221212	46.534229
629.646677	45.506499
630.072119	44.474064
630.497540	43.431044
630.922938	42.385948
631.348314	41.336165
631.773668	40.285479
632.198999	39.254041
632.624308	38.228530
633.049595	37.233622
633.474860	36.262254
633.900102	35.313169
634.325322	34.383139
634.750520	33.493310
635.175695	32.630609
635.600848	31.807342
636.025978	31.023129
636.451086	30.258749
636.876171	29.537300
637.301234	28.845718
637.726275	28.201114
638.151293	27.603004
638.576288	27.038918
639.001261	26.521274
639.426211	26.049801
639.851139	25.621039
640.276044	25.240528
640.700927	24.914351
641.125787	24.625919
641.550624	24.396650
641.975438	24.223925
642.400230	24.113632
642.824999	24.055714
643.249745	24.057081
643.674469	24.121683
644.099169	24.239871
644.523847	24.417407
644.948502	24.654906
645.373135	24.947090
645.797744	25.286394
646.222330	25.672410
646.646894	26.118970
647.071435	26.606975
647.495953	27.145434
647.920447	27.718995
648.344919	28.332173
648.769368	28.977112
649.193794	29.661389
649.618197	30.388207
650.042576	31.135692
650.466933	31.924577
650.891267	32.742757
651.315577	33.590713
651.739864	34.464439
652.164129	35.362229
652.588370	36.283656
653.012587	37.242001
653.436782	38.221946
653.860953	39.219290
654.285102	40.243649
654.709226	41.288129
655.133328	42.354331
655.557406	43.428566
655.981461	44.530917
656.405493	45.631867
656.829501	46.730670
657.253486	47.829857
657.677448	48.936921
658.101386	50.029295
658.525301	51.115491
658.949192	52.190602
659.373060	53.252664
659.796904	54.289299
660.220725	55.317451
660.644522	56.318997
661.068296	57.312683
661.492046	58.278281
661.915772	59.231925
662.339475	60.163602
662.763154	61.083960
663.186810	61.987497
663.610442	62.865620
664.034050	63.724663
664.457635	64.562803
664.881196	65.390045
665.304733	66.208632
665.728247	67.004830
666.151736	67.780856
666.575202	68.547577
666.998644	69.300266
667.422062	70.030513
667.845457	70.736311
668.268827	71.426583
668.692174	72.104800
669.115496	72.761977
669.538795	73.401529
669.962070	74.024726
670.385321	74.635888
670.808547	75.196491
671.231750	75.753796
671.654929	76.288807
672.078084	76.785399
672.501214	77.263809
672.924321	77.717027
673.347404	78.152296
673.770462	78.558792
674.193496	78.929298
674.616506	79.286169
675.039492	79.619962
675.462454	79.925693
675.885391	80.199496
676.308305	80.446185
676.731194	80.679358
677.154058	80.887155
677.576899	81.075928
677.999715	81.248530
678.422507	81.398339
678.845274	81.530823
679.268017	81.656776
679.690736	81.759094
680.113430	81.850660
680.536100	81.951941
680.958746	82.060616
681.381367	82.159537
681.803963	82.248747
682.226535	82.345947
682.649083	82.449761
683.071605	82.570014
683.494104	82.693050
683.916578	82.843285
684.339027	82.995489
684.761451	83.152056
685.183851	83.336549
685.606227	83.541463
686.028577	83.762760
686.450903	83.996698
686.873204	84.262915
687.295481	84.557224
687.717733	84.868067
688.139959	85.188727
688.562162	85.529417
688.984339	85.892312
689.406492	86.278691
689.828619	86.675571
690.250722	87.095669
690.672800	87.552606
691.094853	88.022657
691.516881	88.502019
691.938884	88.989239
692.360863	89.486733
692.782816	90.002009
693.204744	90.525390
693.626647	91.044309
694.048526	91.559791
694.470379	92.083488
694.892207	92.603110
695.314010	93.121176
695.735788	93.645844
696.157540	94.154673
696.579268	94.660631
697.000970	95.156413
697.422648	95.648230
697.844300	96.122298
698.265926	96.592041
698.687528	97.032361
699.109104	97.462128
699.530655	97.872885
699.952181	98.263079
700.373681	98.639124
700.795156	98.996208
701.216606	99.343666
701.638030	99.671930
702.059429	99.974109
702.480803	100.255604
702.902151	100.512908
703.323473	100.749723
703.744770	100.943695
704.166042	101.120196
704.587288	101.276871
705.008509	101.424656
705.429704	101.541622
705.850873	101.629580
706.272017	101.694799
706.693135	101.738926
707.114228	101.767578
707.535295	101.779243
707.956336	101.777324
708.377352	101.751311
708.798342	101.703418
709.219306	101.637704
709.640245	101.563710
710.061157	101.478509
710.482044	101.375823
710.902905	101.285749
711.323741	101.181970
711.744550	101.091312
712.165334	100.999855
712.586092	100.901824
713.006823	100.806594
713.427529	100.704815
713.848209	100.605507
714.268863	100.510706
714.689492	100.430989
715.110094	100.361354
715.530670	100.299630
715.951220	100.244562
716.371744	100.192741
716.792242	100.161231
717.212714	100.129073
717.633159	100.099468
718.053579	100.086287
718.473973	100.094378
718.894340	100.126204
719.314681	100.156783
719.734996	100.212928
720.155285	100.270814
720.575547	100.330854
720.995784	100.401712
721.415994	100.493096
721.836177	100.596566
722.256335	100.724808
722.676466	100.857279
723.096570	100.993780
723.516649	101.148020
723.936701	101.298041
724.356726	101.444912
724.776725	101.591603
725.196698	101.740700
725.616644	101.907038
726.036564	102.077654
726.456457	102.247095
726.876324	102.415949
727.296164	102.574073
727.715977	102.727586
728.135764	102.880062
728.555525	103.041721
728.975258	103.181537
729.394966	103.326198
729.814646	103.457009
730.234300	103.574986
730.653927	103.690209
731.073527	103.790869
731.493101	103.880952
731.912648	103.953583
732.332168	104.026943
732.751661	104.078445
733.171128	104.122754
733.590568	104.160204
734.009980	104.202196
734.429366	104.218558
734.848726	104.219066
735.268058	104.212207
735.687363	104.184833
736.106641	104.159257
736.525893	104.113068
736.945117	104.061797
737.364314	104.003097
737.783485	103.940780
738.202628	103.887584
738.621744	103.823448
739.040834	103.744552
739.459896	103.675594
739.878931	103.590993
740.297939	103.527337
740.716919	103.460485
741.135873	103.378748
741.554799	103.293761
741.973698	103.242287
742.392570	103.178427
742.811415	103.137523
743.230232	103.109521
743.649022	103.107761
744.067785	103.101350
744.486521	103.104767
744.905229	103.132184
745.323909	103.163384
745.742563	103.222308
746.161189	103.300075
746.579787	103.391812
746.998358	103.486722
747.416902	103.595386
747.835418	103.722987
748.253907	103.872112
748.672368	104.046353
749.090802	104.221965
749.509208	104.405496
749.927586	104.605874
750.345937	104.821057
750.764261	105.056128
751.182556	105.264850
751.600824	105.495769
752.019065	105.734563
752.437277	105.962861
752.855462	106.221061
753.273620	106.461224
753.691749	106.703096
754.109851	106.959574
754.527925	107.210463
754.945971	107.462558
755.363989	107.719325
755.781980	107.959475
756.199943	108.205429
756.617877	108.423774
757.035784	108.659357
757.453663	108.890983
757.871514	109.089027
758.289337	109.282949
758.707132	109.431870
759.124899	109.578628
759.542639	109.709426
759.960350	109.833147
760.378033	109.953760
760.795688	110.042502
761.213314	110.110993
761.630913	110.163223
762.048484	110.204618
762.466026	110.222508
762.883541	110.226679
763.301027	110.206538
763.718485	110.156279
764.135914	110.115836
764.553316	110.051644
764.970689	109.984991
765.388034	109.917144
765.805351	109.816956
766.222639	109.733322
766.639899	109.626182
767.057131	109.507437
767.474334	109.380906
767.891509	109.228094
768.308655	109.094363
768.725773	108.929131
769.142863	108.763063
769.559924	108.606817
769.976957	108.446535
770.393961	108.269488
770.810936	108.100512
771.227883	107.944080
771.644802	107.792127
772.061692	107.635060
772.478553	107.485327
772.895386	107.316905
773.312190	107.148565
773.728965	106.990701
774.145712	106.820857
774.562430	106.662435
774.979119	106.492823
775.395780	106.331285
775.812411	106.173465
776.229014	106.034197
776.645589	105.877238
777.062134	105.728465
777.478651	105.576668
777.895138	105.432165
778.311597	105.267837
778.728027	105.126732
779.144428	104.973297
779.560800	104.829994
779.977143	104.678044
780.393458	104.510785
780.809743	104.369119
781.225999	104.212686
781.642226	104.084684
782.058425	103.927376
782.474594	103.757528
782.890734	103.576626
783.306845	103.397168
783.722926	103.207976
784.138979	103.003715
784.555003	102.812723
784.970997	102.601118
785.386962	102.386707
785.802898	102.174427
786.218805	101.932586
786.634682	101.696865
787.050531	101.449386
787.466349	101.181196
787.882139	100.898686
788.297899	100.622865
788.713630	100.341771
789.129332	100.037301
789.545004	99.749491
789.960647	99.436285
790.376260	99.102219
790.791844	98.743961
791.207399	98.397292
791.622924	98.015059
792.038419	97.624025
792.453885	97.220233
792.869321	96.807188
793.284728	96.388020
793.700106	95.959512
794.115453	95.491965
794.530771	95.001949
794.946060	94.526221
795.361319	94.037786
795.776548	93.528743
796.191747	93.020738
796.606917	92.477619
797.022057	91.940523
797.437167	91.396220
797.852248	90.843237
798.267298	90.277717
798.682319	89.700842
799.097310	89.140992
799.512271	88.562350
799.927203	87.982186
800.342104	87.398212
800.756976	86.831487
801.171818	86.252618
801.586629	85.657832
802.001411	85.083377
802.416163	84.505729
802.830885	83.930613
803.245577	83.361083
803.660238	82.796367
804.074870	82.244749
804.489472	81.719230
804.904043	81.181752
805.318585	80.644829
805.733096	80.124320
806.147577	79.618916
806.562028	79.093347
806.976449	78.578240
807.390840	78.080665
807.805200	77.570081
808.219530	77.063429
808.633830	76.579067
809.048100	76.083067
809.462339	75.620428
809.876548	75.136490
810.290727	74.649484
810.704875	74.189039
811.118993	73.718127
811.533080	73.257929
811.947137	72.786179
812.361164	72.334604
812.775160	71.884232
813.189126	71.430701
813.603061	70.985613
814.016966	70.532566
814.430840	70.084834
814.844684	69.636876
815.258497	69.188849
815.672280	68.746725
816.086032	68.309693
816.499753	67.887425
816.913444	67.470305
817.327104	67.019297
817.740733	66.587622
818.154331	66.154003
818.567899	65.733651
818.981436	65.308657
819.394943	64.883594
819.808418	64.492209
820.221863	64.078298
820.635277	63.679085
821.048660	63.289540
821.462013	62.893013
821.875334	62.510084
822.288625	62.114450
822.701884	61.745385
823.115113	61.368336
823.528311	60.979774
823.941478	60.595927
824.354614	60.217611
824.767718	59.843811
825.180792	59.459661
825.593835	59.063940
826.006847	58.698917
826.419827	58.313714
826.832777	57.936527
827.245695	57.584827
827.658582	57.209272
828.071438	56.841001
828.484263	56.464294
828.897057	56.100543
829.309819	55.732400
829.722551	55.352812
830.135251	55.001960
830.547919	54.650791
830.960557	54.319670
831.373163	53.971062
831.785738	53.629916
832.198281	53.306479
832.610793	52.980339
833.023274	52.671003
833.435723	52.374020
833.848141	52.076435
834.260528	51.792312
834.672883	51.525140
835.085206	51.288657
835.497498	51.038729
835.909758	50.814806
836.321987	50.606906
836.734185	50.400580
837.146350	50.194623
837.558485	50.018697
837.970587	49.833805
838.382658	49.655705
838.794697	49.465671
839.206705	49.300460
839.618681	49.146163
840.030625	48.991378
840.442538	48.851860
840.854418	48.726184
841.266267	48.614643
841.678084	48.509927
842.089870	48.413672
842.501623	48.329171
842.913345	48.260491
843.325035	48.193424
843.736693	48.131064
844.148319	48.099102
844.559913	48.077953
844.971475	48.064064
845.383005	48.053503
845.794504	48.054946
846.205970	48.061677
846.617404	48.091140
847.028806	48.128375
847.440176	48.158333
847.851514	48.191072
848.262820	48.232404
848.674094	48.277034
849.085336	48.307435
849.496546	48.352684
849.907723	48.403934
850.318868	48.450049
850.729981	48.508780
851.141062	48.579820
851.552110	48.641330
851.963127	48.707817
852.374111	48.769790
852.785062	48.806843
853.195982	48.851132
853.606869	48.877188
854.017723	48.914723
854.428546	48.938483
854.839336	48.958245
855.250093	48.980211
855.660818	49.008929
856.071511	49.029348
856.482171	49.033086
856.892799	49.009894
857.303394	49.009441
857.713956	48.985333
858.124486	48.978286
858.534984	48.962456
858.945449	48.924638
859.355881	48.880593
859.766280	48.820729
860.176647	48.738815
860.586982	48.652845
860.997283	48.582857
861.407552	48.505790
861.817789	48.429246
862.227992	48.331279
862.638163	48.257046
863.048301	48.144686
863.458406	48.030367
863.868478	47.935996
864.278518	47.811278
864.688524	47.704077
865.098498	47.577654
865.508439	47.460978
865.918347	47.346160
866.328222	47.218087
866.738064	47.080412
867.147873	46.945406
867.557649	46.820179
867.967392	46.681578
868.377102	46.518160
868.786779	46.370163
869.196423	46.243476
869.606034	46.117479
870.015612	45.952736
870.425156	45.817583
870.834668	45.664677
871.244146	45.504523
871.653591	45.368884
872.063003	45.219658
872.472382	45.086037
872.881728	44.974031
873.291040	44.870751
873.700319	44.741517
874.109564	44.604220
874.518777	44.489765
874.927956	44.379724
875.337102	44.261296
875.746214	44.150512
876.155293	44.058262
876.564338	43.942767
876.973350	43.875565
877.382329	43.763399
877.791274	43.673142
878.200186	43.604315
878.609064	43.537645
879.017909	43.492539
879.426720	43.443399
879.835497	43.413815
880.244241	43.379195
880.652952	43.351373
881.061629	43.366490
881.470272	43.365705
881.878881	43.364312
882.287457	43.381643
882.695999	43.426873
883.104507	43.462708
883.512982	43.502231
883.921423	43.553235
884.329830	43.618383
884.738203	43.687326
885.146543	43.757442
885.554849	43.828840
885.963120	43.885591
886.371358	43.968530
886.779563	44.079788
887.187733	44.167219
887.595869	44.262935
888.003971	44.369100
888.412040	44.500164
888.820074	44.613457
889.228074	44.730714
889.636041	44.840387
890.043973	44.979879
890.451871	45.128642
890.859736	45.238760
891.267566	45.366173
891.675362	45.510512
892.083124	45.649831
892.490851	45.782849
892.898545	45.927803
893.306204	46.071569
893.713829	46.200280
894.121420	46.343029
894.528977	46.473464
894.936499	46.610889
895.343987	46.734692
895.751441	46.871270
896.158860	46.999808
896.566246	47.149811
896.973596	47.272511
897.380913	47.410996
897.788195	47.548006
898.195442	47.665667
898.602655	47.791512
899.009834	47.914681
899.416978	47.996006
899.824088	48.095125
900.231163	48.198756
900.638204	48.269249
901.045210	48.316964
901.452181	48.368531
901.859118	48.408624
902.266021	48.452454
902.672888	48.475061
903.079721	48.482497
903.486520	48.489015
903.893283	48.484437
904.300012	48.483967
904.706707	48.490354
905.113366	48.456116
905.519991	48.402692
905.926581	48.374698
906.333136	48.323280
906.739656	48.269578
907.146142	48.215924
907.552592	48.160003
907.959008	48.105720
908.365389	48.040576
908.771735	47.965261
909.178046	47.876356
909.584322	47.808862
909.990563	47.713843
910.396769	47.608472
910.802940	47.518334
911.209076	47.416958
911.615177	47.287043
912.021243	47.178887
912.427274	47.064958
912.833270	46.979460
913.239231	46.889105
913.645156	46.777931
914.051046	46.665618
914.456902	46.580414
914.862721	46.472748
915.268506	46.382518
915.674256	46.287262
916.079970	46.236200
916.485649	46.155363
916.891292	46.049522
917.296901	45.940664
917.702474	45.870676
918.108011	45.822753
918.513514	45.731030
918.918980	45.665328
919.324412	45.604006
919.729808	45.549409
920.135169	45.486860
920.540494	45.449963
920.945783	45.391178
921.351037	45.343744
921.756256	45.304284
922.161439	45.238936
922.566586	45.203340
922.971698	45.169794
923.376775	45.139519
923.781815	45.115566
924.186820	45.102083
924.591790	45.095960
924.996723	45.075195
925.401621	45.042463
925.806484	45.035000
926.211310	45.057237
926.616101	45.077878
927.020856	45.083985
927.425575	45.108581
927.830259	45.134209
928.234906	45.155187
928.639518	45.168084
929.044094	45.206458
929.448634	45.271158
929.853138	45.310682
930.257606	45.370831
930.662038	45.425473
931.066434	45.514249
931.470795	45.555620
931.875119	45.618339
932.279407	45.690865
932.683659	45.760959
933.087875	45.804182
933.492055	45.923781
933.896199	46.004675
934.300307	46.076307
934.704379	46.178028
935.108414	46.260414
935.512414	46.343480
935.916377	46.414419
936.320304	46.484692
936.724195	46.570404
937.128049	46.655953
937.531867	46.745754
937.935649	46.837678
938.339395	46.913318
938.743104	46.973676
939.146777	47.018769
939.550414	47.058735
939.954014	47.065621
940.357578	47.070792
940.761105	47.096608
941.164596	47.110000
941.568050	47.116554
941.971468	47.115585
942.374850	47.119120
942.778195	47.095778
943.181503	47.057869
943.584775	46.980167
943.988010	46.960681
944.391209	46.921186
944.794371	46.861896
945.197496	46.770445
945.600585	46.699774
946.003637	46.551761
946.406653	46.490893
946.809632	46.410114
947.212574	46.298892
947.615479	46.160820
948.018347	46.023539
948.421179	45.910348
948.823974	45.786745
949.226732	45.648229
949.629453	45.491146
950.032138	45.331595
950.434785	45.157132
950.837396	44.979573
951.239969	44.826448
951.642506	44.686503
952.045006	44.535422
952.447469	44.410654
952.849895	44.286425
953.252283	44.131038
953.654635	43.963209
954.056950	43.803181
954.459227	43.646801
954.861468	43.536404
955.263671	43.421794
955.665838	43.267041
956.067967	43.135154
956.470059	43.023910
956.872114	42.910582
957.274131	42.799518
957.676112	42.743199
958.078055	42.680383
958.479961	42.652220
958.881829	42.526958
959.283661	42.415533
959.685455	42.365756
960.087211	42.349261
960.488931	42.316464
960.890613	42.270799
961.292257	42.231526
961.693864	42.186700
962.095434	42.174446
962.496966	42.140988
962.898461	42.062807
963.299918	42.053466
963.701338	42.024897
964.102720	41.985268
964.504065	41.973020
964.905372	41.932943
965.306641	41.897191
965.707873	41.906546
966.109068	41.925498
966.510224	41.961126
966.911343	41.906708
967.312425	41.883278
967.713468	41.880423
968.114474	41.901128
968.515442	41.914938
968.916373	41.936672
969.317265	41.948969
969.718120	41.913403
970.118937	41.893557
970.519716	41.874165
970.920458	41.824257
971.321161	41.877986
971.721827	41.941766
972.122454	41.898296
972.523044	41.823505
972.923596	41.786261
973.324110	41.816114
973.724585	41.858494
974.125023	41.905536
974.525423	41.896349
974.925785	41.956025
975.326108	42.031869
975.726394	42.018876
976.126642	42.076462
976.526851	42.038760
976.927022	42.030055
977.327155	42.104942
977.727250	42.133279
978.127307	42.134058
978.527325	42.179106
978.927306	42.100323
979.327248	42.158605
979.727151	42.148045
980.127017	42.136635
980.526844	42.123864
980.926633	42.170788
981.326383	42.116727
981.726095	42.060284
982.125769	42.154146
982.525404	42.179501
982.925001	42.165318
983.324560	42.143374
983.724079	42.136741
984.123561	42.087522
984.523004	42.081887
984.922408	42.183438
985.321774	42.238020
985.721102	42.197171
986.120390	42.182030
986.519641	42.109092
986.918852	42.064713
987.318025	42.066659
987.717159	42.095940
988.116255	42.079300
988.515312	42.061551
988.914330	42.149713
989.313310	42.196735
989.712250	42.227789
990.111152	42.339258
990.510015	42.326587
990.908840	42.307692
991.307625	42.461718
991.706372	42.412206
992.105080	42.464798
992.503749	42.500915
992.902379	42.568883
993.300970	42.618875
993.699522	42.723537
994.098035	42.873158
994.496510	42.925002
994.894945	42.921914
995.293341	42.989892
995.691698	43.079459
996.090016	43.101354
996.488296	43.197310
996.886535	43.375856
997.284736	43.274373
997.682898	43.459414
998.081021	43.582643
998.479104	43.573342
998.877148	43.738178
999.275153	44.009707
999.673119	44.136639
1000.071046	44.281223
1000.468933	44.605560
1000.866781	44.633598
1001.264590	44.880368
1001.662359	44.986985
1002.060089	45.085628
1002.457780	45.038093
1002.855431	45.340363
1003.253043	45.528874
1003.650615	45.732757
1004.048148	46.074864
1004.445642	46.423034
1004.843096	46.838213
1005.240511	47.267379
1005.637886	47.419201
1006.035221	47.712179
1006.432517	47.969692
1006.829774	48.343659
1007.226991	48.690476
1007.624168	49.066437
1008.021306	49.534528
1008.418404	49.852297
1008.815462	50.210475
1009.212481	50.495199
1009.609460	51.146339
1010.006399	51.259700
1010.403298	51.845170
1010.800158	52.482911
1011.196978	53.088073
1011.593758	53.593120
1011.990498	54.446922
1012.387199	55.085992
1012.783860	55.525482
1013.180480	56.222678
1013.577061	56.969953
1013.973602	57.721685
1014.370103	58.629727
1014.766564	59.288538
1015.162985	59.973293
1015.559366	60.666313
1015.955708	61.162051
1016.352009	61.765288
1016.748270	62.151102
1017.144491	62.290503
1017.540671	62.271757
1017.936812	63.127291
1018.332913	63.606999
1018.728973	64.391863
1019.124994	64.655172
1019.520974	65.300365
1019.916914	65.795597
1020.312814	66.320533
