Time1=100ms:Average1=5:Objective=10X:Aperture=1: (11/21/2018 2:58:58 PM)
11/21/2018 2:58:58 PM
Reflectance
10X
Ap#: 1
Avg1: 5.000000
Avg2: 0.000000
Int.Time1:100.000000

350.166136	89.800093
350.601937	90.715798
351.037728	90.579355
351.473509	90.823529
351.909281	91.399961
352.345042	91.932458
352.780794	91.550686
353.216536	91.561974
353.652267	91.899386
354.087989	91.812692
354.523701	91.623864
354.959403	91.382884
355.395095	91.570199
355.830777	91.488519
356.266449	91.197392
356.702110	91.090766
357.137762	90.840443
357.573404	91.485401
358.009035	91.280094
358.444656	91.636435
358.880268	91.517814
359.315869	92.176206
359.751459	92.373876
360.187040	92.630551
360.622610	93.699706
361.058170	93.956693
361.493720	94.313030
361.929260	94.063299
362.364789	94.290794
362.800308	93.636813
363.235816	93.314928
363.671314	93.113625
364.106802	93.242180
364.542279	93.505470
364.977746	93.676746
365.413203	93.860778
365.848649	93.552215
366.284084	93.481276
366.719509	93.533419
367.154924	93.482769
367.590328	93.617650
368.025721	93.761088
368.461104	94.022920
368.896477	94.250371
369.331838	93.376700
369.767189	93.796305
370.202530	93.973635
370.637859	94.322709
371.073178	94.052008
371.508486	94.156297
371.943784	93.792213
372.379071	93.663091
372.814347	93.279224
373.249612	93.725257
373.684866	93.805134
374.120110	93.560494
374.555343	93.675146
374.990565	93.886247
375.425776	93.798910
375.860976	93.429503
376.296165	94.188456
376.731343	94.494959
377.166511	94.723793
377.601667	94.637753
378.036812	94.690701
378.471946	94.540796
378.907070	94.218520
379.342182	93.959535
379.777283	94.229450
380.212373	94.380700
380.647452	94.396003
381.082520	94.222483
381.517576	94.319515
381.952622	93.243113
382.387656	93.372338
382.822679	93.906879
383.257691	93.806070
383.692692	94.065536
384.127681	94.081885
384.562659	93.829969
384.997626	93.670288
385.432581	93.667172
385.867525	94.391635
386.302458	94.214171
386.737379	94.481971
387.172289	94.141664
387.607188	93.655159
388.042075	93.191047
388.476951	93.047826
388.911815	93.115124
389.346668	92.999719
389.781509	92.776735
390.216338	92.931373
390.651157	93.115705
391.085963	92.618958
391.520758	92.503046
391.955541	92.156497
392.390313	92.545251
392.825073	92.688152
393.259821	92.718672
393.694558	92.450908
394.129283	92.192414
394.563996	91.856376
394.998698	91.686747
395.433388	92.241621
395.868066	91.683057
396.302732	91.440306
396.737386	90.794862
397.172029	90.319584
397.606659	89.702623
398.041278	88.987877
398.475885	88.743838
398.910480	88.429789
399.345063	87.316921
399.779634	86.584883
400.214194	84.775399
400.648741	83.401286
401.083276	81.823783
401.517799	80.047952
401.952310	77.563829
402.386809	75.171457
402.821296	72.658474
403.255771	70.162985
403.690234	67.070495
404.124684	64.104554
404.559123	61.356121
404.993549	58.444231
405.427963	55.338685
405.862365	52.350504
406.296754	49.423981
406.731131	46.837515
407.165496	44.498466
407.599849	42.353532
408.034190	40.268747
408.468518	38.379472
408.902833	36.478509
409.337137	34.720546
409.771428	33.152381
410.205706	31.639451
410.639973	30.364059
411.074226	29.304254
411.508467	28.325846
411.942696	27.388895
412.376912	26.471838
412.811116	25.741265
413.245307	24.983316
413.679486	24.398376
414.113652	23.800060
414.547805	23.258391
414.981946	22.777745
415.416074	22.449998
415.850190	22.088040
416.284293	21.720149
416.718383	21.435505
417.152460	21.184185
417.586525	20.968683
418.020577	20.758631
418.454616	20.492695
418.888643	20.368412
419.322656	20.199384
419.756657	20.087150
420.190645	19.948470
420.624620	19.804359
421.058582	19.676283
421.492531	19.596020
421.926468	19.485448
422.360391	19.439079
422.794301	19.391057
423.228199	19.341244
423.662083	19.316018
424.095955	19.297107
424.529813	19.232441
424.963658	19.198276
425.397491	19.156397
425.831310	19.124759
426.265116	19.075778
426.698909	19.072545
427.132689	19.059550
427.566455	19.075095
428.000209	19.119892
428.433949	19.144160
428.867676	19.113327
429.301389	19.128266
429.735090	19.127173
430.168777	19.116333
430.602451	19.101978
431.036111	19.057033
431.469759	19.025158
431.903392	19.042213
432.337013	19.007180
432.770620	18.996899
433.204213	18.978370
433.637794	18.963213
434.071360	18.951272
434.504914	18.939414
434.938453	18.913714
435.371979	18.905240
435.805492	18.882161
436.238991	18.877042
436.672477	18.857470
437.105949	18.837423
437.539407	18.820021
437.972852	18.800988
438.406283	18.792039
438.839700	18.743900
439.273104	18.706821
439.706494	18.665353
440.139871	18.614912
440.573233	18.537193
441.006582	18.463422
441.439917	18.373702
441.873238	18.292044
442.306546	18.227388
442.739839	18.149542
443.173119	18.084421
443.606385	18.012230
444.039636	17.929176
444.472874	17.854482
444.906099	17.777599
445.339309	17.682831
445.772505	17.609347
446.205687	17.533760
446.638855	17.446925
447.072009	17.357771
447.505149	17.273561
447.938275	17.200131
448.371387	17.106765
448.804485	17.007454
449.237569	16.908449
449.670638	16.805653
450.103694	16.694316
450.536735	16.600458
450.969762	16.482919
451.402774	16.367932
451.835773	16.237477
452.268757	16.150598
452.701727	16.048082
453.134683	15.958177
453.567624	15.866706
454.000551	15.797732
454.433464	15.711750
454.866362	15.632392
455.299246	15.555791
455.732116	15.493061
456.164971	15.439424
456.597811	15.388688
457.030638	15.341542
457.463449	15.299195
457.896246	15.268417
458.329029	15.238093
458.761797	15.207684
459.194551	15.180151
459.627290	15.155207
460.060014	15.135297
460.492724	15.125160
460.925419	15.131649
461.358099	15.138702
461.790765	15.165958
462.223416	15.199964
462.656052	15.227332
463.088674	15.284958
463.521281	15.338631
463.953873	15.413699
464.386450	15.495021
464.819012	15.578760
465.251560	15.694823
465.684093	15.792332
466.116611	15.926245
466.549114	16.068260
466.981602	16.220880
467.414075	16.368369
467.846533	16.537541
468.278977	16.714760
468.711405	16.898774
469.143818	17.099727
469.576216	17.299755
470.008600	17.510893
470.440968	17.723244
470.873321	17.966173
471.305659	18.206420
471.737982	18.461534
472.170289	18.741440
472.602582	19.009952
473.034859	19.285390
473.467122	19.582799
473.899369	19.887166
474.331600	20.201868
474.763817	20.535513
475.196018	20.870046
475.628204	21.222210
476.060375	21.596721
476.492530	21.980698
476.924670	22.408381
477.356795	22.826488
477.788904	23.282475
478.220998	23.763363
478.653076	24.247013
479.085139	24.743150
479.517186	25.233668
479.949219	25.718367
480.381235	26.207376
480.813236	26.697410
481.245221	27.201725
481.677191	27.710131
482.109146	28.223310
482.541084	28.750256
482.973008	29.289893
483.404915	29.858249
483.836807	30.433066
484.268683	31.015060
484.700544	31.621519
485.132388	32.236249
485.564217	32.848421
485.996031	33.455730
486.427828	34.064531
486.859610	34.665867
487.291376	35.257159
487.723126	35.843414
488.154860	36.423900
488.586579	37.010222
489.018281	37.602725
489.449968	38.206688
489.881639	38.816211
490.313293	39.407438
490.744932	40.015708
491.176555	40.631572
491.608162	41.256447
492.039753	41.879869
492.471328	42.514738
492.902886	43.152775
493.334429	43.772077
493.765956	44.386492
494.197466	45.001866
494.628960	45.618670
495.060439	46.237725
495.491901	46.850391
495.923347	47.449188
496.354776	48.051999
496.786190	48.636818
497.217587	49.235703
497.648968	49.833673
498.080332	50.458018
498.511681	51.059629
498.943013	51.682983
499.374328	52.333131
499.805628	52.975439
500.236911	53.614037
500.668177	54.265816
501.099427	54.888058
501.530661	55.505370
501.961878	56.110537
502.393079	56.701431
502.824264	57.279661
503.255431	57.831280
503.686583	58.354708
504.117717	58.889409
504.548835	59.408497
504.979937	59.900288
505.411022	60.388063
505.842090	60.883889
506.273142	61.365065
506.704177	61.846227
507.135195	62.327986
507.566197	62.784993
507.997182	63.239150
508.428150	63.682223
508.859102	64.120176
509.290036	64.531595
509.720954	64.938974
510.151855	65.347066
510.582739	65.734566
511.013607	66.127352
511.444457	66.468897
511.875291	66.843360
512.306107	67.201465
512.736907	67.549611
513.167690	67.905357
513.598456	68.258521
514.029205	68.609719
514.459936	68.970439
514.890651	69.333596
515.321349	69.693594
515.752030	70.047928
516.182693	70.390685
516.613340	70.738289
517.043969	71.098378
517.474582	71.432504
517.905177	71.762476
518.335755	72.083307
518.766315	72.383295
519.196859	72.662000
519.627385	72.932085
520.057894	73.186062
520.488386	73.426128
520.918860	73.674523
521.349318	73.909557
521.779757	74.121360
522.210180	74.335419
522.640585	74.565044
523.070973	74.784877
523.501343	74.992376
523.931696	75.201949
524.362031	75.388672
524.792349	75.597767
525.222650	75.785628
525.652933	75.959747
526.083198	76.123413
526.513446	76.270039
526.943677	76.417323
527.373890	76.538462
527.804085	76.683721
528.234262	76.795115
528.664422	76.912019
529.094565	77.009648
529.524689	77.095421
529.954796	77.199168
530.384885	77.280210
530.814957	77.354427
531.245011	77.435888
531.675047	77.527917
532.105065	77.624260
532.535065	77.728062
532.965048	77.838801
533.395013	77.965041
533.824959	78.094509
534.254888	78.209428
534.684799	78.336466
535.114693	78.482160
535.544568	78.632269
535.974425	78.759054
536.404264	78.874503
536.834086	78.979794
537.263889	79.065262
537.693674	79.154015
538.123441	79.231875
538.553190	79.285304
538.982921	79.326859
539.412634	79.363401
539.842329	79.379125
540.272006	79.376051
540.701664	79.385077
541.131304	79.345869
541.560926	79.309298
541.990530	79.263786
542.420116	79.238880
542.849683	79.204809
543.279232	79.121161
543.708763	79.068436
544.138275	79.011391
544.567769	78.938448
544.997245	78.847595
545.426702	78.760610
545.856141	78.638674
546.285562	78.521175
546.714964	78.382939
547.144347	78.242672
547.573713	78.102812
548.003059	77.949815
548.432387	77.791219
548.861697	77.615890
549.290988	77.437854
549.720260	77.274569
550.149514	77.095581
550.578750	76.922264
551.007966	76.753454
551.437164	76.562644
551.866344	76.390628
552.295504	76.220283
552.724646	76.041762
553.153769	75.870466
553.582874	75.706482
554.011960	75.515535
554.441027	75.339620
554.870075	75.162917
555.299104	74.974167
555.728115	74.767846
556.157106	74.569309
556.586079	74.366036
557.015033	74.135239
557.443968	73.889317
557.872884	73.647172
558.301781	73.415997
558.730659	73.143508
559.159518	72.893704
559.588358	72.630439
560.017180	72.368906
560.445982	72.088613
560.874765	71.809958
561.303528	71.522372
561.732273	71.226803
562.160999	70.930073
562.589705	70.646665
563.018393	70.351316
563.447061	70.074153
563.875710	69.798461
564.304340	69.496032
564.732950	69.206635
565.161542	68.908233
565.590114	68.601786
566.018666	68.299115
566.447200	67.986213
566.875714	67.663252
567.304208	67.342957
567.732684	67.004084
568.161140	66.655475
568.589576	66.293881
569.017993	65.913943
569.446391	65.529272
569.874769	65.138731
570.303128	64.743133
570.731467	64.342290
571.159787	63.917462
571.588087	63.473331
572.016368	63.053067
572.444629	62.601003
572.872870	62.141867
573.301092	61.694549
573.729294	61.231388
574.157476	60.760451
574.585639	60.298281
575.013782	59.835132
575.441906	59.381849
575.870009	58.921738
576.298093	58.476051
576.726157	58.024014
577.154202	57.586011
577.582226	57.176299
578.010231	56.778673
578.438216	56.403522
578.866181	56.048914
579.294126	55.689674
579.722051	55.349097
580.149957	55.031311
580.577842	54.738758
581.005707	54.459047
581.433553	54.211220
581.861378	53.982731
582.289184	53.782702
582.716969	53.596030
583.144734	53.435032
583.572479	53.305907
584.000205	53.190568
584.427910	53.106262
584.855594	53.039922
585.283259	52.985385
585.710904	52.964187
586.138528	52.964086
586.566132	52.954617
586.993716	52.982079
587.421280	53.009423
587.848823	53.048619
588.276346	53.095377
588.703849	53.138589
589.131332	53.179331
589.558794	53.214900
589.986236	53.253123
590.413657	53.286850
590.841058	53.310113
591.268438	53.322783
591.695799	53.311256
592.123138	53.290442
592.550458	53.272934
592.977756	53.237680
593.405034	53.184021
593.832292	53.104657
594.259529	53.010568
594.686746	52.893016
595.113942	52.767285
595.541117	52.625717
595.968272	52.465998
596.395406	52.284462
596.822519	52.089169
597.249612	51.883709
597.676684	51.665147
598.103735	51.445720
598.530766	51.216529
598.957775	50.969503
599.384764	50.712137
599.811733	50.462394
600.238680	50.201727
600.665606	49.949173
601.092512	49.686397
601.519397	49.428207
601.946261	49.163578
602.373104	48.903770
602.799926	48.659841
603.226727	48.414957
603.653507	48.167105
604.080266	47.921473
604.507004	47.685987
604.933721	47.468752
605.360417	47.262982
605.787092	47.063694
606.213746	46.896549
606.640379	46.739643
607.066991	46.597230
607.493581	46.476339
607.920150	46.373672
608.346699	46.284814
608.773226	46.210827
609.199731	46.146763
609.626216	46.109016
610.052679	46.081472
610.479121	46.075784
610.905542	46.078042
611.331941	46.084028
611.758319	46.108809
612.184676	46.163248
612.611011	46.226008
613.037325	46.305704
613.463617	46.409408
613.889888	46.523250
614.316138	46.654827
614.742366	46.809090
615.168573	46.996744
615.594758	47.195522
616.020921	47.410498
616.447063	47.646724
616.873184	47.907925
617.299283	48.192611
617.725360	48.488951
618.151416	48.790860
618.577450	49.103486
619.003462	49.427382
619.429453	49.747567
619.855422	50.081058
620.281369	50.431444
620.707295	50.789075
621.133199	51.143641
621.559081	51.501128
621.984941	51.863673
622.410779	52.227959
622.836596	52.592635
623.262391	52.948670
623.688163	53.298359
624.113914	53.640349
624.539644	53.973153
624.965351	54.303664
625.391036	54.617662
625.816699	54.919803
626.242340	55.207877
626.667960	55.480054
627.093557	55.746824
627.519132	56.001099
627.944685	56.226562
628.370216	56.421122
628.795725	56.618022
629.221212	56.782624
629.646677	56.933455
630.072119	57.072782
630.497540	57.184729
630.922938	57.281633
631.348314	57.364720
631.773668	57.425328
632.198999	57.468350
632.624308	57.502315
633.049595	57.521378
633.474860	57.522258
633.900102	57.512721
634.325322	57.498153
634.750520	57.476680
635.175695	57.449715
635.600848	57.426755
636.025978	57.403708
636.451086	57.389961
636.876171	57.381059
637.301234	57.373906
637.726275	57.382212
638.151293	57.398625
638.576288	57.420190
639.001261	57.469311
639.426211	57.526759
639.851139	57.594580
640.276044	57.673134
640.700927	57.765944
641.125787	57.876961
641.550624	58.020223
641.975438	58.181653
642.400230	58.362809
642.824999	58.563377
643.249745	58.765812
643.674469	58.992516
644.099169	59.232404
644.523847	59.492363
644.948502	59.776623
645.373135	60.080747
645.797744	60.393635
646.222330	60.721317
646.646894	61.049775
647.071435	61.390792
647.495953	61.741051
647.920447	62.097971
648.344919	62.457657
648.769368	62.813563
649.193794	63.172643
649.618197	63.521439
650.042576	63.882654
650.466933	64.257102
650.891267	64.630901
651.315577	64.995612
651.739864	65.372670
652.164129	65.730785
652.588370	66.086423
653.012587	66.438769
653.436782	66.796940
653.860953	67.153144
654.285102	67.494721
654.709226	67.835021
655.133328	68.159410
655.557406	68.485391
655.981461	68.810469
656.405493	69.129086
656.829501	69.433014
657.253486	69.740629
657.677448	70.031237
658.101386	70.314017
658.525301	70.596951
658.949192	70.873886
659.373060	71.130042
659.796904	71.397027
660.220725	71.658836
660.644522	71.916500
661.068296	72.167482
661.492046	72.413273
661.915772	72.657676
662.339475	72.894156
662.763154	73.135650
663.186810	73.370042
663.610442	73.588408
664.034050	73.796212
664.457635	73.999041
664.881196	74.193251
665.304733	74.384848
665.728247	74.575876
666.151736	74.762659
666.575202	74.940251
666.998644	75.117927
667.422062	75.300315
667.845457	75.464028
668.268827	75.628456
668.692174	75.772043
669.115496	75.911913
669.538795	76.055484
669.962070	76.191052
670.385321	76.317288
670.808547	76.437996
671.231750	76.542970
671.654929	76.621458
672.078084	76.696841
672.501214	76.754034
672.924321	76.798284
673.347404	76.824555
673.770462	76.834318
674.193496	76.825274
674.616506	76.803110
675.039492	76.775218
675.462454	76.734471
675.885391	76.680828
676.308305	76.610676
676.731194	76.540476
677.154058	76.466321
677.576899	76.388407
677.999715	76.308396
678.422507	76.214809
678.845274	76.121277
679.268017	76.037705
679.690736	75.950280
680.113430	75.858215
680.536100	75.779992
680.958746	75.714015
681.381367	75.651963
681.803963	75.604546
682.226535	75.562544
682.649083	75.529543
683.071605	75.532993
683.494104	75.536688
683.916578	75.557381
684.339027	75.610313
684.761451	75.689988
685.183851	75.784667
685.606227	75.914421
686.028577	76.065497
686.450903	76.246725
686.873204	76.455435
687.295481	76.697686
687.717733	76.958037
688.139959	77.237510
688.562162	77.550770
688.984339	77.881496
689.406492	78.239077
689.828619	78.618817
690.250722	79.021790
690.672800	79.439673
691.094853	79.879923
691.516881	80.357035
691.938884	80.835929
692.360863	81.320042
692.782816	81.818784
693.204744	82.327911
693.626647	82.827143
694.048526	83.344547
694.470379	83.859347
694.892207	84.379327
695.314010	84.890319
695.735788	85.414737
696.157540	85.922073
696.579268	86.432754
697.000970	86.936889
697.422648	87.440686
697.844300	87.919103
698.265926	88.395110
698.687528	88.857544
699.109104	89.307953
699.530655	89.743190
699.952181	90.171870
700.373681	90.587245
700.795156	90.996068
701.216606	91.390576
701.638030	91.772738
702.059429	92.134837
702.480803	92.492755
702.902151	92.835954
703.323473	93.153343
703.744770	93.441983
704.166042	93.702216
704.587288	93.945881
705.008509	94.187407
705.429704	94.406300
705.850873	94.603877
706.272017	94.777179
706.693135	94.953389
707.114228	95.092498
707.535295	95.227193
707.956336	95.347607
708.377352	95.472016
708.798342	95.579714
709.219306	95.656062
709.640245	95.735105
710.061157	95.812469
710.482044	95.858960
710.902905	95.916035
711.323741	95.969344
711.744550	96.014267
712.165334	96.063230
712.586092	96.096282
713.006823	96.143243
713.427529	96.196489
713.848209	96.243447
714.268863	96.305283
714.689492	96.354731
715.110094	96.425021
715.530670	96.484167
715.951220	96.552268
716.371744	96.636381
716.792242	96.737050
717.212714	96.849555
717.633159	96.960580
718.053579	97.080939
718.473973	97.202058
718.894340	97.347103
719.314681	97.498330
719.734996	97.647033
720.155285	97.807886
720.575547	97.965641
720.995784	98.128790
721.415994	98.286040
721.836177	98.435636
722.256335	98.598795
722.676466	98.746344
723.096570	98.902571
723.516649	99.056480
723.936701	99.210035
724.356726	99.345341
724.776725	99.477400
725.196698	99.587908
725.616644	99.711629
726.036564	99.802054
726.456457	99.869969
726.876324	99.934505
727.296164	99.987442
727.715977	100.047545
728.135764	100.082529
728.555525	100.109338
728.975258	100.119502
729.394966	100.102715
729.814646	100.078218
730.234300	100.051177
730.653927	100.013921
731.073527	99.942261
731.493101	99.870548
731.912648	99.780963
732.332168	99.685985
732.751661	99.577346
733.171128	99.460972
733.590568	99.338457
734.009980	99.206839
734.429366	99.076293
734.848726	98.928284
735.268058	98.788508
735.687363	98.645876
736.106641	98.485256
736.525893	98.322689
736.945117	98.150326
737.364314	97.996095
737.783485	97.851203
738.202628	97.700408
738.621744	97.552788
739.040834	97.405045
739.459896	97.276273
739.878931	97.157353
740.297939	97.030826
740.716919	96.891442
741.135873	96.781953
741.554799	96.686097
741.973698	96.607513
742.392570	96.550738
742.811415	96.510742
743.230232	96.456930
743.649022	96.425105
744.067785	96.423920
744.486521	96.441836
744.905229	96.473588
745.323909	96.509115
745.742563	96.554739
746.161189	96.617582
746.579787	96.713970
746.998358	96.818308
747.416902	96.927751
747.835418	97.068712
748.253907	97.211347
748.672368	97.361712
749.090802	97.521635
749.509208	97.691912
749.927586	97.875012
750.345937	98.052887
750.764261	98.232401
751.182556	98.422453
751.600824	98.605176
752.019065	98.795645
752.437277	98.984732
752.855462	99.167297
753.273620	99.356623
753.691749	99.559984
754.109851	99.738534
754.527925	99.909733
754.945971	100.070873
755.363989	100.222145
755.781980	100.373373
756.199943	100.526931
756.617877	100.657797
757.035784	100.782458
757.453663	100.883246
757.871514	100.975456
758.289337	101.066016
758.707132	101.141050
759.124899	101.197858
759.542639	101.233991
759.960350	101.243766
760.378033	101.235511
760.795688	101.189817
761.213314	101.141370
761.630913	101.076170
762.048484	100.992306
762.466026	100.903934
762.883541	100.786688
763.301027	100.649124
763.718485	100.510055
764.135914	100.358883
764.553316	100.194222
764.970689	100.034214
765.388034	99.852193
765.805351	99.667471
766.222639	99.467375
766.639899	99.256517
767.057131	99.046981
767.474334	98.835378
767.891509	98.611630
768.308655	98.398692
768.725773	98.159558
769.142863	97.933190
769.559924	97.705316
769.976957	97.481510
770.393961	97.252164
770.810936	97.032925
771.227883	96.802906
771.644802	96.600085
772.061692	96.381687
772.478553	96.154434
772.895386	95.959672
773.312190	95.764980
773.728965	95.594135
774.145712	95.423771
774.562430	95.253138
774.979119	95.084500
775.395780	94.921331
775.812411	94.778112
776.229014	94.640301
776.645589	94.491096
777.062134	94.368768
777.478651	94.245469
777.895138	94.110589
778.311597	93.996631
778.728027	93.880777
779.144428	93.791045
779.560800	93.686391
779.977143	93.587056
780.393458	93.471291
780.809743	93.361583
781.225999	93.259599
781.642226	93.175533
782.058425	93.080122
782.474594	92.980004
782.890734	92.873122
783.306845	92.768578
783.722926	92.650096
784.138979	92.534010
784.555003	92.401118
784.970997	92.282905
785.386962	92.162072
785.802898	92.000315
786.218805	91.849870
786.634682	91.672768
787.050531	91.487639
787.466349	91.292129
787.882139	91.099810
788.297899	90.875198
788.713630	90.650787
789.129332	90.416517
789.545004	90.176219
789.960647	89.913372
790.376260	89.670545
790.791844	89.394853
791.207399	89.115234
791.622924	88.831957
792.038419	88.528680
792.453885	88.231278
792.869321	87.924474
793.284728	87.618684
793.700106	87.305608
794.115453	86.981909
794.530771	86.655888
794.946060	86.324958
795.361319	85.991381
795.776548	85.652347
796.191747	85.313950
796.606917	84.959473
797.022057	84.624813
797.437167	84.274414
797.852248	83.942028
798.267298	83.594008
798.682319	83.275163
799.097310	82.943744
799.512271	82.622093
799.927203	82.279841
800.342104	81.966373
800.756976	81.649828
801.171818	81.352673
801.586629	81.053965
802.001411	80.768950
802.416163	80.478854
802.830885	80.222155
803.245577	79.933595
803.660238	79.694049
804.074870	79.445922
804.489472	79.211616
804.904043	78.983373
805.318585	78.765449
805.733096	78.567833
806.147577	78.381164
806.562028	78.199263
806.976449	78.026789
807.390840	77.868493
807.805200	77.710865
808.219530	77.569198
808.633830	77.443393
809.048100	77.322812
809.462339	77.218453
809.876548	77.122420
810.290727	77.051951
810.704875	76.964802
811.118993	76.893892
811.533080	76.828994
811.947137	76.773800
812.361164	76.720081
812.775160	76.687281
813.189126	76.660455
813.603061	76.641814
814.016966	76.639010
814.430840	76.619206
814.844684	76.615132
815.258497	76.621205
815.672280	76.620406
816.086032	76.641238
816.499753	76.650011
816.913444	76.655016
817.327104	76.672363
817.740733	76.686629
818.154331	76.694370
818.567899	76.691912
818.981436	76.693078
819.394943	76.711953
819.808418	76.707792
820.221863	76.701494
820.635277	76.699674
821.048660	76.685091
821.462013	76.650208
821.875334	76.626544
822.288625	76.581073
822.701884	76.524791
823.115113	76.443459
823.528311	76.348910
823.941478	76.257943
824.354614	76.145526
824.767718	76.018225
825.180792	75.869857
825.593835	75.724024
826.006847	75.557832
826.419827	75.375961
826.832777	75.180804
827.245695	75.006539
827.658582	74.791782
828.071438	74.592632
828.484263	74.349366
828.897057	74.119963
829.309819	73.887509
829.722551	73.670256
830.135251	73.420209
830.547919	73.175113
830.960557	72.919699
831.373163	72.683432
831.785738	72.430266
832.198281	72.154283
832.610793	71.901792
833.023274	71.630281
833.435723	71.361112
833.848141	71.132701
834.260528	70.901188
834.672883	70.654544
835.085206	70.430673
835.497498	70.197733
835.909758	69.974698
836.321987	69.780652
836.734185	69.589360
837.146350	69.405363
837.558485	69.223428
837.970587	69.054265
838.382658	68.889046
838.794697	68.719852
839.206705	68.558972
839.618681	68.395781
840.030625	68.235959
840.442538	68.080377
840.854418	67.911732
841.266267	67.766245
841.678084	67.617734
842.089870	67.457659
842.501623	67.295966
842.913345	67.141167
843.325035	66.986225
843.736693	66.833842
844.148319	66.656721
844.559913	66.500641
844.971475	66.363329
845.383005	66.213317
845.794504	66.059276
846.205970	65.920881
846.617404	65.741513
847.028806	65.560509
847.440176	65.409540
847.851514	65.239534
848.262820	65.088531
848.674094	64.952433
849.085336	64.795332
849.496546	64.618661
849.907723	64.474634
850.318868	64.313549
850.729981	64.150401
851.141062	63.994169
851.552110	63.833713
851.963127	63.680688
852.374111	63.531241
852.785062	63.372370
853.195982	63.218773
853.606869	63.090525
854.017723	62.948016
854.428546	62.790055
854.839336	62.657697
855.250093	62.515774
855.660818	62.392061
856.071511	62.271182
856.482171	62.154083
856.892799	62.044210
857.303394	61.938682
857.713956	61.817680
858.124486	61.716008
858.534984	61.618206
858.945449	61.519481
859.355881	61.428539
859.766280	61.346541
860.176647	61.236281
860.586982	61.146367
860.997283	61.033805
861.407552	60.919341
861.817789	60.815230
862.227992	60.687986
862.638163	60.525942
863.048301	60.408246
863.458406	60.275887
863.868478	60.129022
864.278518	59.984408
864.688524	59.850397
865.098498	59.686014
865.508439	59.500552
865.918347	59.310511
866.328222	59.106463
866.738064	58.900496
867.147873	58.701660
867.557649	58.461385
867.967392	58.224579
868.377102	57.976209
868.786779	57.717616
869.196423	57.469252
869.606034	57.204996
870.015612	56.931435
870.425156	56.655309
870.834668	56.368435
871.244146	56.080239
871.653591	55.781243
872.063003	55.469006
872.472382	55.178967
872.881728	54.898407
873.291040	54.585947
873.700319	54.307518
874.109564	54.008625
874.518777	53.713473
874.927956	53.439113
875.337102	53.166251
875.746214	52.873775
876.155293	52.606855
876.564338	52.334801
876.973350	52.063838
877.382329	51.784714
877.791274	51.531377
878.200186	51.309507
878.609064	51.098570
879.017909	50.874331
879.426720	50.665213
879.835497	50.464904
880.244241	50.301944
880.652952	50.136587
881.061629	49.987003
881.470272	49.844461
881.878881	49.726412
882.287457	49.614888
882.695999	49.505456
883.104507	49.421192
883.512982	49.315808
883.921423	49.237189
884.329830	49.159807
884.738203	49.108797
885.146543	49.049455
885.554849	48.977067
885.963120	48.917927
886.371358	48.859278
886.779563	48.816453
887.187733	48.745533
887.595869	48.703649
888.003971	48.657843
888.412040	48.592525
888.820074	48.551709
889.228074	48.500871
889.636041	48.461584
890.043973	48.413363
890.451871	48.363831
890.859736	48.299806
891.267566	48.245832
891.675362	48.200940
892.083124	48.164193
892.490851	48.115784
892.898545	48.067287
893.306204	48.013923
893.713829	47.967890
894.121420	47.923785
894.528977	47.863390
894.936499	47.811555
895.343987	47.770120
895.751441	47.711109
896.158860	47.678175
896.566246	47.644888
896.973596	47.614668
897.380913	47.565261
897.788195	47.517087
898.195442	47.499280
898.602655	47.503331
899.009834	47.467945
899.416978	47.439015
899.824088	47.429330
900.231163	47.410146
900.638204	47.419350
901.045210	47.419627
901.452181	47.404921
901.859118	47.392262
902.266021	47.388188
902.672888	47.377034
903.079721	47.359488
903.486520	47.375262
903.893283	47.371871
904.300012	47.388536
904.706707	47.358764
905.113366	47.369281
905.519991	47.375937
905.926581	47.373351
906.333136	47.360578
906.739656	47.351846
907.146142	47.335638
907.552592	47.330451
907.959008	47.302360
908.365389	47.274379
908.771735	47.254095
909.178046	47.220467
909.584322	47.178919
909.990563	47.157301
910.396769	47.138059
910.802940	47.090872
911.209076	47.021656
911.615177	46.964043
912.021243	46.893083
912.427274	46.835615
912.833270	46.777776
913.239231	46.685794
913.645156	46.624915
914.051046	46.528746
914.456902	46.455697
914.862721	46.379902
915.268506	46.305552
915.674256	46.234060
916.079970	46.140361
916.485649	46.048846
916.891292	45.924180
917.296901	45.822317
917.702474	45.694837
918.108011	45.582234
918.513514	45.468926
918.918980	45.339764
919.324412	45.200905
919.729808	45.066212
920.135169	44.935519
920.540494	44.814542
920.945783	44.696294
921.351037	44.556304
921.756256	44.422304
922.161439	44.281784
922.566586	44.145203
922.971698	43.991265
923.376775	43.851784
923.781815	43.717826
924.186820	43.597188
924.591790	43.459554
924.996723	43.326928
925.401621	43.159801
925.806484	43.037790
926.211310	42.887269
926.616101	42.754114
927.020856	42.622985
927.425575	42.454473
927.830259	42.287381
928.234906	42.140865
928.639518	41.996226
929.044094	41.842253
929.448634	41.713973
929.853138	41.591650
930.257606	41.471196
930.662038	41.333396
931.066434	41.208994
931.470795	41.097187
931.875119	41.000573
932.279407	40.911268
932.683659	40.809725
933.087875	40.696434
933.492055	40.595232
933.896199	40.525500
934.300307	40.440230
934.704379	40.371994
935.108414	40.295826
935.512414	40.230764
935.916377	40.151654
936.320304	40.087210
936.724195	40.024524
937.128049	39.988082
937.531867	39.969340
937.935649	39.966545
938.339395	39.942596
938.743104	39.931650
939.146777	39.936185
939.550414	39.924428
939.954014	39.943921
940.357578	39.958984
940.761105	39.982058
941.164596	40.005629
941.568050	40.049813
941.971468	40.075666
942.374850	40.105991
942.778195	40.122979
943.181503	40.160605
943.584775	40.213737
943.988010	40.239843
944.391209	40.275027
944.794371	40.283390
945.197496	40.304858
945.600585	40.335200
946.003637	40.332921
946.406653	40.315332
946.809632	40.302962
947.212574	40.287708
947.615479	40.231072
948.018347	40.199725
948.421179	40.196759
948.823974	40.169120
949.226732	40.111208
949.629453	40.047212
950.032138	39.954660
950.434785	39.848674
950.837396	39.735333
951.239969	39.637245
951.642506	39.470323
952.045006	39.323442
952.447469	39.166815
952.849895	38.991806
953.252283	38.807727
953.654635	38.636698
954.056950	38.429132
954.459227	38.232750
954.861468	38.038521
955.263671	37.849301
955.665838	37.629423
956.067967	37.426898
956.470059	37.234988
956.872114	37.016656
957.274131	36.794712
957.676112	36.572159
958.078055	36.374124
958.479961	36.184855
958.881829	36.002058
959.283661	35.819042
959.685455	35.600693
960.087211	35.453466
960.488931	35.277668
960.890613	35.082705
961.292257	34.913560
961.693864	34.757407
962.095434	34.560309
962.496966	34.398550
962.898461	34.280708
963.299918	34.115537
963.701338	33.974293
964.102720	33.904680
964.504065	33.805274
964.905372	33.704159
965.306641	33.642160
965.707873	33.534762
966.109068	33.430659
966.510224	33.378470
966.911343	33.302227
967.312425	33.207540
967.713468	33.116887
968.114474	33.088011
968.515442	33.031473
968.916373	32.971436
969.317265	32.909630
969.718120	32.917251
970.118937	32.864714
970.519716	32.824097
970.920458	32.814086
971.321161	32.757903
971.721827	32.728681
972.122454	32.725721
972.523044	32.688809
972.923596	32.631237
973.324110	32.593578
973.724585	32.561749
974.125023	32.540796
974.525423	32.585593
974.925785	32.558157
975.326108	32.506826
975.726394	32.510541
976.126642	32.518625
976.526851	32.499018
976.927022	32.453978
977.327155	32.463124
977.727250	32.471867
978.127307	32.487119
978.527325	32.552705
978.927306	32.511440
979.327248	32.550981
979.727151	32.569476
980.127017	32.616590
980.526844	32.607098
980.926633	32.576847
981.326383	32.634187
981.726095	32.704733
982.125769	32.720413
982.525404	32.754056
982.925001	32.762093
983.324560	32.816460
983.724079	32.807268
984.123561	32.860701
984.523004	32.938496
984.922408	33.005540
985.321774	33.090764
985.721102	33.145649
986.120390	33.225597
986.519641	33.267111
986.918852	33.256360
987.318025	33.378949
987.717159	33.438456
988.116255	33.514079
988.515312	33.509678
988.914330	33.601644
989.313310	33.699352
989.712250	33.714421
990.111152	33.800382
990.510015	33.806070
990.908840	33.845351
991.307625	33.971733
991.706372	33.977070
992.105080	34.069363
992.503749	34.084633
992.902379	34.112909
993.300970	34.223971
993.699522	34.292367
994.098035	34.372460
994.496510	34.395691
994.894945	34.424903
995.293341	34.449587
995.691698	34.500941
996.090016	34.683780
996.488296	34.763419
996.886535	34.719211
997.284736	34.625863
997.682898	34.704406
998.081021	34.765959
998.479104	34.759007
998.877148	34.742849
999.275153	34.957341
999.673119	34.954772
1000.071046	35.145015
1000.468933	35.249126
1000.866781	35.410368
1001.264590	35.512519
1001.662359	35.523036
1002.060089	35.741308
1002.457780	35.730730
1002.855431	35.960994
1003.253043	35.932455
1003.650615	36.085334
1004.048148	36.283186
1004.445642	36.456304
1004.843096	36.593352
1005.240511	37.048545
1005.637886	37.243864
1006.035221	37.483137
1006.432517	37.702778
1006.829774	38.052809
1007.226991	38.484318
1007.624168	38.932375
1008.021306	39.085494
1008.418404	39.396944
1008.815462	39.899856
1009.212481	40.431331
1009.609460	41.305842
1010.006399	41.606466
1010.403298	42.010725
1010.800158	42.684298
1011.196978	43.428225
1011.593758	43.846591
1011.990498	44.506234
1012.387199	45.031188
1012.783860	45.661815
1013.180480	46.022947
1013.577061	46.580197
1013.973602	47.445810
1014.370103	48.256894
1014.766564	48.884046
1015.162985	49.544338
1015.559366	50.179841
1015.955708	50.553244
1016.352009	51.028459
1016.748270	51.730999
1017.144491	52.691369
1017.540671	52.717452
1017.936812	53.361345
1018.332913	53.856978
1018.728973	54.231244
1019.124994	54.795124
1019.520974	55.401970
1019.916914	55.985552
1020.312814	57.021997
