Time1=100ms:Average1=5:Objective=10X:Aperture=1: (11/21/2018 2:59:41 PM)
11/21/2018 2:59:41 PM
Reflectance
10X
Ap#: 1
Avg1: 5.000000
Avg2: 0.000000
Int.Time1:100.000000

350.166136	93.863319
350.601937	94.285165
351.037728	94.598569
351.473509	94.911765
351.909281	94.737876
352.345042	94.904710
352.780794	94.166420
353.216536	94.401029
353.652267	94.622698
354.087989	94.168894
354.523701	93.875938
354.959403	93.445859
355.395095	94.004156
355.830777	93.853919
356.266449	93.341237
356.702110	92.774168
357.137762	92.517407
357.573404	92.592593
358.009035	92.434919
358.444656	92.214923
358.880268	92.767204
359.315869	92.684118
359.751459	92.579194
360.187040	92.640312
360.622610	92.894995
361.058170	92.696850
361.493720	92.469939
361.929260	92.657755
362.364789	93.312920
362.800308	92.726373
363.235816	92.516269
363.671314	92.582391
364.106802	92.966752
364.542279	92.805755
364.977746	92.849404
365.413203	93.444896
365.848649	93.117089
366.284084	93.283138
366.719509	93.434692
367.154924	93.680261
367.590328	93.854033
368.025721	93.800513
368.461104	94.319304
368.896477	94.547254
369.331838	94.303174
369.767189	94.734762
370.202530	95.172961
370.637859	95.338645
371.073178	94.938727
371.508486	95.281234
371.943784	95.162892
372.379071	94.725864
372.814347	94.773830
373.249612	95.437451
373.684866	95.698285
374.120110	96.098765
374.555343	96.634663
374.990565	96.888625
375.425776	97.067855
375.860976	97.095149
376.296165	97.651702
376.731343	98.250642
377.166511	98.502430
377.601667	98.383440
378.036812	98.847518
378.471946	99.221521
378.907070	98.677119
379.342182	98.641384
379.777283	98.775350
380.212373	98.401491
380.647452	98.647987
381.082520	98.051312
381.517576	98.122800
381.952622	97.409377
382.387656	96.499137
382.822679	96.963020
383.257691	97.060508
383.692692	97.151838
384.127681	97.520661
384.562659	97.583167
384.997626	96.797355
385.432581	96.601666
385.867525	97.043726
386.302458	96.699232
386.737379	96.717724
387.172289	96.638815
387.607188	96.263278
388.042075	95.976957
388.476951	95.500424
388.911815	94.808126
389.346668	94.124262
389.781509	94.596623
390.216338	94.204662
390.651157	93.882705
391.085963	93.986512
391.520758	93.918096
391.955541	93.563111
392.390313	93.954096
392.825073	93.908346
393.259821	94.110008
393.694558	94.062616
394.129283	93.876041
394.563996	94.336480
394.998698	94.615385
395.433388	95.070488
395.868066	95.242109
396.302732	94.688696
396.737386	94.108340
397.172029	93.794129
397.606659	93.415220
398.041278	92.946363
398.475885	92.924959
398.910480	92.593261
399.345063	91.764235
399.779634	90.968650
400.214194	89.267410
400.648741	87.591947
401.083276	86.206613
401.517799	84.327672
401.952310	82.263376
402.386809	80.392010
402.821296	78.298317
403.255771	75.534957
403.690234	72.941292
404.124684	70.173532
404.559123	66.925170
404.993549	64.093840
405.427963	60.927441
405.862365	57.985487
406.296754	55.331239
406.731131	52.868301
407.165496	50.523818
407.599849	48.355646
408.034190	46.267316
408.468518	44.562985
408.902833	42.826513
409.337137	41.320527
409.771428	39.906693
410.205706	38.510587
410.639973	37.327971
411.074226	36.291400
411.508467	35.312370
411.942696	34.515784
412.376912	33.663496
412.811116	32.984744
413.245307	32.393733
413.679486	31.907362
414.113652	31.404336
414.547805	30.972198
414.981946	30.529511
415.416074	30.236170
415.850190	29.979943
416.284293	29.733427
416.718383	29.528002
417.152460	29.318205
417.586525	29.194797
418.020577	29.106628
418.454616	28.932357
418.888643	28.864458
419.322656	28.817777
419.756657	28.813921
420.190645	28.749787
420.624620	28.768148
421.058582	28.739032
421.492531	28.752007
421.926468	28.719946
422.360391	28.716877
422.794301	28.765074
423.228199	28.802889
423.662083	28.832948
424.095955	28.904898
424.529813	28.948627
424.963658	29.018992
425.397491	29.048798
425.831310	29.085486
426.265116	29.122645
426.698909	29.150422
427.132689	29.181021
427.566455	29.229640
428.000209	29.296286
428.433949	29.364305
428.867676	29.431221
429.301389	29.492504
429.735090	29.552805
430.168777	29.579398
430.602451	29.624628
431.036111	29.639397
431.469759	29.654495
431.903392	29.693990
432.337013	29.711044
432.770620	29.729253
433.204213	29.710928
433.637794	29.730429
434.071360	29.710202
434.504914	29.704510
434.938453	29.683769
435.371979	29.705539
435.805492	29.707349
436.238991	29.683045
436.672477	29.653182
437.105949	29.650393
437.539407	29.618343
437.972852	29.556191
438.406283	29.504972
438.839700	29.443781
439.273104	29.406476
439.706494	29.336069
440.139871	29.282312
440.573233	29.214765
441.006582	29.124312
441.439917	29.018987
441.873238	28.942540
442.306546	28.835258
442.739839	28.706496
443.173119	28.531995
443.606385	28.418527
444.039636	28.266491
444.472874	28.126959
444.906099	27.981051
445.339309	27.854729
445.772505	27.700420
446.205687	27.557695
446.638855	27.418420
447.072009	27.260140
447.505149	27.123914
447.938275	26.978205
448.371387	26.829530
448.804485	26.648598
449.237569	26.484277
449.670638	26.323659
450.103694	26.162444
450.536735	26.006598
450.969762	25.830304
451.402774	25.671685
451.835773	25.478973
452.268757	25.344981
452.701727	25.185915
453.134683	25.045967
453.567624	24.894575
454.000551	24.753058
454.433464	24.630649
454.866362	24.507081
455.299246	24.384570
455.732116	24.249616
456.164971	24.135770
456.597811	24.057879
457.030638	23.934843
457.463449	23.853088
457.896246	23.773515
458.329029	23.693591
458.761797	23.600195
459.194551	23.541054
459.627290	23.489905
460.060014	23.443952
460.492724	23.406033
460.925419	23.383682
461.358099	23.386989
461.790765	23.385305
462.223416	23.396665
462.656052	23.406431
463.088674	23.438919
463.521281	23.481480
463.953873	23.535959
464.386450	23.619975
464.819012	23.713220
465.251560	23.834972
465.684093	23.942472
466.116611	24.071123
466.549114	24.206061
466.981602	24.364541
467.414075	24.528087
467.846533	24.683961
468.278977	24.851887
468.711405	25.028157
469.143818	25.253047
469.576216	25.480088
470.008600	25.701773
470.440968	25.924508
470.873321	26.163585
471.305659	26.382881
471.737982	26.626137
472.170289	26.866898
472.602582	27.096571
473.034859	27.310305
473.467122	27.534624
473.899369	27.775177
474.331600	27.996916
474.763817	28.221251
475.196018	28.450752
475.628204	28.693119
476.060375	28.918124
476.492530	29.129417
476.924670	29.350797
477.356795	29.551256
477.788904	29.758450
478.220998	29.943655
478.653076	30.124415
479.085139	30.297116
479.517186	30.466560
479.949219	30.618007
480.381235	30.771290
480.813236	30.920846
481.245221	31.078972
481.677191	31.228743
482.109146	31.358170
482.541084	31.458391
482.973008	31.557214
483.404915	31.669989
483.836807	31.784658
484.268683	31.897596
484.700544	32.019952
485.132388	32.125989
485.564217	32.242650
485.996031	32.358435
486.427828	32.484822
486.859610	32.617382
487.291376	32.747203
487.723126	32.891786
488.154860	33.028552
488.586579	33.179755
489.018281	33.345149
489.449968	33.534503
489.881639	33.732215
490.313293	33.923273
490.744932	34.142196
491.176555	34.355735
491.608162	34.604100
492.039753	34.860505
492.471328	35.108069
492.902886	35.378211
493.334429	35.679867
493.765956	35.973475
494.197466	36.284487
494.628960	36.624923
495.060439	36.991725
495.491901	37.381391
495.923347	37.790913
496.354776	38.224682
496.786190	38.665975
497.217587	39.121374
497.648968	39.575880
498.080332	40.065184
498.511681	40.561169
498.943013	41.068696
499.374328	41.607691
499.805628	42.159583
500.236911	42.729654
500.668177	43.322670
501.099427	43.914316
501.530661	44.531635
501.961878	45.164549
502.393079	45.792743
502.824264	46.435048
503.255431	47.081038
503.686583	47.731559
504.117717	48.389419
504.548835	49.051172
504.979937	49.697416
505.411022	50.348932
505.842090	51.009390
506.273142	51.682497
506.704177	52.333802
507.135195	52.998767
507.566197	53.660822
507.997182	54.320345
508.428150	54.967341
508.859102	55.630279
509.290036	56.269601
509.720954	56.922775
510.151855	57.593711
510.582739	58.273295
511.013607	58.949834
511.444457	59.615828
511.875291	60.298047
512.306107	60.959335
512.736907	61.607794
513.167690	62.248076
513.598456	62.867441
514.029205	63.455511
514.459936	64.061597
514.890651	64.650094
515.321349	65.189519
515.752030	65.737151
516.182693	66.254428
516.613340	66.749652
517.043969	67.252384
517.474582	67.740147
517.905177	68.234233
518.335755	68.723213
518.766315	69.201828
519.196859	69.691272
519.627385	70.148440
520.057894	70.600086
520.488386	71.042630
520.918860	71.482811
521.349318	71.918616
521.779757	72.327695
522.210180	72.711814
522.640585	73.117397
523.070973	73.488975
523.501343	73.827280
523.931696	74.153483
524.362031	74.470812
524.792349	74.771419
525.222650	75.083402
525.652933	75.381279
526.083198	75.684844
526.513446	75.975247
526.943677	76.271430
527.373890	76.567857
527.804085	76.876527
528.234262	77.155072
528.664422	77.464325
529.094565	77.732934
529.524689	78.013011
529.954796	78.301060
530.384885	78.561989
530.814957	78.796918
531.245011	79.010321
531.675047	79.217958
532.105065	79.415678
532.535065	79.593141
532.965048	79.756627
533.395013	79.939534
533.824959	80.083556
534.254888	80.223388
534.684799	80.360508
535.114693	80.513498
535.544568	80.670294
535.974425	80.823828
536.404264	80.944861
536.834086	81.090364
537.263889	81.222103
537.693674	81.354731
538.123441	81.492003
538.553190	81.595357
538.982921	81.721866
539.412634	81.838174
539.842329	81.950349
540.272006	82.057556
540.701664	82.162351
541.131304	82.238433
541.560926	82.323038
541.990530	82.408894
542.420116	82.495066
542.849683	82.578267
543.279232	82.640082
543.708763	82.710955
544.138275	82.785008
544.567769	82.869029
544.997245	82.931000
545.426702	83.002075
545.856141	83.074556
546.285562	83.153918
546.714964	83.216584
547.144347	83.314150
547.573713	83.395973
548.003059	83.474839
548.432387	83.561650
548.861697	83.653071
549.290988	83.718184
549.720260	83.825219
550.149514	83.909889
550.578750	83.984909
551.007966	84.070094
551.437164	84.147536
551.866344	84.236476
552.295504	84.317921
552.724646	84.381312
553.153769	84.455149
553.582874	84.500655
554.011960	84.548428
554.441027	84.578154
554.870075	84.603494
555.299104	84.604154
555.728115	84.613355
556.157106	84.602848
556.586079	84.592753
557.015033	84.563476
557.443968	84.534357
557.872884	84.504814
558.301781	84.490079
558.730659	84.434097
559.159518	84.391692
559.588358	84.347745
560.017180	84.286421
560.445982	84.212170
560.874765	84.151095
561.303528	84.086853
561.732273	84.000359
562.160999	83.917148
562.589705	83.843704
563.018393	83.748178
563.447061	83.658436
563.875710	83.564553
564.304340	83.463955
564.732950	83.366249
565.161542	83.246764
565.590114	83.129081
566.018666	83.005777
566.447200	82.875578
566.875714	82.769216
567.304208	82.644766
567.732684	82.524733
568.161140	82.403725
568.589576	82.278479
569.017993	82.136684
569.446391	82.003585
569.874769	81.859875
570.303128	81.723022
570.731467	81.584890
571.159787	81.423761
571.588087	81.256664
572.016368	81.110539
572.444629	80.937706
572.872870	80.755212
573.301092	80.584942
573.729294	80.396270
574.157476	80.188439
574.585639	79.965625
575.013782	79.735064
575.441906	79.498949
575.870009	79.233712
576.298093	78.970846
576.726157	78.691721
577.154202	78.406883
577.582226	78.100989
578.010231	77.782351
578.438216	77.466322
578.866181	77.117612
579.294126	76.754936
579.722051	76.379905
580.149957	75.982334
580.577842	75.575751
581.005707	75.147392
581.433553	74.712983
581.861378	74.267498
582.289184	73.821898
582.716969	73.356295
583.144734	72.887521
583.572479	72.427426
584.000205	71.950911
584.427910	71.477794
584.855594	71.008049
585.283259	70.524288
585.710904	70.047680
586.138528	69.568425
586.566132	69.077261
586.993716	68.597443
587.421280	68.108899
587.848823	67.630107
588.276346	67.136125
588.703849	66.626728
589.131332	66.120991
589.558794	65.604300
589.986236	65.072980
590.413657	64.556026
590.841058	64.030149
591.268438	63.501167
591.695799	62.975993
592.123138	62.467991
592.550458	61.973052
592.977756	61.482089
593.405034	61.004277
593.832292	60.544694
594.259529	60.088692
594.686746	59.649234
595.113942	59.222455
595.541117	58.797296
595.968272	58.400513
596.395406	58.016748
596.822519	57.637204
597.249612	57.272190
597.676684	56.915492
598.103735	56.563548
598.530766	56.241354
598.957775	55.914906
599.384764	55.609932
599.811733	55.330037
600.238680	55.040940
600.665606	54.773039
601.092512	54.503541
601.519397	54.254693
601.946261	54.014570
602.373104	53.792806
602.799926	53.586035
603.226727	53.388557
603.653507	53.188743
604.080266	53.002423
604.507004	52.831488
604.933721	52.654312
605.360417	52.487535
605.787092	52.328877
606.213746	52.178706
606.640379	52.025360
607.066991	51.877598
607.493581	51.748407
607.920150	51.621511
608.346699	51.497971
608.773226	51.398403
609.199731	51.274959
609.626216	51.156601
610.052679	51.027151
610.479121	50.904303
610.905542	50.777935
611.331941	50.654154
611.758319	50.518900
612.184676	50.393583
612.611011	50.261156
613.037325	50.105883
613.463617	49.970902
613.889888	49.816615
614.316138	49.659524
614.742366	49.511245
615.168573	49.356843
615.594758	49.199013
616.020921	49.048229
616.447063	48.902344
616.873184	48.767061
617.299283	48.642318
617.725360	48.518957
618.151416	48.417311
618.577450	48.320485
619.003462	48.232155
619.429453	48.157157
619.855422	48.111566
620.281369	48.076083
620.707295	48.046103
621.133199	48.033637
621.559081	48.046106
621.984941	48.068943
622.410779	48.119212
622.836596	48.189367
623.262391	48.285394
623.688163	48.389718
624.113914	48.533475
624.539644	48.683851
624.965351	48.854951
625.391036	49.037569
625.816699	49.233425
626.242340	49.448407
626.667960	49.664092
627.093557	49.912318
627.519132	50.188633
627.944685	50.461505
628.370216	50.745379
628.795725	51.046233
629.221212	51.339885
629.646677	51.641233
630.072119	51.957736
630.497540	52.271770
630.922938	52.592170
631.348314	52.897074
631.773668	53.207538
632.198999	53.523202
632.624308	53.826095
633.049595	54.115622
633.474860	54.395194
633.900102	54.676168
634.325322	54.943535
634.750520	55.192630
635.175695	55.425827
635.600848	55.654451
636.025978	55.856785
636.451086	56.061853
636.876171	56.251158
637.301234	56.408016
637.726275	56.561103
638.151293	56.706900
638.576288	56.843534
639.001261	56.964355
639.426211	57.086548
639.851139	57.196911
640.276044	57.290739
640.700927	57.363242
641.125787	57.429660
641.550624	57.494467
641.975438	57.542076
642.400230	57.589032
642.824999	57.617627
643.249745	57.627709
643.674469	57.632705
644.099169	57.619613
644.523847	57.623939
644.948502	57.605477
645.373135	57.564706
645.797744	57.520753
646.222330	57.475529
646.646894	57.411490
647.071435	57.346932
647.495953	57.272607
647.920447	57.197444
648.344919	57.116947
648.769368	57.030266
649.193794	56.949280
649.618197	56.850563
650.042576	56.763818
650.466933	56.697548
650.891267	56.630052
651.315577	56.556842
651.739864	56.492874
652.164129	56.439504
652.588370	56.386040
653.012587	56.345379
653.436782	56.312615
653.860953	56.288693
654.285102	56.280425
654.709226	56.280709
655.133328	56.293543
655.557406	56.328618
655.981461	56.383116
656.405493	56.450189
656.829501	56.534432
657.253486	56.647744
657.677448	56.759463
658.101386	56.907325
658.525301	57.082790
658.949192	57.275598
659.373060	57.476509
659.796904	57.706674
660.220725	57.963677
660.644522	58.235910
661.068296	58.528774
661.492046	58.838841
661.915772	59.171252
662.339475	59.525859
662.763154	59.896391
663.186810	60.283130
663.610442	60.664573
664.034050	61.063959
664.457635	61.493453
664.881196	61.923131
665.304733	62.372424
665.728247	62.832945
666.151736	63.316905
666.575202	63.808132
666.998644	64.318003
667.422062	64.842140
667.845457	65.370966
668.268827	65.901521
668.692174	66.442301
669.115496	66.990538
669.538795	67.548523
669.962070	68.119970
670.385321	68.688920
670.808547	69.268665
671.231750	69.835736
671.654929	70.395342
672.078084	70.962161
672.501214	71.516277
672.924321	72.076828
673.347404	72.618258
673.770462	73.148203
674.193496	73.657555
674.616506	74.150058
675.039492	74.632131
675.462454	75.098911
675.885391	75.546738
676.308305	75.968397
676.731194	76.385043
677.154058	76.772087
677.576899	77.135675
677.999715	77.486060
678.422507	77.807336
678.845274	78.114263
679.268017	78.386524
679.690736	78.647772
680.113430	78.873106
680.536100	79.085711
680.958746	79.294042
681.381367	79.496644
681.803963	79.662119
682.226535	79.820549
682.649083	79.965034
683.071605	80.092882
683.494104	80.205996
683.916578	80.300689
684.339027	80.390919
684.761451	80.479886
685.183851	80.539441
685.606227	80.602543
686.028577	80.642260
686.450903	80.671608
686.873204	80.691597
687.295481	80.715560
687.717733	80.721936
688.139959	80.710860
688.562162	80.699234
688.984339	80.688904
689.406492	80.670441
689.828619	80.639040
690.250722	80.620353
690.672800	80.591578
691.094853	80.571516
691.516881	80.562205
691.938884	80.555031
692.360863	80.543873
692.782816	80.534580
693.204744	80.546568
693.626647	80.545302
694.048526	80.551715
694.470379	80.567445
694.892207	80.587799
695.314010	80.614035
695.735788	80.646982
696.157540	80.678075
696.579268	80.719793
697.000970	80.767284
697.422648	80.830404
697.844300	80.873655
698.265926	80.941796
698.687528	81.008902
699.109104	81.079968
699.530655	81.168085
699.952181	81.278256
700.373681	81.388258
700.795156	81.524418
701.216606	81.679130
701.638030	81.843003
702.059429	82.014825
702.480803	82.217046
702.902151	82.434341
703.323473	82.656863
703.744770	82.889006
704.166042	83.125943
704.587288	83.390790
705.008509	83.660705
705.429704	83.954731
705.850873	84.258894
706.272017	84.558926
706.693135	84.887889
707.114228	85.215634
707.535295	85.540798
707.956336	85.889909
708.377352	86.234378
708.798342	86.598040
709.219306	86.944457
709.640245	87.311198
710.061157	87.670734
710.482044	88.012883
710.902905	88.375601
711.323741	88.722373
711.744550	89.078014
712.165334	89.451010
712.586092	89.805925
713.006823	90.157872
713.427529	90.508859
713.848209	90.852339
714.268863	91.187121
714.689492	91.520434
715.110094	91.864798
715.530670	92.200014
715.951220	92.532996
716.371744	92.869157
716.792242	93.217185
717.212714	93.568838
717.633159	93.902279
718.053579	94.246982
718.473973	94.583095
718.894340	94.927492
719.314681	95.272180
719.734996	95.599935
720.155285	95.931674
720.575547	96.266668
720.995784	96.595658
721.415994	96.926961
721.836177	97.235656
722.256335	97.570263
722.676466	97.878774
723.096570	98.191438
723.516649	98.513771
723.936701	98.836080
724.356726	99.146752
724.776725	99.448958
725.196698	99.735043
725.616644	100.033076
726.036564	100.311688
726.456457	100.579310
726.876324	100.844495
727.296164	101.103664
727.715977	101.357742
728.135764	101.593132
728.555525	101.824413
728.975258	102.056562
729.394966	102.271908
729.814646	102.478137
730.234300	102.674218
730.653927	102.868481
731.073527	103.034929
731.493101	103.202343
731.912648	103.362025
732.332168	103.514269
732.751661	103.665730
733.171128	103.814133
733.590568	103.949218
734.009980	104.066067
734.429366	104.191775
734.848726	104.300742
735.268058	104.414493
735.687363	104.524701
736.106641	104.631649
736.525893	104.716337
736.945117	104.794952
737.364314	104.891615
737.783485	104.986013
738.202628	105.068133
738.621744	105.142544
739.040834	105.216202
739.459896	105.295042
739.878931	105.373241
740.297939	105.436558
740.716919	105.491752
741.135873	105.550834
741.554799	105.603852
741.973698	105.656395
742.392570	105.701427
742.811415	105.752304
743.230232	105.787530
743.649022	105.820511
744.067785	105.860661
744.486521	105.908015
744.905229	105.946132
745.323909	105.972994
745.742563	105.994875
746.161189	106.012625
746.579787	106.040180
746.998358	106.073324
747.416902	106.093964
747.835418	106.134314
748.253907	106.165696
748.672368	106.185895
749.090802	106.202633
749.509208	106.227870
749.927586	106.256462
750.345937	106.277863
750.764261	106.295053
751.182556	106.322037
751.600824	106.330325
752.019065	106.349492
752.437277	106.372474
752.855462	106.394949
753.273620	106.422434
753.691749	106.452784
754.109851	106.469607
754.527925	106.475540
754.945971	106.476210
755.363989	106.490361
755.781980	106.495661
756.199943	106.498228
756.617877	106.499438
757.035784	106.493861
757.453663	106.474424
757.871514	106.446705
758.289337	106.443878
758.707132	106.429591
759.124899	106.395500
759.542639	106.360192
759.960350	106.316592
760.378033	106.267605
760.795688	106.196789
761.213314	106.118801
761.630913	106.041128
762.048484	105.962650
762.466026	105.888685
762.883541	105.783896
763.301027	105.663025
763.718485	105.549637
764.135914	105.423619
764.553316	105.306107
764.970689	105.185817
765.388034	105.055749
765.805351	104.915561
766.222639	104.768229
766.639899	104.617982
767.057131	104.470787
767.474334	104.340948
767.891509	104.204978
768.308655	104.059819
768.725773	103.911470
769.142863	103.784672
769.559924	103.651084
769.976957	103.529239
770.393961	103.414501
770.810936	103.298492
771.227883	103.164694
771.644802	103.042867
772.061692	102.923534
772.478553	102.805858
772.895386	102.699258
773.312190	102.592423
773.728965	102.508636
774.145712	102.428571
774.562430	102.339069
774.979119	102.263145
775.395780	102.182634
775.812411	102.119584
776.229014	102.069482
776.645589	102.013370
777.062134	101.986271
777.478651	101.953900
777.895138	101.906366
778.311597	101.883604
778.728027	101.857509
779.144428	101.863847
779.560800	101.853084
779.977143	101.856844
780.393458	101.846701
780.809743	101.847849
781.225999	101.863355
781.642226	101.884684
782.058425	101.908493
782.474594	101.926610
782.890734	101.939968
783.306845	101.946760
783.722926	101.966200
784.138979	101.995258
784.555003	102.031335
784.970997	102.065934
785.386962	102.085966
785.802898	102.114556
786.218805	102.148558
786.634682	102.159285
787.050531	102.173892
787.466349	102.195234
787.882139	102.189109
788.297899	102.173205
788.713630	102.162767
789.129332	102.142455
789.545004	102.119076
789.960647	102.068077
790.376260	102.017663
790.791844	101.970014
791.207399	101.894890
791.622924	101.828927
792.038419	101.747277
792.453885	101.662123
792.869321	101.556289
793.284728	101.462402
793.700106	101.340770
794.115453	101.221340
794.530771	101.078998
794.946060	100.940403
795.361319	100.779030
795.776548	100.602848
796.191747	100.432516
796.606917	100.241931
797.022057	100.053728
797.437167	99.836831
797.852248	99.626580
798.267298	99.412117
798.682319	99.193183
799.097310	98.941502
799.512271	98.697789
799.927203	98.427201
800.342104	98.175055
800.756976	97.929535
801.171818	97.671549
801.586629	97.401676
802.001411	97.136442
802.416163	96.865241
802.830885	96.592753
803.245577	96.320534
803.660238	96.039734
804.074870	95.739147
804.489472	95.436114
804.904043	95.144072
805.318585	94.836785
805.733096	94.551196
806.147577	94.232536
806.562028	93.918685
806.976449	93.591258
807.390840	93.284705
807.805200	92.949887
808.219530	92.632278
808.633830	92.331071
809.048100	91.995842
809.462339	91.668138
809.876548	91.330379
810.290727	90.998415
810.704875	90.658528
811.118993	90.307052
811.533080	89.945690
811.947137	89.605672
812.361164	89.248405
812.775160	88.884923
813.189126	88.517889
813.603061	88.153167
814.016966	87.776449
814.430840	87.396551
814.844684	87.024235
815.258497	86.654473
815.672280	86.274341
816.086032	85.895671
816.499753	85.534236
816.913444	85.168429
817.327104	84.824420
817.740733	84.441455
818.154331	84.083471
818.567899	83.707772
818.981436	83.347886
819.394943	83.005654
819.808418	82.666999
820.221863	82.308760
820.635277	81.963798
821.048660	81.613159
821.462013	81.242559
821.875334	80.891453
822.288625	80.530226
822.701884	80.175219
823.115113	79.823139
823.528311	79.462645
823.941478	79.112185
824.354614	78.749029
824.767718	78.403261
825.180792	78.049927
825.593835	77.709153
826.006847	77.361730
826.419827	77.002002
826.832777	76.677809
827.245695	76.340996
827.658582	75.988513
828.071438	75.641958
828.484263	75.302116
828.897057	74.961400
829.309819	74.624818
829.722551	74.309408
830.135251	73.977292
830.547919	73.653407
830.960557	73.332906
831.373163	73.020705
831.785738	72.707789
832.198281	72.380580
832.610793	72.062470
833.023274	71.755620
833.435723	71.434356
833.848141	71.134458
834.260528	70.865044
834.672883	70.598364
835.085206	70.324750
835.497498	70.050063
835.909758	69.796309
836.321987	69.554266
836.734185	69.323399
837.146350	69.099379
837.558485	68.857251
837.970587	68.627170
838.382658	68.401089
838.794697	68.169000
839.206705	67.944813
839.618681	67.712581
840.030625	67.510068
840.442538	67.287147
840.854418	67.054638
841.266267	66.849313
841.678084	66.647217
842.089870	66.418981
842.501623	66.210619
842.913345	65.991586
843.325035	65.790178
843.736693	65.589082
844.148319	65.380550
844.559913	65.182427
844.971475	64.991790
845.383005	64.808238
845.794504	64.607197
846.205970	64.427100
846.617404	64.254453
847.028806	64.053029
847.440176	63.878170
847.851514	63.712019
848.262820	63.549271
848.674094	63.374995
849.085336	63.213043
849.496546	63.059301
849.907723	62.905623
850.318868	62.747194
850.729981	62.599663
851.141062	62.471219
851.552110	62.335395
851.963127	62.222175
852.374111	62.121624
852.785062	61.995903
853.195982	61.915971
853.606869	61.844289
854.017723	61.753130
854.428546	61.658363
854.839336	61.616727
855.250093	61.543374
855.660818	61.479338
856.071511	61.437339
856.482171	61.402957
856.892799	61.350754
857.303394	61.305406
857.713956	61.256684
858.124486	61.205909
858.534984	61.159005
858.945449	61.124086
859.355881	61.056009
859.766280	61.025102
860.176647	60.941368
860.586982	60.891352
860.997283	60.820411
861.407552	60.743860
861.817789	60.653216
862.227992	60.566443
862.638163	60.475240
863.048301	60.387964
863.458406	60.267783
863.868478	60.143205
864.278518	60.020649
864.688524	59.873279
865.098498	59.694036
865.508439	59.525611
865.918347	59.330809
866.328222	59.146804
866.738064	58.944545
867.147873	58.748437
867.557649	58.502694
867.967392	58.271497
868.377102	58.026200
868.786779	57.769978
869.196423	57.489345
869.606034	57.234998
870.015612	56.970372
870.425156	56.704949
870.834668	56.430031
871.244146	56.163711
871.653591	55.889554
872.063003	55.616641
872.472382	55.315436
872.881728	55.060362
873.291040	54.771103
873.700319	54.504726
874.109564	54.272793
874.518777	54.021277
874.927956	53.770132
875.337102	53.538397
875.746214	53.295498
876.155293	53.098825
876.564338	52.902599
876.973350	52.709772
877.382329	52.539614
877.791274	52.405547
878.200186	52.269127
878.609064	52.147544
879.017909	52.021447
879.426720	51.923415
879.835497	51.844899
880.244241	51.788592
880.652952	51.734307
881.061629	51.706778
881.470272	51.666270
881.878881	51.661828
882.287457	51.644040
882.695999	51.615296
883.104507	51.595837
883.512982	51.571787
883.921423	51.573153
884.329830	51.545729
884.738203	51.546670
885.146543	51.538280
885.554849	51.491994
885.963120	51.472049
886.371358	51.423123
886.779563	51.356116
887.187733	51.314706
887.595869	51.263150
888.003971	51.188527
888.412040	51.109351
888.820074	51.001403
889.228074	50.907807
889.636041	50.809062
890.043973	50.694284
890.451871	50.556578
890.859736	50.427981
891.267566	50.292850
891.675362	50.137297
892.083124	50.003923
892.490851	49.822658
892.898545	49.636532
893.306204	49.437287
893.713829	49.239519
894.121420	49.030168
894.528977	48.800956
894.936499	48.589932
895.343987	48.368945
895.751441	48.163444
896.158860	47.959121
896.566246	47.722169
896.973596	47.521134
897.380913	47.279948
897.788195	47.068473
898.195442	46.870283
898.602655	46.676523
899.009834	46.500893
899.416978	46.318735
899.824088	46.158631
900.231163	45.987671
900.638204	45.849846
901.045210	45.709068
901.452181	45.591467
901.859118	45.452289
902.266021	45.333741
902.672888	45.211086
903.079721	45.123067
903.486520	45.044683
903.893283	44.955810
904.300012	44.881396
904.706707	44.784494
905.113366	44.748178
905.519991	44.703501
905.926581	44.663961
906.333136	44.636258
906.739656	44.598399
907.146142	44.595031
907.552592	44.581251
907.959008	44.571342
908.365389	44.556096
908.771735	44.534004
909.178046	44.527891
909.584322	44.506090
909.990563	44.491644
910.396769	44.493077
910.802940	44.486908
911.209076	44.436573
911.615177	44.409425
912.021243	44.359383
912.427274	44.298853
912.833270	44.234441
913.239231	44.169182
913.645156	44.133107
914.051046	44.076412
914.456902	44.020945
914.862721	43.970889
915.268506	43.923968
915.674256	43.858890
916.079970	43.791406
916.485649	43.728663
916.891292	43.660205
917.296901	43.597309
917.702474	43.491112
918.108011	43.419103
918.513514	43.361761
918.918980	43.261839
919.324412	43.196905
919.729808	43.113877
920.135169	43.028537
920.540494	42.969776
920.945783	42.897866
921.351037	42.835061
921.756256	42.770382
922.161439	42.715829
922.566586	42.669824
922.971698	42.619593
923.376775	42.570322
923.781815	42.559824
924.186820	42.541625
924.591790	42.565918
924.996723	42.584068
925.401621	42.575627
925.806484	42.600705
926.211310	42.593457
926.616101	42.610202
927.020856	42.636641
927.425575	42.644860
927.830259	42.649613
928.234906	42.673961
928.639518	42.705833
929.044094	42.726370
929.448634	42.766337
929.853138	42.790675
930.257606	42.863042
930.662038	42.885670
931.066434	42.886920
931.470795	42.942065
931.875119	42.985914
932.279407	43.011210
932.683659	43.030729
933.087875	43.028381
933.492055	43.049269
933.896199	43.061272
934.300307	43.058426
934.704379	43.044052
935.108414	43.042925
935.512414	43.035043
935.916377	43.013190
936.320304	42.973212
936.724195	42.937700
937.128049	42.866834
937.531867	42.789522
937.935649	42.776478
938.339395	42.717678
938.743104	42.662888
939.146777	42.589066
939.550414	42.504713
939.954014	42.426730
940.357578	42.379642
940.761105	42.302472
941.164596	42.215474
941.568050	42.144117
941.971468	42.057751
942.374850	41.942667
942.778195	41.797045
943.181503	41.697762
943.584775	41.645374
943.988010	41.548538
944.391209	41.465932
944.794371	41.383948
945.197496	41.327507
945.600585	41.257317
946.003637	41.166062
946.406653	41.083527
946.809632	41.017121
947.212574	40.939454
947.615479	40.867008
948.018347	40.791856
948.421179	40.759486
948.823974	40.747122
949.226732	40.712313
949.629453	40.690405
950.032138	40.686336
950.434785	40.630425
950.837396	40.603666
951.239969	40.573621
951.642506	40.537109
952.045006	40.522272
952.447469	40.504421
952.849895	40.455804
953.252283	40.415059
953.654635	40.382539
954.056950	40.337938
954.459227	40.311425
954.861468	40.286225
955.263671	40.303383
955.665838	40.273681
956.067967	40.263495
956.470059	40.218512
956.872114	40.159677
957.274131	40.113768
957.676112	40.051591
958.078055	40.024827
958.479961	39.980404
958.881829	39.959594
959.283661	39.930371
959.685455	39.892983
960.087211	39.860840
960.488931	39.795949
960.890613	39.718155
961.292257	39.637058
961.693864	39.591384
962.095434	39.473725
962.496966	39.359930
962.898461	39.306807
963.299918	39.173348
963.701338	39.095674
964.102720	39.077366
964.504065	38.988337
964.905372	38.937203
965.306641	38.819613
965.707873	38.720556
966.109068	38.619866
966.510224	38.517031
966.911343	38.418196
967.312425	38.383362
967.713468	38.262671
968.114474	38.174434
968.515442	38.033172
968.916373	37.951122
969.317265	37.869422
969.718120	37.814862
970.118937	37.692577
970.519716	37.592777
970.920458	37.515176
971.321161	37.396470
971.721827	37.292108
972.122454	37.217096
972.523044	37.096853
972.923596	37.001328
973.324110	36.884014
973.724585	36.773557
974.125023	36.676635
974.525423	36.629354
974.925785	36.510876
975.326108	36.419763
975.726394	36.306847
976.126642	36.293327
976.526851	36.164875
976.927022	36.089351
977.327155	36.011133
977.727250	35.956865
978.127307	35.965936
978.527325	35.950428
978.927306	35.946850
979.327248	35.893948
979.727151	35.835080
980.127017	35.838691
980.526844	35.804482
980.926633	35.797427
981.326383	35.785222
981.726095	35.776602
982.125769	35.725339
982.525404	35.772341
982.925001	35.827705
983.324560	35.825732
983.724079	35.826235
984.123561	35.918908
984.523004	35.950217
984.922408	36.020314
985.321774	36.054590
985.721102	36.160200
986.120390	36.183445
986.519641	36.199615
986.918852	36.227705
987.318025	36.414347
987.717159	36.429807
988.116255	36.555501
988.515312	36.535311
988.914330	36.632892
989.313310	36.732772
989.712250	36.719190
990.111152	36.895339
990.510015	36.930779
990.908840	37.044009
991.307625	37.125419
991.706372	37.248067
992.105080	37.301373
992.503749	37.394726
992.902379	37.500883
993.300970	37.598166
993.699522	37.801430
994.098035	37.866042
994.496510	37.901280
994.894945	38.047018
995.293341	38.020654
995.691698	38.171254
996.090016	38.377773
996.488296	38.380823
996.886535	38.478559
997.284736	38.507991
997.682898	38.701431
998.081021	38.685663
998.479104	38.897274
998.877148	38.993820
999.275153	39.337833
999.673119	39.370715
1000.071046	39.534139
1000.468933	39.707168
1000.866781	39.796775
1001.264590	39.927233
1001.662359	39.875070
1002.060089	40.052843
1002.457780	40.135679
1002.855431	40.327147
1003.253043	40.384864
1003.650615	40.579902
1004.048148	40.724918
1004.445642	40.968550
1004.843096	41.166631
1005.240511	41.413218
1005.637886	41.555956
1006.035221	41.557140
1006.432517	41.786025
1006.829774	42.153871
1007.226991	42.367367
1007.624168	42.884640
1008.021306	43.036090
1008.418404	43.264074
1008.815462	43.590338
1009.212481	43.955624
1009.609460	44.565538
1010.006399	44.809295
1010.403298	45.374082
1010.800158	45.800096
1011.196978	46.274985
1011.593758	46.625000
1011.990498	47.140432
1012.387199	47.889542
1012.783860	48.460241
1013.180480	48.955782
1013.577061	49.475162
1013.973602	50.559161
1014.370103	51.407344
1014.766564	51.844894
1015.162985	52.191140
1015.559366	52.413216
1015.955708	52.677702
1016.352009	53.047807
1016.748270	53.571429
1017.144491	53.944155
1017.540671	54.607854
1017.936812	55.306122
1018.332913	55.878214
1018.728973	56.549170
1019.124994	57.144955
1019.520974	57.673975
1019.916914	57.825937
1020.312814	58.808047
