PE UV       SUBTECH     SPECTRUM    ASCII       PEDS        4.00        
   -1
INBUCR0137-3.Sample.ASC
24/04/29
11:56:09.00
24/04/29
11:56:09.00
Vinicio Soto Monge
C. cupreomarginata
250,000000
1
Lambda 1050
1050L1511233
PerkinElmer UV WinLab 6.3.2.0749 / 2.02.05 Lambda 900 UV/VIS/NIR, Aug  7 2015 09:38:08

0
0
3350/servo 860,8/2
0
0
UV/VIS
1
1
1
DoubleDePol,CommonBeamDepol,RBeamAtt,SBeamAtt,60mm sphere, WB InGaAs Detector
0
0
0
0
Program
Program
3350/servo 860,8/2
3350/0,2 860,8/0,2
3350/0,2 860,8/0,2
0
15.00
 
 
 
0
 
860,8
319,2
860,8
Front
100
on
S:100 R:100
0
0
0
0
 
0
 
 
 
0
 
 
0
0
0
0
0
 
 
 
 
0
0


0
0
#HDR
-1
-1
#GR
nm
%R
1.0
0.0
2500,000000
-1,000000
2251
8
79,629100
5,602400
#DATA
250.000000	0.316192
251.000000	0.310049
252.000000	0.298742
253.000000	0.351392
254.000000	0.309253
255.000000	0.273943
256.000000	0.280180
257.000000	0.295567
258.000000	0.311675
259.000000	0.326790
260.000000	0.283979
261.000000	0.291320
262.000000	0.295549
263.000000	0.285650
264.000000	0.329234
265.000000	0.300561
266.000000	0.310566
267.000000	0.282999
268.000000	0.280828
269.000000	0.292607
270.000000	0.266911
271.000000	0.282145
272.000000	0.317769
273.000000	0.323722
274.000000	0.287102
275.000000	0.325068
276.000000	0.275155
277.000000	0.317927
278.000000	0.301786
279.000000	0.330357
280.000000	0.316531
281.000000	0.349205
282.000000	0.309497
283.000000	0.309223
284.000000	0.299265
285.000000	0.232681
286.000000	0.324608
287.000000	0.338968
288.000000	0.334311
289.000000	0.298883
290.000000	0.317223
291.000000	0.325674
292.000000	0.320158
293.000000	0.314946
294.000000	0.320154
295.000000	0.301578
296.000000	0.242059
297.000000	0.290693
298.000000	0.253902
299.000000	0.271937
300.000000	0.302511
301.000000	0.298706
302.000000	0.282633
303.000000	0.327631
304.000000	0.383314
305.000000	0.307883
306.000000	0.264085
307.000000	0.301069
308.000000	0.300375
309.000000	0.380825
310.000000	0.330375
311.000000	0.312691
312.000000	0.301953
313.000000	0.278165
314.000000	0.368675
315.000000	0.343071
316.000000	0.357624
317.000000	0.638082
318.000000	0.422313
319.000000	0.460716
320.000000	0.498114
321.000000	0.454590
322.000000	0.614379
323.000000	0.635138
324.000000	0.290968
325.000000	0.629296
326.000000	0.492078
327.000000	0.518483
328.000000	0.561603
329.000000	0.249166
330.000000	0.514389
331.000000	0.523196
332.000000	0.213814
333.000000	0.352310
334.000000	0.450352
335.000000	0.544649
336.000000	0.376975
337.000000	0.253527
338.000000	0.358004
339.000000	0.511523
340.000000	0.419679
341.000000	0.496942
342.000000	0.511389
343.000000	0.360986
344.000000	0.336480
345.000000	0.285543
346.000000	0.427008
347.000000	0.381070
348.000000	0.478984
349.000000	0.262533
350.000000	0.370653
351.000000	0.376175
352.000000	0.397702
353.000000	0.405450
354.000000	0.378778
355.000000	0.420898
356.000000	0.470681
357.000000	0.440721
358.000000	0.436596
359.000000	0.423386
360.000000	0.408578
361.000000	0.514528
362.000000	0.450708
363.000000	0.394059
364.000000	0.342620
365.000000	0.289615
366.000000	0.377546
367.000000	0.387020
368.000000	0.502356
369.000000	0.518636
370.000000	0.475278
371.000000	0.328987
372.000000	0.357604
373.000000	0.395295
374.000000	0.492595
375.000000	0.483619
376.000000	0.498263
377.000000	0.358873
378.000000	0.366877
379.000000	0.359660
380.000000	0.351431
381.000000	0.364618
382.000000	0.354700
383.000000	0.350677
384.000000	0.358769
385.000000	0.366245
386.000000	0.367480
387.000000	0.361383
388.000000	0.363378
389.000000	0.355782
390.000000	0.335373
391.000000	0.353160
392.000000	0.351323
393.000000	0.350102
394.000000	0.339405
395.000000	0.338387
396.000000	0.351436
397.000000	0.337375
398.000000	0.332519
399.000000	0.335596
400.000000	0.326243
401.000000	0.317699
402.000000	0.317882
403.000000	0.321769
404.000000	0.317475
405.000000	0.315160
406.000000	0.320015
407.000000	0.317669
408.000000	0.309524
409.000000	0.302697
410.000000	0.293343
411.000000	0.291407
412.000000	0.291222
413.000000	0.283365
414.000000	0.289082
415.000000	0.294597
416.000000	0.290687
417.000000	0.287265
418.000000	0.289887
419.000000	0.291043
420.000000	0.284799
421.000000	0.277752
422.000000	0.280743
423.000000	0.289017
424.000000	0.290900
425.000000	0.285954
426.000000	0.286587
427.000000	0.291147
428.000000	0.286467
429.000000	0.299544
430.000000	0.297952
431.000000	0.298452
432.000000	0.302168
433.000000	0.301421
434.000000	0.301163
435.000000	0.293419
436.000000	0.291755
437.000000	0.287418
438.000000	0.286712
439.000000	0.289295
440.000000	0.283952
441.000000	0.279402
442.000000	0.279769
443.000000	0.281468
444.000000	0.294177
445.000000	0.296426
446.000000	0.288769
447.000000	0.282348
448.000000	0.282583
449.000000	0.301504
450.000000	0.292109
451.000000	0.281786
452.000000	0.301759
453.000000	0.301604
454.000000	0.302771
455.000000	0.311653
456.000000	0.314892
457.000000	0.317197
458.000000	0.320795
459.000000	0.321998
460.000000	0.333208
461.000000	0.339238
462.000000	0.343897
463.000000	0.352319
464.000000	0.353794
465.000000	0.348273
466.000000	0.345917
467.000000	0.342037
468.000000	0.341953
469.000000	0.346845
470.000000	0.339694
471.000000	0.321529
472.000000	0.316490
473.000000	0.309142
474.000000	0.305112
475.000000	0.300048
476.000000	0.290411
477.000000	0.281881
478.000000	0.265648
479.000000	0.260037
480.000000	0.240223
481.000000	0.214486
482.000000	0.198890
483.000000	0.179283
484.000000	0.163345
485.000000	0.144051
486.000000	0.140895
487.000000	0.154711
488.000000	0.156794
489.000000	0.171740
490.000000	0.204948
491.000000	0.232428
492.000000	0.250907
493.000000	0.266045
494.000000	0.301650
495.000000	0.317505
496.000000	0.346006
497.000000	0.367706
498.000000	0.378358
499.000000	0.386591
500.000000	0.405141
501.000000	0.425145
502.000000	0.426108
503.000000	0.437051
504.000000	0.455145
505.000000	0.468279
506.000000	0.472731
507.000000	0.489672
508.000000	0.501403
509.000000	0.511708
510.000000	0.534655
511.000000	0.552270
512.000000	0.582202
513.000000	0.603386
514.000000	0.634538
515.000000	0.659267
516.000000	0.697430
517.000000	0.714275
518.000000	0.721904
519.000000	0.731501
520.000000	0.734148
521.000000	0.734456
522.000000	0.729005
523.000000	0.702054
524.000000	0.656790
525.000000	0.639663
526.000000	0.596333
527.000000	0.553311
528.000000	0.511468
529.000000	0.466941
530.000000	0.424895
531.000000	0.391484
532.000000	0.355874
533.000000	0.321962
534.000000	0.303410
535.000000	0.262395
536.000000	0.244768
537.000000	0.214110
538.000000	0.182868
539.000000	0.175081
540.000000	0.161675
541.000000	0.167360
542.000000	0.178179
543.000000	0.192320
544.000000	0.205455
545.000000	0.219986
546.000000	0.265502
547.000000	0.276836
548.000000	0.355571
549.000000	0.396311
550.000000	0.412912
551.000000	0.451107
552.000000	0.486058
553.000000	0.530332
554.000000	0.549465
555.000000	0.561849
556.000000	0.589510
557.000000	0.611316
558.000000	0.621324
559.000000	0.623305
560.000000	0.626681
561.000000	0.621001
562.000000	0.650838
563.000000	0.659223
564.000000	0.668686
565.000000	0.635481
566.000000	0.639106
567.000000	0.654632
568.000000	0.632719
569.000000	0.609004
570.000000	0.606598
571.000000	0.631054
572.000000	0.614305
573.000000	0.606666
574.000000	0.631497
575.000000	0.628222
576.000000	0.582997
577.000000	0.619255
578.000000	0.596539
579.000000	0.587858
580.000000	0.626269
581.000000	0.640442
582.000000	0.694534
583.000000	0.712350
584.000000	0.803515
585.000000	0.848193
586.000000	0.990671
587.000000	1.039029
588.000000	1.129395
589.000000	1.212220
590.000000	1.295509
591.000000	1.371139
592.000000	1.448835
593.000000	1.532586
594.000000	1.589658
595.000000	1.636397
596.000000	1.695037
597.000000	1.745651
598.000000	1.780745
599.000000	1.796255
600.000000	1.788550
601.000000	1.803035
602.000000	1.771212
603.000000	1.721827
604.000000	1.681975
605.000000	1.602803
606.000000	1.517794
607.000000	1.409374
608.000000	1.261899
609.000000	1.122534
610.000000	0.994757
611.000000	0.830079
612.000000	0.675481
613.000000	0.517167
614.000000	0.400980
615.000000	0.309966
616.000000	0.217229
617.000000	0.184117
618.000000	0.211894
619.000000	0.205055
620.000000	0.245260
621.000000	0.298731
622.000000	0.309761
623.000000	0.333343
624.000000	0.345428
625.000000	0.356020
626.000000	0.387570
627.000000	0.386890
628.000000	0.407268
629.000000	0.400700
630.000000	0.421773
631.000000	0.431355
632.000000	0.414183
633.000000	0.427358
634.000000	0.393604
635.000000	0.375639
636.000000	0.328258
637.000000	0.307966
638.000000	0.271355
639.000000	0.194643
640.000000	0.188570
641.000000	0.156115
642.000000	0.088779
643.000000	0.074851
644.000000	0.046231
645.000000	0.012114
646.000000	0.036201
647.000000	0.063897
648.000000	0.119988
649.000000	0.120425
650.000000	0.130750
651.000000	0.175736
652.000000	0.211905
653.000000	0.222379
654.000000	0.208770
655.000000	0.244699
656.000000	0.221400
657.000000	0.224390
658.000000	0.209866
659.000000	0.213086
660.000000	0.221755
661.000000	0.204243
662.000000	0.183329
663.000000	0.188384
664.000000	0.194903
665.000000	0.213182
666.000000	0.265947
667.000000	0.323657
668.000000	0.376087
669.000000	0.436122
670.000000	0.484008
671.000000	0.544646
672.000000	0.608160
673.000000	0.664794
674.000000	0.694315
675.000000	0.712634
676.000000	0.749191
677.000000	0.740087
678.000000	0.782021
679.000000	0.783202
680.000000	0.758697
681.000000	0.768010
682.000000	0.797922
683.000000	0.793727
684.000000	0.775514
685.000000	0.759048
686.000000	0.721059
687.000000	0.716039
688.000000	0.692934
689.000000	0.666983
690.000000	0.679919
691.000000	0.633055
692.000000	0.568964
693.000000	0.546514
694.000000	0.496428
695.000000	0.477823
696.000000	0.440193
697.000000	0.442597
698.000000	0.425960
699.000000	0.367028
700.000000	0.355782
701.000000	0.374657
702.000000	0.322694
703.000000	0.296918
704.000000	0.282193
705.000000	0.279400
706.000000	0.252159
707.000000	0.245661
708.000000	0.295350
709.000000	0.307415
710.000000	0.314564
711.000000	0.308030
712.000000	0.340457
713.000000	0.376457
714.000000	0.344165
715.000000	0.307941
716.000000	0.289364
717.000000	0.286591
718.000000	0.278510
719.000000	0.298689
720.000000	0.335309
721.000000	0.329339
722.000000	0.370897
723.000000	0.358606
724.000000	0.322479
725.000000	0.312409
726.000000	0.329813
727.000000	0.359585
728.000000	0.349961
729.000000	0.360745
730.000000	0.398545
731.000000	0.404904
732.000000	0.424716
733.000000	0.448448
734.000000	0.410040
735.000000	0.402892
736.000000	0.416632
737.000000	0.401227
738.000000	0.426500
739.000000	0.456553
740.000000	0.465749
741.000000	0.473022
742.000000	0.489276
743.000000	0.471041
744.000000	0.454947
745.000000	0.495457
746.000000	0.498039
747.000000	0.502828
748.000000	0.456461
749.000000	0.467813
750.000000	0.510730
751.000000	0.485409
752.000000	0.509154
753.000000	0.537578
754.000000	0.546932
755.000000	0.541788
756.000000	0.539065
757.000000	0.539105
758.000000	0.502724
759.000000	0.458992
760.000000	0.493840
761.000000	0.550181
762.000000	0.546390
763.000000	0.491396
764.000000	0.460531
765.000000	0.535421
766.000000	0.625717
767.000000	0.567870
768.000000	0.524516
769.000000	0.572203
770.000000	0.598887
771.000000	0.577164
772.000000	0.554919
773.000000	0.548926
774.000000	0.579895
775.000000	0.555873
776.000000	0.569217
777.000000	0.550024
778.000000	0.551117
779.000000	0.505472
780.000000	0.586964
781.000000	0.583337
782.000000	0.588678
783.000000	0.578396
784.000000	0.598911
785.000000	0.533107
786.000000	0.472362
787.000000	0.484138
788.000000	0.555271
789.000000	0.603334
790.000000	0.664649
791.000000	0.599914
792.000000	0.591223
793.000000	0.609340
794.000000	0.583374
795.000000	0.611995
796.000000	0.629172
797.000000	0.596446
798.000000	0.586812
799.000000	0.603322
800.000000	0.747308
801.000000	0.644339
802.000000	0.567342
803.000000	0.644211
804.000000	0.639451
805.000000	0.559784
806.000000	0.524724
807.000000	0.563640
808.000000	0.502498
809.000000	0.510595
810.000000	0.516935
811.000000	0.535837
812.000000	0.452572
813.000000	0.608403
814.000000	0.530841
815.000000	0.509751
816.000000	0.496698
817.000000	0.464664
818.000000	0.486241
819.000000	0.555541
820.000000	0.562755
821.000000	0.536723
822.000000	0.499978
823.000000	0.558773
824.000000	0.556205
825.000000	0.524943
826.000000	0.456597
827.000000	0.556900
828.000000	0.530630
829.000000	0.570476
830.000000	0.610907
831.000000	0.546118
832.000000	0.570208
833.000000	0.642534
834.000000	0.576572
835.000000	0.673732
836.000000	0.554881
837.000000	0.579642
838.000000	0.678791
839.000000	0.713294
840.000000	0.485263
841.000000	0.468824
842.000000	0.699339
843.000000	0.414416
844.000000	0.493236
845.000000	0.758077
846.000000	0.606222
847.000000	0.357079
848.000000	0.528327
849.000000	0.645830
850.000000	0.646714
851.000000	0.831983
852.000000	0.253419
853.000000	0.840677
854.000000	0.607109
855.000000	0.581426
856.000000	0.411816
857.000000	0.833686
858.000000	0.600628
859.000000	0.665649
860.000000	0.668857
861.000000	0.661920
862.000000	0.660497
863.000000	0.666882
864.000000	0.683521
865.000000	0.634969
866.000000	0.501835
867.000000	0.336085
868.000000	0.152871
869.000000	0.058547
870.000000	0.172444
871.000000	0.289809
872.000000	0.377784
873.000000	0.325329
874.000000	0.262886
875.000000	0.260153
876.000000	0.322901
877.000000	0.402499
878.000000	0.494542
879.000000	0.550153
880.000000	0.603907
881.000000	0.654648
882.000000	0.683120
883.000000	0.718190
884.000000	0.793395
885.000000	0.819143
886.000000	0.907329
887.000000	0.954102
888.000000	0.987860
889.000000	1.024072
890.000000	1.109219
891.000000	1.154865
892.000000	1.185829
893.000000	1.246762
894.000000	1.264150
895.000000	1.334921
896.000000	1.377392
897.000000	1.425564
898.000000	1.477991
899.000000	1.496380
900.000000	1.529955
901.000000	1.556289
902.000000	1.593103
903.000000	1.627150
904.000000	1.691292
905.000000	1.722725
906.000000	1.760909
907.000000	1.735920
908.000000	1.754454
909.000000	1.781874
910.000000	1.826210
911.000000	1.856144
912.000000	1.895418
913.000000	1.868068
914.000000	1.885042
915.000000	1.918740
916.000000	1.963346
917.000000	1.994360
918.000000	1.973070
919.000000	2.001480
920.000000	2.014639
921.000000	2.035278
922.000000	2.058223
923.000000	2.077849
924.000000	2.094999
925.000000	2.127914
926.000000	2.134464
927.000000	2.142416
928.000000	2.135358
929.000000	2.179941
930.000000	2.168310
931.000000	2.190863
932.000000	2.217038
933.000000	2.216821
934.000000	2.233740
935.000000	2.254375
936.000000	2.266796
937.000000	2.283188
938.000000	2.317187
939.000000	2.318476
940.000000	2.331998
941.000000	2.349652
942.000000	2.374009
943.000000	2.377895
944.000000	2.401667
945.000000	2.419567
946.000000	2.409383
947.000000	2.415173
948.000000	2.433690
949.000000	2.442753
950.000000	2.436367
951.000000	2.455509
952.000000	2.439417
953.000000	2.438676
954.000000	2.442212
955.000000	2.419616
956.000000	2.408114
957.000000	2.404381
958.000000	2.392761
959.000000	2.381331
960.000000	2.381771
961.000000	2.362690
962.000000	2.350298
963.000000	2.345029
964.000000	2.330178
965.000000	2.322801
966.000000	2.327416
967.000000	2.324324
968.000000	2.313642
969.000000	2.302948
970.000000	2.304224
971.000000	2.295936
972.000000	2.302713
973.000000	2.294041
974.000000	2.294893
975.000000	2.289142
976.000000	2.296238
977.000000	2.286053
978.000000	2.288717
979.000000	2.304311
980.000000	2.306165
981.000000	2.317498
982.000000	2.329053
983.000000	2.353612
984.000000	2.360824
985.000000	2.375763
986.000000	2.392981
987.000000	2.423461
988.000000	2.441800
989.000000	2.463176
990.000000	2.490538
991.000000	2.522066
992.000000	2.538880
993.000000	2.548681
994.000000	2.576222
995.000000	2.601627
996.000000	2.628004
997.000000	2.646158
998.000000	2.660221
999.000000	2.685183
1000.000000	2.713645
1001.000000	2.729671
1002.000000	2.749873
1003.000000	2.766119
1004.000000	2.787922
1005.000000	2.806962
1006.000000	2.824279
1007.000000	2.830064
1008.000000	2.828671
1009.000000	2.841281
1010.000000	2.862002
1011.000000	2.868720
1012.000000	2.876844
1013.000000	2.887028
1014.000000	2.884990
1015.000000	2.899811
1016.000000	2.906898
1017.000000	2.898756
1018.000000	2.902647
1019.000000	2.910443
1020.000000	2.914446
1021.000000	2.908537
1022.000000	2.909269
1023.000000	2.914664
1024.000000	2.918620
1025.000000	2.926331
1026.000000	2.914068
1027.000000	2.903009
1028.000000	2.908307
1029.000000	2.913836
1030.000000	2.908488
1031.000000	2.901038
1032.000000	2.906127
1033.000000	2.901249
1034.000000	2.882260
1035.000000	2.883843
1036.000000	2.887248
1037.000000	2.887013
1038.000000	2.887248
1039.000000	2.884706
1040.000000	2.880761
1041.000000	2.879615
1042.000000	2.884440
1043.000000	2.881431
1044.000000	2.881342
1045.000000	2.886712
1046.000000	2.891892
1047.000000	2.890046
1048.000000	2.889914
1049.000000	2.899193
1050.000000	2.907862
1051.000000	2.911558
1052.000000	2.906785
1053.000000	2.908531
1054.000000	2.913082
1055.000000	2.925311
1056.000000	2.925893
1057.000000	2.926802
1058.000000	2.934752
1059.000000	2.951871
1060.000000	2.957403
1061.000000	2.955081
1062.000000	2.964218
1063.000000	2.969767
1064.000000	2.975765
1065.000000	2.983935
1066.000000	2.999914
1067.000000	3.012440
1068.000000	3.006428
1069.000000	3.017567
1070.000000	3.023979
1071.000000	3.040188
1072.000000	3.048686
1073.000000	3.057215
1074.000000	3.062530
1075.000000	3.067702
1076.000000	3.072041
1077.000000	3.076428
1078.000000	3.075010
1079.000000	3.078845
1080.000000	3.095419
1081.000000	3.107575
1082.000000	3.122165
1083.000000	3.131884
1084.000000	3.126633
1085.000000	3.121965
1086.000000	3.129296
1087.000000	3.138603
1088.000000	3.138232
1089.000000	3.138810
1090.000000	3.136940
1091.000000	3.144710
1092.000000	3.141462
1093.000000	3.145884
1094.000000	3.142795
1095.000000	3.140465
1096.000000	3.139108
1097.000000	3.118273
1098.000000	3.119422
1099.000000	3.124144
1100.000000	3.114561
1101.000000	3.100016
1102.000000	3.096758
1103.000000	3.098328
1104.000000	3.096539
1105.000000	3.096200
1106.000000	3.078779
1107.000000	3.064883
1108.000000	3.070372
1109.000000	3.056764
1110.000000	3.056836
1111.000000	3.046930
1112.000000	3.026906
1113.000000	3.018924
1114.000000	3.021120
1115.000000	3.004929
1116.000000	2.993923
1117.000000	2.987442
1118.000000	2.977212
1119.000000	2.963689
1120.000000	2.958340
1121.000000	2.957272
1122.000000	2.945815
1123.000000	2.935594
1124.000000	2.922847
1125.000000	2.904783
1126.000000	2.897580
1127.000000	2.895625
1128.000000	2.895057
1129.000000	2.874327
1130.000000	2.873540
1131.000000	2.852140
1132.000000	2.852846
1133.000000	2.840028
1134.000000	2.847600
1135.000000	2.841659
1136.000000	2.828717
1137.000000	2.831918
1138.000000	2.827324
1139.000000	2.832434
1140.000000	2.817258
1141.000000	2.824973
1142.000000	2.828350
1143.000000	2.834642
1144.000000	2.832788
1145.000000	2.831982
1146.000000	2.841131
1147.000000	2.850986
1148.000000	2.840433
1149.000000	2.858808
1150.000000	2.870029
1151.000000	2.866230
1152.000000	2.862650
1153.000000	2.876004
1154.000000	2.884420
1155.000000	2.877365
1156.000000	2.879088
1157.000000	2.891359
1158.000000	2.893806
1159.000000	2.897844
1160.000000	2.881939
1161.000000	2.894935
1162.000000	2.907162
1163.000000	2.903297
1164.000000	2.921475
1165.000000	2.913727
1166.000000	2.916547
1167.000000	2.917007
1168.000000	2.929270
1169.000000	2.934564
1170.000000	2.936918
1171.000000	2.939742
1172.000000	2.949088
1173.000000	2.943590
1174.000000	2.953382
1175.000000	2.956059
1176.000000	2.974117
1177.000000	2.959331
1178.000000	2.966667
1179.000000	2.960802
1180.000000	2.956133
1181.000000	2.969139
1182.000000	2.956846
1183.000000	2.958113
1184.000000	2.951091
1185.000000	2.954705
1186.000000	2.960012
1187.000000	2.964547
1188.000000	2.962918
1189.000000	2.964777
1190.000000	2.954503
1191.000000	2.951660
1192.000000	2.943612
1193.000000	2.943347
1194.000000	2.938588
1195.000000	2.924528
1196.000000	2.926341
1197.000000	2.925594
1198.000000	2.919368
1199.000000	2.907941
1200.000000	2.907359
1201.000000	2.899439
1202.000000	2.894384
1203.000000	2.892081
1204.000000	2.886144
1205.000000	2.879056
1206.000000	2.864418
1207.000000	2.848874
1208.000000	2.844972
1209.000000	2.840404
1210.000000	2.832473
1211.000000	2.844865
1212.000000	2.827124
1213.000000	2.810621
1214.000000	2.796015
1215.000000	2.789452
1216.000000	2.785349
1217.000000	2.773941
1218.000000	2.766244
1219.000000	2.762139
1220.000000	2.759435
1221.000000	2.739270
1222.000000	2.735983
1223.000000	2.741487
1224.000000	2.731566
1225.000000	2.720390
1226.000000	2.715952
1227.000000	2.720618
1228.000000	2.712567
1229.000000	2.714075
1230.000000	2.716383
1231.000000	2.716984
1232.000000	2.723262
1233.000000	2.719409
1234.000000	2.724196
1235.000000	2.732802
1236.000000	2.734214
1237.000000	2.732004
1238.000000	2.735907
1239.000000	2.748763
1240.000000	2.743172
1241.000000	2.750281
1242.000000	2.759809
1243.000000	2.772241
1244.000000	2.777515
1245.000000	2.781126
1246.000000	2.784985
1247.000000	2.791654
1248.000000	2.795044
1249.000000	2.801927
1250.000000	2.821454
1251.000000	2.825232
1252.000000	2.840507
1253.000000	2.839022
1254.000000	2.842691
1255.000000	2.844402
1256.000000	2.843411
1257.000000	2.850616
1258.000000	2.860223
1259.000000	2.861952
1260.000000	2.872777
1261.000000	2.891942
1262.000000	2.890377
1263.000000	2.889110
1264.000000	2.901408
1265.000000	2.899323
1266.000000	2.904779
1267.000000	2.915952
1268.000000	2.917647
1269.000000	2.920879
1270.000000	2.932616
1271.000000	2.937172
1272.000000	2.947266
1273.000000	2.948363
1274.000000	2.944140
1275.000000	2.943706
1276.000000	2.952304
1277.000000	2.957756
1278.000000	2.954535
1279.000000	2.960611
1280.000000	2.968777
1281.000000	2.967456
1282.000000	2.968818
1283.000000	2.965597
1284.000000	2.970990
1285.000000	2.981219
1286.000000	2.979701
1287.000000	2.969592
1288.000000	2.965122
1289.000000	2.971344
1290.000000	2.976766
1291.000000	2.980310
1292.000000	2.980103
1293.000000	2.977429
1294.000000	2.971619
1295.000000	2.967801
1296.000000	2.967182
1297.000000	2.965889
1298.000000	2.960226
1299.000000	2.948592
1300.000000	2.941606
1301.000000	2.941410
1302.000000	2.933174
1303.000000	2.923570
1304.000000	2.923677
1305.000000	2.915156
1306.000000	2.909950
1307.000000	2.902457
1308.000000	2.886627
1309.000000	2.877643
1310.000000	2.871186
1311.000000	2.863936
1312.000000	2.869590
1313.000000	2.863551
1314.000000	2.848070
1315.000000	2.847755
1316.000000	2.836684
1317.000000	2.826490
1318.000000	2.825589
1319.000000	2.819936
1320.000000	2.819256
1321.000000	2.809867
1322.000000	2.801738
1323.000000	2.795016
1324.000000	2.782953
1325.000000	2.774607
1326.000000	2.773199
1327.000000	2.767279
1328.000000	2.757950
1329.000000	2.754999
1330.000000	2.752237
1331.000000	2.750741
1332.000000	2.735630
1333.000000	2.727084
1334.000000	2.721217
1335.000000	2.715157
1336.000000	2.714717
1337.000000	2.710654
1338.000000	2.696274
1339.000000	2.695355
1340.000000	2.695024
1341.000000	2.690925
1342.000000	2.674294
1343.000000	2.670449
1344.000000	2.675595
1345.000000	2.656812
1346.000000	2.654105
1347.000000	2.655006
1348.000000	2.652438
1349.000000	2.648033
1350.000000	2.649464
1351.000000	2.645833
1352.000000	2.638383
1353.000000	2.611750
1354.000000	2.631167
1355.000000	2.641253
1356.000000	2.632204
1357.000000	2.643864
1358.000000	2.640314
1359.000000	2.630591
1360.000000	2.665961
1361.000000	2.660406
1362.000000	2.661469
1363.000000	2.665712
1364.000000	2.654398
1365.000000	2.650846
1366.000000	2.650261
1367.000000	2.652914
1368.000000	2.658532
1369.000000	2.669209
1370.000000	2.674183
1371.000000	2.679944
1372.000000	2.686167
1373.000000	2.676171
1374.000000	2.674965
1375.000000	2.682277
1376.000000	2.689907
1377.000000	2.690520
1378.000000	2.702380
1379.000000	2.695768
1380.000000	2.621651
1381.000000	2.688709
1382.000000	2.706261
1383.000000	2.704067
1384.000000	2.731524
1385.000000	2.684393
1386.000000	2.684867
1387.000000	2.688251
1388.000000	2.690453
1389.000000	2.645424
1390.000000	2.667237
1391.000000	2.666691
1392.000000	2.668995
1393.000000	2.644900
1394.000000	2.657296
1395.000000	2.674965
1396.000000	2.653916
1397.000000	2.621416
1398.000000	2.619170
1399.000000	2.636865
1400.000000	2.629588
1401.000000	2.633232
1402.000000	2.565170
1403.000000	2.577941
1404.000000	2.536472
1405.000000	2.569291
1406.000000	2.533353
1407.000000	2.527509
1408.000000	2.513617
1409.000000	2.499724
1410.000000	2.465340
1411.000000	2.448368
1412.000000	2.427302
1413.000000	2.440670
1414.000000	2.419706
1415.000000	2.375282
1416.000000	2.369582
1417.000000	2.354095
1418.000000	2.366744
1419.000000	2.351828
1420.000000	2.338559
1421.000000	2.320101
1422.000000	2.306286
1423.000000	2.305178
1424.000000	2.286388
1425.000000	2.271850
1426.000000	2.263560
1427.000000	2.260618
1428.000000	2.246121
1429.000000	2.230651
1430.000000	2.229626
1431.000000	2.228027
1432.000000	2.211700
1433.000000	2.184881
1434.000000	2.178453
1435.000000	2.152959
1436.000000	2.155636
1437.000000	2.150521
1438.000000	2.129228
1439.000000	2.102957
1440.000000	2.109354
1441.000000	2.092611
1442.000000	2.096612
1443.000000	2.076725
1444.000000	2.062926
1445.000000	2.058729
1446.000000	2.049253
1447.000000	2.020232
1448.000000	2.005534
1449.000000	2.006566
1450.000000	2.000527
1451.000000	1.984128
1452.000000	1.972465
1453.000000	1.946074
1454.000000	1.940254
1455.000000	1.928233
1456.000000	1.921645
1457.000000	1.909112
1458.000000	1.896824
1459.000000	1.878726
1460.000000	1.872106
1461.000000	1.858796
1462.000000	1.853647
1463.000000	1.847047
1464.000000	1.837528
1465.000000	1.826565
1466.000000	1.811845
1467.000000	1.792267
1468.000000	1.785126
1469.000000	1.782752
1470.000000	1.779924
1471.000000	1.769202
1472.000000	1.750700
1473.000000	1.735884
1474.000000	1.727265
1475.000000	1.735701
1476.000000	1.738650
1477.000000	1.740661
1478.000000	1.734752
1479.000000	1.736131
1480.000000	1.724703
1481.000000	1.724099
1482.000000	1.726264
1483.000000	1.726034
1484.000000	1.716201
1485.000000	1.730417
1486.000000	1.726517
1487.000000	1.722458
1488.000000	1.718249
1489.000000	1.706630
1490.000000	1.718428
1491.000000	1.720606
1492.000000	1.730011
1493.000000	1.737932
1494.000000	1.749556
1495.000000	1.753850
1496.000000	1.761402
1497.000000	1.764926
1498.000000	1.765123
1499.000000	1.772543
1500.000000	1.784358
1501.000000	1.794127
1502.000000	1.816151
1503.000000	1.819394
1504.000000	1.816682
1505.000000	1.828839
1506.000000	1.844706
1507.000000	1.852858
1508.000000	1.862704
1509.000000	1.882892
1510.000000	1.892338
1511.000000	1.905086
1512.000000	1.920997
1513.000000	1.931288
1514.000000	1.933980
1515.000000	1.942591
1516.000000	1.951300
1517.000000	1.971513
1518.000000	1.974452
1519.000000	1.988036
1520.000000	1.994679
1521.000000	1.998721
1522.000000	2.006080
1523.000000	2.017620
1524.000000	2.024553
1525.000000	2.038376
1526.000000	2.047602
1527.000000	2.062426
1528.000000	2.070301
1529.000000	2.072827
1530.000000	2.084793
1531.000000	2.092738
1532.000000	2.100830
1533.000000	2.104074
1534.000000	2.109898
1535.000000	2.110193
1536.000000	2.113039
1537.000000	2.122053
1538.000000	2.131440
1539.000000	2.132726
1540.000000	2.135258
1541.000000	2.142314
1542.000000	2.154922
1543.000000	2.159677
1544.000000	2.155179
1545.000000	2.162444
1546.000000	2.168780
1547.000000	2.177798
1548.000000	2.185954
1549.000000	2.195107
1550.000000	2.194435
1551.000000	2.195792
1552.000000	2.204290
1553.000000	2.207171
1554.000000	2.211874
1555.000000	2.218185
1556.000000	2.217771
1557.000000	2.208264
1558.000000	2.213816
1559.000000	2.219736
1560.000000	2.218021
1561.000000	2.220683
1562.000000	2.220364
1563.000000	2.216129
1564.000000	2.214126
1565.000000	2.201471
1566.000000	2.199308
1567.000000	2.197969
1568.000000	2.181067
1569.000000	2.182253
1570.000000	2.190290
1571.000000	2.181837
1572.000000	2.179866
1573.000000	2.178875
1574.000000	2.174762
1575.000000	2.166379
1576.000000	2.161280
1577.000000	2.164260
1578.000000	2.162036
1579.000000	2.158705
1580.000000	2.159107
1581.000000	2.157239
1582.000000	2.146358
1583.000000	2.150286
1584.000000	2.151297
1585.000000	2.151391
1586.000000	2.153349
1587.000000	2.154281
1588.000000	2.145369
1589.000000	2.137431
1590.000000	2.137886
1591.000000	2.133054
1592.000000	2.137500
1593.000000	2.142441
1594.000000	2.129053
1595.000000	2.131218
1596.000000	2.137850
1597.000000	2.136941
1598.000000	2.132880
1599.000000	2.135778
1600.000000	2.132257
1601.000000	2.132646
1602.000000	2.124353
1603.000000	2.124157
1604.000000	2.131253
1605.000000	2.131915
1606.000000	2.128224
1607.000000	2.123043
1608.000000	2.115113
1609.000000	2.129084
1610.000000	2.129266
1611.000000	2.128060
1612.000000	2.123264
1613.000000	2.106770
1614.000000	2.107672
1615.000000	2.114943
1616.000000	2.112549
1617.000000	2.113697
1618.000000	2.119052
1619.000000	2.111764
1620.000000	2.100270
1621.000000	2.113921
1622.000000	2.110875
1623.000000	2.104422
1624.000000	2.097918
1625.000000	2.101378
1626.000000	2.095016
1627.000000	2.100562
1628.000000	2.103048
1629.000000	2.097671
1630.000000	2.092642
1631.000000	2.099801
1632.000000	2.093926
1633.000000	2.098529
1634.000000	2.105637
1635.000000	2.094025
1636.000000	2.099326
1637.000000	2.100711
1638.000000	2.095987
1639.000000	2.096578
1640.000000	2.080053
1641.000000	2.097732
1642.000000	2.088504
1643.000000	2.087433
1644.000000	2.082454
1645.000000	2.073994
1646.000000	2.065621
1647.000000	2.083532
1648.000000	2.091561
1649.000000	2.089236
1650.000000	2.091541
1651.000000	2.072556
1652.000000	2.068626
1653.000000	2.063967
1654.000000	2.053698
1655.000000	2.051509
1656.000000	2.055765
1657.000000	2.047579
1658.000000	2.042734
1659.000000	2.041863
1660.000000	2.034037
1661.000000	2.029483
1662.000000	2.007439
1663.000000	1.995843
1664.000000	1.994431
1665.000000	1.992804
1666.000000	1.972905
1667.000000	1.966216
1668.000000	1.968424
1669.000000	1.951186
1670.000000	1.947952
1671.000000	1.939168
1672.000000	1.936814
1673.000000	1.921684
1674.000000	1.925711
1675.000000	1.919101
1676.000000	1.931163
1677.000000	1.911930
1678.000000	1.902667
1679.000000	1.880623
1680.000000	1.874252
1681.000000	1.868266
1682.000000	1.848110
1683.000000	1.853844
1684.000000	1.840312
1685.000000	1.848016
1686.000000	1.830963
1687.000000	1.849187
1688.000000	1.862112
1689.000000	1.871832
1690.000000	1.901796
1691.000000	1.930593
1692.000000	1.943850
1693.000000	1.962664
1694.000000	1.975256
1695.000000	1.982505
1696.000000	1.990841
1697.000000	2.000356
1698.000000	2.023100
1699.000000	2.017503
1700.000000	2.016868
1701.000000	2.022444
1702.000000	2.011987
1703.000000	2.014826
1704.000000	2.014842
1705.000000	2.018103
1706.000000	2.013361
1707.000000	2.009289
1708.000000	1.999328
1709.000000	1.986494
1710.000000	1.979608
1711.000000	1.975041
1712.000000	1.959235
1713.000000	1.951707
1714.000000	1.927103
1715.000000	1.922561
1716.000000	1.899421
1717.000000	1.888011
1718.000000	1.873018
1719.000000	1.858706
1720.000000	1.847882
1721.000000	1.832599
1722.000000	1.842166
1723.000000	1.834848
1724.000000	1.843875
1725.000000	1.864088
1726.000000	1.862282
1727.000000	1.881669
1728.000000	1.889460
1729.000000	1.905206
1730.000000	1.902992
1731.000000	1.916985
1732.000000	1.925883
1733.000000	1.933526
1734.000000	1.930830
1735.000000	1.941997
1736.000000	1.950005
1737.000000	1.956027
1738.000000	1.964379
1739.000000	1.971728
1740.000000	1.990836
1741.000000	1.996934
1742.000000	1.997992
1743.000000	2.008668
1744.000000	2.017037
1745.000000	2.012746
1746.000000	2.020992
1747.000000	2.027826
1748.000000	2.031414
1749.000000	2.030947
1750.000000	2.018928
1751.000000	2.030988
1752.000000	2.031109
1753.000000	2.028312
1754.000000	2.028184
1755.000000	2.010807
1756.000000	2.005077
1757.000000	2.020113
1758.000000	2.023138
1759.000000	2.013253
1760.000000	2.013059
1761.000000	2.005225
1762.000000	2.014498
1763.000000	2.007111
1764.000000	2.008775
1765.000000	2.011012
1766.000000	2.003756
1767.000000	1.999602
1768.000000	2.004033
1769.000000	2.004136
1770.000000	2.000622
1771.000000	2.002267
1772.000000	2.000959
1773.000000	1.997167
1774.000000	1.994643
1775.000000	1.991788
1776.000000	1.992447
1777.000000	2.003597
1778.000000	2.006042
1779.000000	2.000146
1780.000000	1.991564
1781.000000	1.989625
1782.000000	1.980697
1783.000000	1.984021
1784.000000	1.976680
1785.000000	1.991134
1786.000000	1.986388
1787.000000	1.976379
1788.000000	1.966171
1789.000000	1.961917
1790.000000	1.962100
1791.000000	1.960324
1792.000000	1.965876
1793.000000	1.953699
1794.000000	1.945774
1795.000000	1.950305
1796.000000	1.947780
1797.000000	1.948083
1798.000000	1.946444
1799.000000	1.947585
1800.000000	1.958466
1801.000000	1.955781
1802.000000	1.948130
1803.000000	1.945188
1804.000000	1.940239
1805.000000	1.942041
1806.000000	1.946230
1807.000000	1.937366
1808.000000	1.929458
1809.000000	1.939244
1810.000000	1.943917
1811.000000	1.941245
1812.000000	1.930588
1813.000000	1.927371
1814.000000	1.926777
1815.000000	1.928936
1816.000000	1.916981
1817.000000	1.899621
1818.000000	1.902363
1819.000000	1.907917
1820.000000	1.917842
1821.000000	1.905441
1822.000000	1.883453
1823.000000	1.879138
1824.000000	1.883473
1825.000000	1.890230
1826.000000	1.897631
1827.000000	1.888230
1828.000000	1.875563
1829.000000	1.880158
1830.000000	1.885492
1831.000000	1.880168
1832.000000	1.875851
1833.000000	1.876265
1834.000000	1.882733
1835.000000	1.885402
1836.000000	1.879436
1837.000000	1.884599
1838.000000	1.885089
1839.000000	1.877454
1840.000000	1.879356
1841.000000	1.883053
1842.000000	1.871005
1843.000000	1.864936
1844.000000	1.879056
1845.000000	1.891780
1846.000000	1.900640
1847.000000	1.900140
1848.000000	1.886219
1849.000000	1.879599
1850.000000	1.864207
1851.000000	1.857209
1852.000000	1.858602
1853.000000	1.858124
1854.000000	1.858172
1855.000000	1.858584
1856.000000	1.860549
1857.000000	1.866403
1858.000000	1.860380
1859.000000	1.846157
1860.000000	1.838553
1861.000000	1.839256
1862.000000	1.831940
1863.000000	1.826846
1864.000000	1.836345
1865.000000	1.839424
1866.000000	1.835001
1867.000000	1.824321
1868.000000	1.802069
1869.000000	1.757215
1870.000000	1.755606
1871.000000	1.752986
1872.000000	1.741146
1873.000000	1.724742
1874.000000	1.718323
1875.000000	1.696309
1876.000000	1.682993
1877.000000	1.679897
1878.000000	1.668223
1879.000000	1.648720
1880.000000	1.640346
1881.000000	1.624740
1882.000000	1.593209
1883.000000	1.576503
1884.000000	1.546629
1885.000000	1.510964
1886.000000	1.477882
1887.000000	1.452542
1888.000000	1.416418
1889.000000	1.353541
1890.000000	1.342318
1891.000000	1.297843
1892.000000	1.241477
1893.000000	1.210273
1894.000000	1.163841
1895.000000	1.146466
1896.000000	1.120969
1897.000000	1.079132
1898.000000	1.038430
1899.000000	0.982756
1900.000000	0.927678
1901.000000	0.885446
1902.000000	0.855407
1903.000000	0.821963
1904.000000	0.797593
1905.000000	0.760348
1906.000000	0.704743
1907.000000	0.702665
1908.000000	0.689222
1909.000000	0.689466
1910.000000	0.693235
1911.000000	0.662742
1912.000000	0.643697
1913.000000	0.623888
1914.000000	0.611443
1915.000000	0.600590
1916.000000	0.600908
1917.000000	0.612366
1918.000000	0.601441
1919.000000	0.603004
1920.000000	0.602651
1921.000000	0.581998
1922.000000	0.563451
1923.000000	0.576081
1924.000000	0.582868
1925.000000	0.598148
1926.000000	0.603445
1927.000000	0.593373
1928.000000	0.594646
1929.000000	0.611372
1930.000000	0.605354
1931.000000	0.616107
1932.000000	0.609147
1933.000000	0.629858
1934.000000	0.634996
1935.000000	0.642645
1936.000000	0.651244
1937.000000	0.660230
1938.000000	0.671717
1939.000000	0.649705
1940.000000	0.680731
1941.000000	0.681860
1942.000000	0.694756
1943.000000	0.708240
1944.000000	0.713120
1945.000000	0.751450
1946.000000	0.734289
1947.000000	0.732224
1948.000000	0.779857
1949.000000	0.752492
1950.000000	0.764233
1951.000000	0.790473
1952.000000	0.802863
1953.000000	0.812208
1954.000000	0.802923
1955.000000	0.825180
1956.000000	0.820860
1957.000000	0.823964
1958.000000	0.850598
1959.000000	0.842337
1960.000000	0.856583
1961.000000	0.864950
1962.000000	0.865859
1963.000000	0.881658
1964.000000	0.890190
1965.000000	0.888456
1966.000000	0.907922
1967.000000	0.902077
1968.000000	0.919399
1969.000000	0.916439
1970.000000	0.922053
1971.000000	0.935061
1972.000000	0.937998
1973.000000	0.944550
1974.000000	0.959362
1975.000000	0.956977
1976.000000	0.954588
1977.000000	0.979001
1978.000000	0.974039
1979.000000	0.987115
1980.000000	0.990492
1981.000000	0.991336
1982.000000	0.988093
1983.000000	1.002601
1984.000000	0.995727
1985.000000	1.019652
1986.000000	1.034835
1987.000000	1.025132
1988.000000	1.033163
1989.000000	1.035910
1990.000000	1.037256
1991.000000	1.044721
1992.000000	1.047072
1993.000000	1.049939
1994.000000	1.047919
1995.000000	1.055934
1996.000000	1.052556
1997.000000	1.057898
1998.000000	1.044150
1999.000000	1.054090
2000.000000	1.050813
2001.000000	1.067062
2002.000000	1.053185
2003.000000	1.049027
2004.000000	1.048434
2005.000000	1.049942
2006.000000	1.051100
2007.000000	1.054795
2008.000000	1.051660
2009.000000	1.044019
2010.000000	1.032975
2011.000000	1.014151
2012.000000	1.033502
2013.000000	1.016586
2014.000000	1.010033
2015.000000	0.992872
2016.000000	0.985104
2017.000000	0.976858
2018.000000	0.972322
2019.000000	0.958606
2020.000000	0.947873
2021.000000	0.935904
2022.000000	0.936340
2023.000000	0.911840
2024.000000	0.902563
2025.000000	0.895472
2026.000000	0.881069
2027.000000	0.873071
2028.000000	0.864745
2029.000000	0.839867
2030.000000	0.831618
2031.000000	0.824993
2032.000000	0.803140
2033.000000	0.791863
2034.000000	0.787143
2035.000000	0.762605
2036.000000	0.750094
2037.000000	0.738462
2038.000000	0.723921
2039.000000	0.707829
2040.000000	0.691137
2041.000000	0.675574
2042.000000	0.663889
2043.000000	0.640718
2044.000000	0.609581
2045.000000	0.605716
2046.000000	0.601214
2047.000000	0.586819
2048.000000	0.592814
2049.000000	0.577404
2050.000000	0.569589
2051.000000	0.568239
2052.000000	0.574403
2053.000000	0.585822
2054.000000	0.587515
2055.000000	0.581623
2056.000000	0.590062
2057.000000	0.589491
2058.000000	0.595375
2059.000000	0.601320
2060.000000	0.617496
2061.000000	0.626982
2062.000000	0.639316
2063.000000	0.645650
2064.000000	0.656878
2065.000000	0.667145
2066.000000	0.664608
2067.000000	0.668281
2068.000000	0.677021
2069.000000	0.696464
2070.000000	0.698214
2071.000000	0.695794
2072.000000	0.702620
2073.000000	0.712026
2074.000000	0.715827
2075.000000	0.714919
2076.000000	0.710391
2077.000000	0.711171
2078.000000	0.714398
2079.000000	0.724893
2080.000000	0.715380
2081.000000	0.707582
2082.000000	0.712416
2083.000000	0.707352
2084.000000	0.714006
2085.000000	0.718652
2086.000000	0.709363
2087.000000	0.710574
2088.000000	0.709846
2089.000000	0.700671
2090.000000	0.702427
2091.000000	0.694041
2092.000000	0.680300
2093.000000	0.677623
2094.000000	0.675393
2095.000000	0.676160
2096.000000	0.678385
2097.000000	0.686528
2098.000000	0.681241
2099.000000	0.671378
2100.000000	0.669517
2101.000000	0.675276
2102.000000	0.681617
2103.000000	0.677035
2104.000000	0.674571
2105.000000	0.686396
2106.000000	0.685513
2107.000000	0.689720
2108.000000	0.688194
2109.000000	0.683899
2110.000000	0.687359
2111.000000	0.681739
2112.000000	0.677753
2113.000000	0.674332
2114.000000	0.675603
2115.000000	0.676883
2116.000000	0.670301
2117.000000	0.668967
2118.000000	0.674722
2119.000000	0.679255
2120.000000	0.676235
2121.000000	0.672985
2122.000000	0.666870
2123.000000	0.665988
2124.000000	0.664804
2125.000000	0.669101
2126.000000	0.661129
2127.000000	0.652818
2128.000000	0.650447
2129.000000	0.652041
2130.000000	0.649970
2131.000000	0.642949
2132.000000	0.639532
2133.000000	0.636039
2134.000000	0.637927
2135.000000	0.623863
2136.000000	0.607274
2137.000000	0.608782
2138.000000	0.616117
2139.000000	0.612943
2140.000000	0.596532
2141.000000	0.592619
2142.000000	0.576903
2143.000000	0.570534
2144.000000	0.555277
2145.000000	0.554180
2146.000000	0.553557
2147.000000	0.537527
2148.000000	0.532199
2149.000000	0.531410
2150.000000	0.518633
2151.000000	0.510379
2152.000000	0.509774
2153.000000	0.496753
2154.000000	0.488959
2155.000000	0.491647
2156.000000	0.498447
2157.000000	0.493456
2158.000000	0.481961
2159.000000	0.483066
2160.000000	0.465496
2161.000000	0.475492
2162.000000	0.479347
2163.000000	0.465158
2164.000000	0.466632
2165.000000	0.475448
2166.000000	0.465865
2167.000000	0.466313
2168.000000	0.468797
2169.000000	0.456235
2170.000000	0.462318
2171.000000	0.466438
2172.000000	0.465753
2173.000000	0.460407
2174.000000	0.468964
2175.000000	0.474340
2176.000000	0.478537
2177.000000	0.488823
2178.000000	0.468644
2179.000000	0.487201
2180.000000	0.495596
2181.000000	0.488285
2182.000000	0.483726
2183.000000	0.494473
2184.000000	0.498075
2185.000000	0.498302
2186.000000	0.495852
2187.000000	0.497217
2188.000000	0.508003
2189.000000	0.512358
2190.000000	0.525690
2191.000000	0.512074
2192.000000	0.517170
2193.000000	0.526075
2194.000000	0.527843
2195.000000	0.534075
2196.000000	0.546326
2197.000000	0.547821
2198.000000	0.544007
2199.000000	0.559251
2200.000000	0.576952
2201.000000	0.569616
2202.000000	0.569373
2203.000000	0.590822
2204.000000	0.599584
2205.000000	0.602894
2206.000000	0.614610
2207.000000	0.613306
2208.000000	0.617534
2209.000000	0.629533
2210.000000	0.638493
2211.000000	0.652993
2212.000000	0.666994
2213.000000	0.656375
2214.000000	0.653409
2215.000000	0.677139
2216.000000	0.679407
2217.000000	0.702609
2218.000000	0.693026
2219.000000	0.720033
2220.000000	0.721697
2221.000000	0.708216
2222.000000	0.724477
2223.000000	0.727819
2224.000000	0.727866
2225.000000	0.736130
2226.000000	0.743591
2227.000000	0.747537
2228.000000	0.757705
2229.000000	0.762402
2230.000000	0.758941
2231.000000	0.752372
2232.000000	0.761392
2233.000000	0.761663
2234.000000	0.748839
2235.000000	0.754212
2236.000000	0.749559
2237.000000	0.746099
2238.000000	0.747512
2239.000000	0.744771
2240.000000	0.746298
2241.000000	0.736994
2242.000000	0.724345
2243.000000	0.727080
2244.000000	0.722741
2245.000000	0.714711
2246.000000	0.704222
2247.000000	0.674363
2248.000000	0.688298
2249.000000	0.671956
2250.000000	0.651275
2251.000000	0.643906
2252.000000	0.655397
2253.000000	0.639071
2254.000000	0.635375
2255.000000	0.620084
2256.000000	0.611908
2257.000000	0.598719
2258.000000	0.605769
2259.000000	0.591567
2260.000000	0.595738
2261.000000	0.587704
2262.000000	0.592036
2263.000000	0.580971
2264.000000	0.573617
2265.000000	0.583319
2266.000000	0.584128
2267.000000	0.582625
2268.000000	0.594663
2269.000000	0.606176
2270.000000	0.614600
2271.000000	0.626690
2272.000000	0.620112
2273.000000	0.598154
2274.000000	0.621773
2275.000000	0.625695
2276.000000	0.637504
2277.000000	0.631149
2278.000000	0.615758
2279.000000	0.629780
2280.000000	0.629865
2281.000000	0.633578
2282.000000	0.628972
2283.000000	0.628129
2284.000000	0.629440
2285.000000	0.634927
2286.000000	0.648151
2287.000000	0.650228
2288.000000	0.654981
2289.000000	0.642499
2290.000000	0.653844
2291.000000	0.652979
2292.000000	0.653448
2293.000000	0.667498
2294.000000	0.666456
2295.000000	0.667141
2296.000000	0.670018
2297.000000	0.673040
2298.000000	0.680074
2299.000000	0.685414
2300.000000	0.691620
2301.000000	0.697118
2302.000000	0.689128
2303.000000	0.705396
2304.000000	0.717974
2305.000000	0.715986
2306.000000	0.714166
2307.000000	0.729231
2308.000000	0.736590
2309.000000	0.750672
2310.000000	0.759030
2311.000000	0.753530
2312.000000	0.760594
2313.000000	0.772257
2314.000000	0.776447
2315.000000	0.798223
2316.000000	0.795828
2317.000000	0.791802
2318.000000	0.795011
2319.000000	0.814322
2320.000000	0.825701
2321.000000	0.839758
2322.000000	0.838394
2323.000000	0.841915
2324.000000	0.839035
2325.000000	0.841423
2326.000000	0.849995
2327.000000	0.861275
2328.000000	0.860081
2329.000000	0.862293
2330.000000	0.880833
2331.000000	0.887322
2332.000000	0.888943
2333.000000	0.888384
2334.000000	0.900063
2335.000000	0.916568
2336.000000	0.932563
2337.000000	0.939976
2338.000000	0.946170
2339.000000	0.957324
2340.000000	0.965455
2341.000000	0.971048
2342.000000	0.979784
2343.000000	0.999573
2344.000000	1.007412
2345.000000	1.012129
2346.000000	1.017413
2347.000000	1.025362
2348.000000	1.037605
2349.000000	1.039706
2350.000000	1.048975
2351.000000	1.061813
2352.000000	1.064901
2353.000000	1.070051
2354.000000	1.079654
2355.000000	1.090015
2356.000000	1.095919
2357.000000	1.108295
2358.000000	1.123995
2359.000000	1.123925
2360.000000	1.119185
2361.000000	1.125744
2362.000000	1.140109
2363.000000	1.149611
2364.000000	1.153300
2365.000000	1.154568
2366.000000	1.158451
2367.000000	1.162340
2368.000000	1.173729
2369.000000	1.181519
2370.000000	1.182615
2371.000000	1.197727
2372.000000	1.213665
2373.000000	1.203443
2374.000000	1.206292
2375.000000	1.222201
2376.000000	1.227898
2377.000000	1.233262
2378.000000	1.245917
2379.000000	1.246414
2380.000000	1.244987
2381.000000	1.252308
2382.000000	1.264944
2383.000000	1.276602
2384.000000	1.280391
2385.000000	1.291814
2386.000000	1.296194
2387.000000	1.291191
2388.000000	1.304453
2389.000000	1.318026
2390.000000	1.321717
2391.000000	1.322469
2392.000000	1.321690
2393.000000	1.327086
2394.000000	1.340154
2395.000000	1.335634
2396.000000	1.339002
2397.000000	1.349256
2398.000000	1.347199
2399.000000	1.353244
2400.000000	1.367096
2401.000000	1.366843
2402.000000	1.370170
2403.000000	1.377688
2404.000000	1.380791
2405.000000	1.388081
2406.000000	1.394799
2407.000000	1.397518
2408.000000	1.402605
2409.000000	1.398501
2410.000000	1.398457
2411.000000	1.418101
2412.000000	1.418068
2413.000000	1.424976
2414.000000	1.426708
2415.000000	1.439750
2416.000000	1.442666
2417.000000	1.433015
2418.000000	1.439846
2419.000000	1.446555
2420.000000	1.436507
2421.000000	1.439029
2422.000000	1.436988
2423.000000	1.427861
2424.000000	1.432222
2425.000000	1.424438
2426.000000	1.428871
2427.000000	1.423867
2428.000000	1.406645
2429.000000	1.417869
2430.000000	1.426829
2431.000000	1.422631
2432.000000	1.435330
2433.000000	1.420937
2434.000000	1.422108
2435.000000	1.411692
2436.000000	1.414507
2437.000000	1.411203
2438.000000	1.407165
2439.000000	1.411822
2440.000000	1.405422
2441.000000	1.399057
2442.000000	1.414252
2443.000000	1.399829
2444.000000	1.387329
2445.000000	1.397395
2446.000000	1.397187
2447.000000	1.377046
2448.000000	1.366820
2449.000000	1.383156
2450.000000	1.379364
2451.000000	1.378775
2452.000000	1.379026
2453.000000	1.387026
2454.000000	1.366809
2455.000000	1.355490
2456.000000	1.370476
2457.000000	1.362435
2458.000000	1.368030
2459.000000	1.362512
2460.000000	1.370814
2461.000000	1.374575
2462.000000	1.364353
2463.000000	1.372265
2464.000000	1.328218
2465.000000	1.344635
2466.000000	1.332517
2467.000000	1.367097
2468.000000	1.364062
2469.000000	1.353982
2470.000000	1.382509
2471.000000	1.353274
2472.000000	1.368766
2473.000000	1.332646
2474.000000	1.354229
2475.000000	1.348141
2476.000000	1.370597
2477.000000	1.388465
2478.000000	1.331953
2479.000000	1.374921
2480.000000	1.377383
2481.000000	1.363667
2482.000000	1.375969
2483.000000	1.377958
2484.000000	1.416245
2485.000000	1.318131
2486.000000	1.398014
2487.000000	1.404082
2488.000000	1.418020
2489.000000	1.348995
2490.000000	1.373354
2491.000000	1.384626
2492.000000	1.365045
2493.000000	1.300751
2494.000000	1.364818
2495.000000	1.370022
2496.000000	1.344525
2497.000000	1.451932
2498.000000	1.335293
2499.000000	1.403986
2500.000000	1.347331
