PE UV       SUBTECH     SPECTRUM    ASCII       PEDS        4.00        
   -1
INBUCR0146-3.Sample.ASC
24/04/29
15:55:43.00
24/04/29
15:55:43.00
Vinicio Soto Monge
Chrysina sp.
250,000000
1
Lambda 1050
1050L1511233
PerkinElmer UV WinLab 6.3.2.0749 / 2.02.05 Lambda 900 UV/VIS/NIR, Aug  7 2015 09:38:08

0
0
3350/servo 860,8/2
0
0
UV/VIS
1
1
1
DoubleDePol,CommonBeamDepol,RBeamAtt,SBeamAtt,60mm sphere, WB InGaAs Detector
0
0
0
0
Program
Program
3350/servo 860,8/2
3350/0,2 860,8/0,2
3350/0,2 860,8/0,2
0
15.00
 
 
 
0
 
860,8
319,2
860,8
Front
100
on
S:100 R:100
0
0
0
0
 
0
 
 
 
0
 
 
0
0
0
0
0
 
 
 
 
0
0


0
0
#HDR
-1
-1
#GR
nm
%R
1.0
0.0
2500,000000
-1,000000
2251
8
99,256500
5,999300
#DATA
250.000000	0.132144
251.000000	0.126895
252.000000	0.147617
253.000000	0.106658
254.000000	0.121000
255.000000	0.072027
256.000000	0.113309
257.000000	0.101329
258.000000	0.109101
259.000000	0.077464
260.000000	0.087895
261.000000	0.095283
262.000000	0.088806
263.000000	0.096103
264.000000	0.124950
265.000000	0.086518
266.000000	0.054042
267.000000	0.081551
268.000000	0.065886
269.000000	0.062375
270.000000	0.122411
271.000000	0.102962
272.000000	0.122193
273.000000	0.074754
274.000000	0.123256
275.000000	0.096961
276.000000	0.046736
277.000000	0.068776
278.000000	0.080532
279.000000	0.077200
280.000000	0.072591
281.000000	0.064034
282.000000	0.031386
283.000000	0.077068
284.000000	0.082844
285.000000	0.079054
286.000000	0.101632
287.000000	0.051301
288.000000	0.103092
289.000000	0.038981
290.000000	0.107415
291.000000	0.085299
292.000000	0.079027
293.000000	0.096136
294.000000	0.039257
295.000000	0.081599
296.000000	0.039313
297.000000	0.072203
298.000000	0.062702
299.000000	0.114417
300.000000	0.067615
301.000000	0.078275
302.000000	0.048293
303.000000	0.064035
304.000000	0.072755
305.000000	0.055461
306.000000	0.055211
307.000000	0.053521
308.000000	0.093123
309.000000	0.069420
310.000000	0.078797
311.000000	0.078001
312.000000	0.057194
313.000000	0.090599
314.000000	0.111071
315.000000	0.074521
316.000000	0.191871
317.000000	0.725490
318.000000	0.563005
319.000000	0.606263
320.000000	0.398884
321.000000	0.397815
322.000000	0.299010
323.000000	0.437016
324.000000	0.306241
325.000000	0.278959
326.000000	0.240027
327.000000	0.250609
328.000000	0.134513
329.000000	0.231819
330.000000	0.031749
331.000000	0.205537
332.000000	0.192591
333.000000	0.119262
334.000000	0.156175
335.000000	0.466862
336.000000	0.329564
337.000000	0.057135
338.000000	0.190591
339.000000	0.226806
340.000000	0.262338
341.000000	0.065925
342.000000	0.045642
343.000000	0.112943
344.000000	0.139761
345.000000	0.090183
346.000000	0.196407
347.000000	0.223827
348.000000	0.129207
349.000000	0.126977
350.000000	0.096464
351.000000	0.158585
352.000000	0.095030
353.000000	0.142024
354.000000	0.127072
355.000000	0.167319
356.000000	0.164757
357.000000	0.101301
358.000000	0.089347
359.000000	0.110041
360.000000	0.187392
361.000000	0.043417
362.000000	0.086020
363.000000	0.098424
364.000000	0.009361
365.000000	0.055825
366.000000	0.082978
367.000000	0.087707
368.000000	0.009080
369.000000	0.095104
370.000000	0.206712
371.000000	0.108671
372.000000	0.218454
373.000000	0.144180
374.000000	0.089332
375.000000	0.248531
376.000000	0.187297
377.000000	0.100811
378.000000	0.094243
379.000000	0.100223
380.000000	0.115490
381.000000	0.154308
382.000000	0.174422
383.000000	0.184608
384.000000	0.168802
385.000000	0.161400
386.000000	0.158389
387.000000	0.163511
388.000000	0.178538
389.000000	0.207333
390.000000	0.209011
391.000000	0.210375
392.000000	0.210867
393.000000	0.200876
394.000000	0.203898
395.000000	0.217417
396.000000	0.211711
397.000000	0.210194
398.000000	0.208370
399.000000	0.219158
400.000000	0.206558
401.000000	0.185834
402.000000	0.197917
403.000000	0.203481
404.000000	0.206356
405.000000	0.179539
406.000000	0.174805
407.000000	0.190773
408.000000	0.188294
409.000000	0.183644
410.000000	0.188376
411.000000	0.185155
412.000000	0.175115
413.000000	0.152329
414.000000	0.152039
415.000000	0.148403
416.000000	0.131609
417.000000	0.131966
418.000000	0.135048
419.000000	0.126260
420.000000	0.103883
421.000000	0.075193
422.000000	0.073917
423.000000	0.087873
424.000000	0.089979
425.000000	0.080458
426.000000	0.079382
427.000000	0.093252
428.000000	0.100206
429.000000	0.101862
430.000000	0.109114
431.000000	0.143416
432.000000	0.153258
433.000000	0.162073
434.000000	0.188579
435.000000	0.202707
436.000000	0.202765
437.000000	0.208672
438.000000	0.222491
439.000000	0.232101
440.000000	0.229458
441.000000	0.219003
442.000000	0.207107
443.000000	0.192540
444.000000	0.196132
445.000000	0.200064
446.000000	0.180873
447.000000	0.174260
448.000000	0.189679
449.000000	0.203206
450.000000	0.205027
451.000000	0.206883
452.000000	0.234773
453.000000	0.269270
454.000000	0.281810
455.000000	0.291412
456.000000	0.307756
457.000000	0.331714
458.000000	0.353321
459.000000	0.343776
460.000000	0.331947
461.000000	0.348199
462.000000	0.349390
463.000000	0.330909
464.000000	0.327600
465.000000	0.344737
466.000000	0.342464
467.000000	0.341502
468.000000	0.347761
469.000000	0.361237
470.000000	0.362621
471.000000	0.380516
472.000000	0.417976
473.000000	0.450831
474.000000	0.481141
475.000000	0.504490
476.000000	0.542953
477.000000	0.580410
478.000000	0.628135
479.000000	0.673708
480.000000	0.730399
481.000000	0.783556
482.000000	0.839005
483.000000	0.888334
484.000000	0.958190
485.000000	1.035926
486.000000	1.082705
487.000000	1.143085
488.000000	1.201208
489.000000	1.251796
490.000000	1.294844
491.000000	1.330885
492.000000	1.380279
493.000000	1.437082
494.000000	1.475158
495.000000	1.499977
496.000000	1.520317
497.000000	1.552799
498.000000	1.613352
499.000000	1.651069
500.000000	1.670009
501.000000	1.706130
502.000000	1.703988
503.000000	1.729494
504.000000	1.727292
505.000000	1.766484
506.000000	1.762882
507.000000	1.786053
508.000000	1.794338
509.000000	1.782061
510.000000	1.782110
511.000000	1.786359
512.000000	1.794166
513.000000	1.785418
514.000000	1.774016
515.000000	1.762143
516.000000	1.783969
517.000000	1.784587
518.000000	1.793425
519.000000	1.780244
520.000000	1.771358
521.000000	1.758111
522.000000	1.762455
523.000000	1.762137
524.000000	1.740272
525.000000	1.710840
526.000000	1.713038
527.000000	1.670914
528.000000	1.651531
529.000000	1.641876
530.000000	1.627531
531.000000	1.617755
532.000000	1.608186
533.000000	1.583332
534.000000	1.563885
535.000000	1.533580
536.000000	1.502511
537.000000	1.505496
538.000000	1.485612
539.000000	1.465147
540.000000	1.441942
541.000000	1.414596
542.000000	1.387223
543.000000	1.361214
544.000000	1.312656
545.000000	1.260072
546.000000	1.234850
547.000000	1.185099
548.000000	1.148005
549.000000	1.130005
550.000000	1.114822
551.000000	1.112708
552.000000	1.076546
553.000000	1.030155
554.000000	1.000143
555.000000	0.979858
556.000000	0.961186
557.000000	0.939404
558.000000	0.937227
559.000000	0.931842
560.000000	0.892147
561.000000	0.858690
562.000000	0.837567
563.000000	0.798579
564.000000	0.779808
565.000000	0.780507
566.000000	0.763117
567.000000	0.743407
568.000000	0.742308
569.000000	0.752850
570.000000	0.773308
571.000000	0.788866
572.000000	0.811150
573.000000	0.833976
574.000000	0.837555
575.000000	0.864589
576.000000	0.876248
577.000000	0.894718
578.000000	0.920986
579.000000	0.968136
580.000000	0.995499
581.000000	1.041938
582.000000	1.105517
583.000000	1.207611
584.000000	1.217764
585.000000	1.290169
586.000000	1.296325
587.000000	1.346994
588.000000	1.412485
589.000000	1.420040
590.000000	1.403772
591.000000	1.384220
592.000000	1.380890
593.000000	1.343613
594.000000	1.282911
595.000000	1.230683
596.000000	1.149264
597.000000	1.093036
598.000000	1.033556
599.000000	0.995758
600.000000	0.893408
601.000000	0.817970
602.000000	0.778228
603.000000	0.740586
604.000000	0.656576
605.000000	0.633350
606.000000	0.593412
607.000000	0.564844
608.000000	0.530481
609.000000	0.491513
610.000000	0.440795
611.000000	0.422628
612.000000	0.379909
613.000000	0.351935
614.000000	0.341136
615.000000	0.343683
616.000000	0.356941
617.000000	0.392311
618.000000	0.414516
619.000000	0.458993
620.000000	0.494624
621.000000	0.512734
622.000000	0.597266
623.000000	0.678369
624.000000	0.681175
625.000000	0.741850
626.000000	0.825372
627.000000	0.871702
628.000000	0.881743
629.000000	0.931932
630.000000	0.987185
631.000000	1.010696
632.000000	1.077814
633.000000	1.069556
634.000000	1.132793
635.000000	1.135475
636.000000	1.177380
637.000000	1.134463
638.000000	1.150341
639.000000	1.121714
640.000000	1.104253
641.000000	1.080975
642.000000	1.025580
643.000000	0.998359
644.000000	0.938146
645.000000	0.891909
646.000000	0.867626
647.000000	0.813081
648.000000	0.761901
649.000000	0.758128
650.000000	0.705471
651.000000	0.668961
652.000000	0.621087
653.000000	0.579226
654.000000	0.535540
655.000000	0.525696
656.000000	0.527761
657.000000	0.520482
658.000000	0.556101
659.000000	0.609309
660.000000	0.641246
661.000000	0.689079
662.000000	0.756610
663.000000	0.776581
664.000000	0.830269
665.000000	0.867594
666.000000	0.867295
667.000000	0.867825
668.000000	0.859485
669.000000	0.899127
670.000000	0.916611
671.000000	0.901952
672.000000	0.876153
673.000000	0.788781
674.000000	0.787200
675.000000	0.760914
676.000000	0.737894
677.000000	0.714768
678.000000	0.711443
679.000000	0.641083
680.000000	0.636846
681.000000	0.635012
682.000000	0.638392
683.000000	0.625481
684.000000	0.679186
685.000000	0.724144
686.000000	0.777665
687.000000	0.833738
688.000000	0.940395
689.000000	1.031027
690.000000	1.077978
691.000000	1.139986
692.000000	1.271893
693.000000	1.362231
694.000000	1.445647
695.000000	1.537325
696.000000	1.589956
697.000000	1.671447
698.000000	1.761496
699.000000	1.813065
700.000000	1.860791
701.000000	1.868432
702.000000	1.891507
703.000000	1.926907
704.000000	1.911013
705.000000	1.892615
706.000000	1.841792
707.000000	1.781308
708.000000	1.780196
709.000000	1.722051
710.000000	1.683990
711.000000	1.635696
712.000000	1.534093
713.000000	1.495935
714.000000	1.448950
715.000000	1.477847
716.000000	1.421598
717.000000	1.326928
718.000000	1.291336
719.000000	1.356049
720.000000	1.354032
721.000000	1.294036
722.000000	1.294308
723.000000	1.274468
724.000000	1.213306
725.000000	1.177686
726.000000	1.123345
727.000000	1.144704
728.000000	1.217584
729.000000	1.215905
730.000000	1.159194
731.000000	1.139305
732.000000	1.141473
733.000000	1.153275
734.000000	1.113358
735.000000	1.176713
736.000000	1.187949
737.000000	1.125624
738.000000	1.115815
739.000000	1.093943
740.000000	1.183064
741.000000	1.208561
742.000000	1.207548
743.000000	1.210561
744.000000	1.166021
745.000000	1.096917
746.000000	1.128520
747.000000	1.231786
748.000000	1.288704
749.000000	1.278081
750.000000	1.212722
751.000000	1.273222
752.000000	1.313886
753.000000	1.312259
754.000000	1.317573
755.000000	1.260013
756.000000	1.208579
757.000000	1.243373
758.000000	1.256772
759.000000	1.266978
760.000000	1.294773
761.000000	1.265464
762.000000	1.286566
763.000000	1.300743
764.000000	1.325484
765.000000	1.373705
766.000000	1.329700
767.000000	1.171690
768.000000	1.195098
769.000000	1.262390
770.000000	1.299368
771.000000	1.326746
772.000000	1.305821
773.000000	1.261877
774.000000	1.143711
775.000000	1.187143
776.000000	1.189109
777.000000	1.157502
778.000000	1.176127
779.000000	1.232947
780.000000	1.221771
781.000000	1.123531
782.000000	1.090132
783.000000	1.096986
784.000000	1.193650
785.000000	1.184216
786.000000	1.054537
787.000000	1.094091
788.000000	1.254038
789.000000	1.215512
790.000000	1.188739
791.000000	1.171840
792.000000	1.216271
793.000000	1.305346
794.000000	1.349057
795.000000	1.320881
796.000000	1.343657
797.000000	1.308539
798.000000	1.278536
799.000000	1.249230
800.000000	1.178444
801.000000	1.259299
802.000000	1.284230
803.000000	1.375204
804.000000	1.431102
805.000000	1.395210
806.000000	1.375728
807.000000	1.430257
808.000000	1.548089
809.000000	1.508848
810.000000	1.394000
811.000000	1.398884
812.000000	1.462546
813.000000	1.367730
814.000000	1.261230
815.000000	1.205374
816.000000	1.203349
817.000000	1.296101
818.000000	1.382973
819.000000	1.441197
820.000000	1.289123
821.000000	1.284060
822.000000	1.429711
823.000000	1.380393
824.000000	1.326739
825.000000	1.450811
826.000000	1.436181
827.000000	1.403654
828.000000	1.221082
829.000000	1.241590
830.000000	1.413967
831.000000	1.294624
832.000000	1.239558
833.000000	1.352893
834.000000	1.308060
835.000000	1.068430
836.000000	1.159555
837.000000	0.989213
838.000000	1.054975
839.000000	1.130102
840.000000	1.339076
841.000000	1.011910
842.000000	1.413061
843.000000	1.163747
844.000000	1.114822
845.000000	1.304024
846.000000	1.534191
847.000000	1.286592
848.000000	1.155751
849.000000	1.224927
850.000000	1.198260
851.000000	1.414326
852.000000	1.366351
853.000000	1.609363
854.000000	1.567743
855.000000	1.254938
856.000000	1.196466
857.000000	1.499446
858.000000	1.312765
859.000000	1.068268
860.000000	1.053152
861.000000	1.047622
862.000000	1.049316
863.000000	1.058456
864.000000	1.045850
865.000000	1.047067
866.000000	1.049866
867.000000	1.033760
868.000000	1.044559
869.000000	1.049121
870.000000	1.038272
871.000000	0.992821
872.000000	0.887138
873.000000	0.917550
874.000000	0.924932
875.000000	0.969526
876.000000	0.989444
877.000000	0.937516
878.000000	0.971638
879.000000	0.923467
880.000000	0.838775
881.000000	0.835087
882.000000	0.909659
883.000000	0.975869
884.000000	1.054615
885.000000	1.137701
886.000000	1.203345
887.000000	1.234547
888.000000	1.302451
889.000000	1.351613
890.000000	1.465286
891.000000	1.536844
892.000000	1.609550
893.000000	1.620183
894.000000	1.723259
895.000000	1.766957
896.000000	1.848723
897.000000	1.907468
898.000000	2.004552
899.000000	2.042321
900.000000	2.100267
901.000000	2.135371
902.000000	2.207661
903.000000	2.253457
904.000000	2.295122
905.000000	2.383563
906.000000	2.407624
907.000000	2.454856
908.000000	2.465911
909.000000	2.505417
910.000000	2.532877
911.000000	2.567958
912.000000	2.565683
913.000000	2.606907
914.000000	2.614404
915.000000	2.636095
916.000000	2.682020
917.000000	2.696079
918.000000	2.714441
919.000000	2.724564
920.000000	2.745420
921.000000	2.743564
922.000000	2.787344
923.000000	2.813893
924.000000	2.800333
925.000000	2.823744
926.000000	2.829526
927.000000	2.840649
928.000000	2.879040
929.000000	2.855062
930.000000	2.886281
931.000000	2.883225
932.000000	2.904824
933.000000	2.894766
934.000000	2.900326
935.000000	2.918960
936.000000	2.929525
937.000000	2.948685
938.000000	2.927567
939.000000	2.927296
940.000000	2.952919
941.000000	2.968310
942.000000	2.946095
943.000000	2.958904
944.000000	2.959134
945.000000	2.987625
946.000000	2.961981
947.000000	2.979707
948.000000	2.981165
949.000000	2.976318
950.000000	2.965342
951.000000	2.951731
952.000000	2.943115
953.000000	2.948818
954.000000	2.952156
955.000000	2.949414
956.000000	2.928728
957.000000	2.931963
958.000000	2.918879
959.000000	2.906797
960.000000	2.909693
961.000000	2.890175
962.000000	2.891384
963.000000	2.881071
964.000000	2.875518
965.000000	2.869222
966.000000	2.854158
967.000000	2.860166
968.000000	2.848610
969.000000	2.829271
970.000000	2.825035
971.000000	2.815567
972.000000	2.804907
973.000000	2.788814
974.000000	2.776246
975.000000	2.760923
976.000000	2.766233
977.000000	2.761506
978.000000	2.735600
979.000000	2.727982
980.000000	2.729907
981.000000	2.720582
982.000000	2.707541
983.000000	2.710259
984.000000	2.705080
985.000000	2.689945
986.000000	2.668160
987.000000	2.670204
988.000000	2.668625
989.000000	2.657091
990.000000	2.661675
991.000000	2.640173
992.000000	2.622279
993.000000	2.612476
994.000000	2.601073
995.000000	2.601320
996.000000	2.590056
997.000000	2.584223
998.000000	2.572785
999.000000	2.562780
1000.000000	2.560185
1001.000000	2.558993
1002.000000	2.553405
1003.000000	2.547045
1004.000000	2.540385
1005.000000	2.528497
1006.000000	2.528971
1007.000000	2.518613
1008.000000	2.517006
1009.000000	2.510579
1010.000000	2.502389
1011.000000	2.498376
1012.000000	2.496345
1013.000000	2.489320
1014.000000	2.479685
1015.000000	2.467223
1016.000000	2.461924
1017.000000	2.457690
1018.000000	2.452768
1019.000000	2.444033
1020.000000	2.434300
1021.000000	2.419916
1022.000000	2.420602
1023.000000	2.420027
1024.000000	2.409788
1025.000000	2.405749
1026.000000	2.394864
1027.000000	2.386794
1028.000000	2.378048
1029.000000	2.367525
1030.000000	2.364180
1031.000000	2.360986
1032.000000	2.356510
1033.000000	2.347427
1034.000000	2.336316
1035.000000	2.331135
1036.000000	2.325780
1037.000000	2.318700
1038.000000	2.319108
1039.000000	2.319758
1040.000000	2.302367
1041.000000	2.294617
1042.000000	2.289930
1043.000000	2.288886
1044.000000	2.285486
1045.000000	2.280009
1046.000000	2.272611
1047.000000	2.256066
1048.000000	2.257416
1049.000000	2.256735
1050.000000	2.248546
1051.000000	2.248010
1052.000000	2.244077
1053.000000	2.235029
1054.000000	2.233426
1055.000000	2.238850
1056.000000	2.232663
1057.000000	2.232132
1058.000000	2.234222
1059.000000	2.227939
1060.000000	2.218573
1061.000000	2.209897
1062.000000	2.204464
1063.000000	2.208854
1064.000000	2.198745
1065.000000	2.200499
1066.000000	2.197421
1067.000000	2.181508
1068.000000	2.173816
1069.000000	2.176591
1070.000000	2.178518
1071.000000	2.172374
1072.000000	2.161531
1073.000000	2.161143
1074.000000	2.147006
1075.000000	2.145367
1076.000000	2.150176
1077.000000	2.135164
1078.000000	2.135566
1079.000000	2.122188
1080.000000	2.114969
1081.000000	2.115501
1082.000000	2.114765
1083.000000	2.111267
1084.000000	2.103593
1085.000000	2.100256
1086.000000	2.090730
1087.000000	2.076417
1088.000000	2.072532
1089.000000	2.070775
1090.000000	2.071704
1091.000000	2.071694
1092.000000	2.067488
1093.000000	2.047593
1094.000000	2.041512
1095.000000	2.044636
1096.000000	2.048153
1097.000000	2.037699
1098.000000	2.032612
1099.000000	2.033814
1100.000000	2.037560
1101.000000	2.023096
1102.000000	2.014360
1103.000000	2.019135
1104.000000	2.013978
1105.000000	2.017858
1106.000000	2.008375
1107.000000	2.006491
1108.000000	2.005346
1109.000000	1.997193
1110.000000	1.995008
1111.000000	1.989603
1112.000000	1.990633
1113.000000	1.993489
1114.000000	1.989394
1115.000000	1.985064
1116.000000	1.975123
1117.000000	1.975567
1118.000000	1.976076
1119.000000	1.980299
1120.000000	1.974474
1121.000000	1.968935
1122.000000	1.964899
1123.000000	1.958982
1124.000000	1.959572
1125.000000	1.966965
1126.000000	1.956493
1127.000000	1.946184
1128.000000	1.959783
1129.000000	1.961377
1130.000000	1.944703
1131.000000	1.949113
1132.000000	1.932990
1133.000000	1.921819
1134.000000	1.918409
1135.000000	1.921905
1136.000000	1.927992
1137.000000	1.912733
1138.000000	1.904629
1139.000000	1.909783
1140.000000	1.907094
1141.000000	1.892554
1142.000000	1.909062
1143.000000	1.898906
1144.000000	1.892323
1145.000000	1.903204
1146.000000	1.890615
1147.000000	1.887315
1148.000000	1.897956
1149.000000	1.894503
1150.000000	1.873673
1151.000000	1.874124
1152.000000	1.866859
1153.000000	1.854459
1154.000000	1.868649
1155.000000	1.865607
1156.000000	1.857027
1157.000000	1.845784
1158.000000	1.854914
1159.000000	1.843753
1160.000000	1.841576
1161.000000	1.831591
1162.000000	1.838333
1163.000000	1.839742
1164.000000	1.833247
1165.000000	1.845034
1166.000000	1.840684
1167.000000	1.828267
1168.000000	1.839337
1169.000000	1.854666
1170.000000	1.837453
1171.000000	1.826886
1172.000000	1.838507
1173.000000	1.830984
1174.000000	1.835231
1175.000000	1.837049
1176.000000	1.842021
1177.000000	1.851934
1178.000000	1.857007
1179.000000	1.856592
1180.000000	1.855757
1181.000000	1.846254
1182.000000	1.848138
1183.000000	1.859091
1184.000000	1.864977
1185.000000	1.860375
1186.000000	1.859605
1187.000000	1.865208
1188.000000	1.855418
1189.000000	1.857207
1190.000000	1.852547
1191.000000	1.855832
1192.000000	1.849525
1193.000000	1.843039
1194.000000	1.842515
1195.000000	1.840489
1196.000000	1.826308
1197.000000	1.823730
1198.000000	1.805216
1199.000000	1.813156
1200.000000	1.803015
1201.000000	1.795888
1202.000000	1.798048
1203.000000	1.796403
1204.000000	1.790866
1205.000000	1.768694
1206.000000	1.768136
1207.000000	1.782511
1208.000000	1.766384
1209.000000	1.756549
1210.000000	1.760063
1211.000000	1.746589
1212.000000	1.744812
1213.000000	1.736138
1214.000000	1.741760
1215.000000	1.726748
1216.000000	1.733885
1217.000000	1.739760
1218.000000	1.724884
1219.000000	1.726883
1220.000000	1.730084
1221.000000	1.722021
1222.000000	1.728482
1223.000000	1.717870
1224.000000	1.716715
1225.000000	1.716295
1226.000000	1.723298
1227.000000	1.724569
1228.000000	1.728460
1229.000000	1.735246
1230.000000	1.733815
1231.000000	1.730161
1232.000000	1.727885
1233.000000	1.741317
1234.000000	1.752432
1235.000000	1.748402
1236.000000	1.745527
1237.000000	1.747576
1238.000000	1.758285
1239.000000	1.762365
1240.000000	1.761040
1241.000000	1.764302
1242.000000	1.763275
1243.000000	1.763015
1244.000000	1.766208
1245.000000	1.776069
1246.000000	1.759433
1247.000000	1.754756
1248.000000	1.757961
1249.000000	1.748573
1250.000000	1.749825
1251.000000	1.753323
1252.000000	1.752353
1253.000000	1.740823
1254.000000	1.732117
1255.000000	1.744182
1256.000000	1.724653
1257.000000	1.724601
1258.000000	1.726976
1259.000000	1.712404
1260.000000	1.702466
1261.000000	1.698927
1262.000000	1.702463
1263.000000	1.693652
1264.000000	1.680748
1265.000000	1.678928
1266.000000	1.674201
1267.000000	1.668021
1268.000000	1.679233
1269.000000	1.668605
1270.000000	1.659601
1271.000000	1.665485
1272.000000	1.662806
1273.000000	1.657930
1274.000000	1.662046
1275.000000	1.656524
1276.000000	1.657475
1277.000000	1.657958
1278.000000	1.657371
1279.000000	1.668248
1280.000000	1.664163
1281.000000	1.661698
1282.000000	1.667854
1283.000000	1.661682
1284.000000	1.661209
1285.000000	1.661638
1286.000000	1.663732
1287.000000	1.668315
1288.000000	1.669984
1289.000000	1.668716
1290.000000	1.684692
1291.000000	1.691843
1292.000000	1.687108
1293.000000	1.680461
1294.000000	1.681151
1295.000000	1.690248
1296.000000	1.694660
1297.000000	1.701331
1298.000000	1.703259
1299.000000	1.700248
1300.000000	1.698825
1301.000000	1.709645
1302.000000	1.715105
1303.000000	1.715314
1304.000000	1.710862
1305.000000	1.703477
1306.000000	1.705834
1307.000000	1.708584
1308.000000	1.710138
1309.000000	1.704603
1310.000000	1.704665
1311.000000	1.700380
1312.000000	1.696042
1313.000000	1.699017
1314.000000	1.701938
1315.000000	1.704522
1316.000000	1.701190
1317.000000	1.694981
1318.000000	1.690609
1319.000000	1.695610
1320.000000	1.694712
1321.000000	1.685165
1322.000000	1.680022
1323.000000	1.675736
1324.000000	1.673031
1325.000000	1.662523
1326.000000	1.664996
1327.000000	1.672426
1328.000000	1.661242
1329.000000	1.656993
1330.000000	1.648367
1331.000000	1.647873
1332.000000	1.639745
1333.000000	1.641321
1334.000000	1.637914
1335.000000	1.627117
1336.000000	1.613937
1337.000000	1.619211
1338.000000	1.615604
1339.000000	1.614147
1340.000000	1.608370
1341.000000	1.606894
1342.000000	1.598741
1343.000000	1.589720
1344.000000	1.582507
1345.000000	1.585176
1346.000000	1.579006
1347.000000	1.557486
1348.000000	1.565546
1349.000000	1.563971
1350.000000	1.562575
1351.000000	1.561739
1352.000000	1.561451
1353.000000	1.554780
1354.000000	1.547416
1355.000000	1.565913
1356.000000	1.577838
1357.000000	1.578300
1358.000000	1.568978
1359.000000	1.574272
1360.000000	1.579080
1361.000000	1.578150
1362.000000	1.603658
1363.000000	1.615289
1364.000000	1.614722
1365.000000	1.602239
1366.000000	1.611655
1367.000000	1.609802
1368.000000	1.610034
1369.000000	1.628797
1370.000000	1.633493
1371.000000	1.631452
1372.000000	1.636933
1373.000000	1.647946
1374.000000	1.641656
1375.000000	1.637914
1376.000000	1.646233
1377.000000	1.632046
1378.000000	1.637933
1379.000000	1.641741
1380.000000	1.633250
1381.000000	1.624460
1382.000000	1.642648
1383.000000	1.667511
1384.000000	1.636047
1385.000000	1.647103
1386.000000	1.645321
1387.000000	1.636860
1388.000000	1.636355
1389.000000	1.632357
1390.000000	1.609987
1391.000000	1.586526
1392.000000	1.583807
1393.000000	1.590764
1394.000000	1.583038
1395.000000	1.566191
1396.000000	1.572526
1397.000000	1.569180
1398.000000	1.559786
1399.000000	1.520958
1400.000000	1.513345
1401.000000	1.513541
1402.000000	1.517088
1403.000000	1.478488
1404.000000	1.467445
1405.000000	1.451469
1406.000000	1.444406
1407.000000	1.415449
1408.000000	1.394535
1409.000000	1.391259
1410.000000	1.367449
1411.000000	1.356864
1412.000000	1.331619
1413.000000	1.304919
1414.000000	1.308344
1415.000000	1.301682
1416.000000	1.296407
1417.000000	1.277244
1418.000000	1.271823
1419.000000	1.243200
1420.000000	1.254599
1421.000000	1.221025
1422.000000	1.223177
1423.000000	1.230651
1424.000000	1.214075
1425.000000	1.214934
1426.000000	1.204128
1427.000000	1.186788
1428.000000	1.203865
1429.000000	1.192811
1430.000000	1.192956
1431.000000	1.175795
1432.000000	1.176048
1433.000000	1.178217
1434.000000	1.151891
1435.000000	1.167494
1436.000000	1.172709
1437.000000	1.170089
1438.000000	1.190717
1439.000000	1.184013
1440.000000	1.179090
1441.000000	1.189948
1442.000000	1.177852
1443.000000	1.180208
1444.000000	1.183693
1445.000000	1.187523
1446.000000	1.197700
1447.000000	1.190209
1448.000000	1.187845
1449.000000	1.203797
1450.000000	1.199745
1451.000000	1.206895
1452.000000	1.214309
1453.000000	1.214569
1454.000000	1.202067
1455.000000	1.202703
1456.000000	1.208081
1457.000000	1.196144
1458.000000	1.208299
1459.000000	1.206746
1460.000000	1.208093
1461.000000	1.199876
1462.000000	1.194146
1463.000000	1.205885
1464.000000	1.184789
1465.000000	1.193199
1466.000000	1.180032
1467.000000	1.179685
1468.000000	1.182934
1469.000000	1.162567
1470.000000	1.171435
1471.000000	1.170830
1472.000000	1.169366
1473.000000	1.143732
1474.000000	1.152030
1475.000000	1.145143
1476.000000	1.130081
1477.000000	1.120041
1478.000000	1.113275
1479.000000	1.113959
1480.000000	1.110394
1481.000000	1.112407
1482.000000	1.112557
1483.000000	1.094458
1484.000000	1.100787
1485.000000	1.099168
1486.000000	1.097022
1487.000000	1.089829
1488.000000	1.082863
1489.000000	1.084637
1490.000000	1.090592
1491.000000	1.089488
1492.000000	1.086599
1493.000000	1.075494
1494.000000	1.079313
1495.000000	1.073064
1496.000000	1.079024
1497.000000	1.076300
1498.000000	1.084389
1499.000000	1.078522
1500.000000	1.078743
1501.000000	1.075317
1502.000000	1.073167
1503.000000	1.069533
1504.000000	1.083814
1505.000000	1.087658
1506.000000	1.083967
1507.000000	1.088230
1508.000000	1.095452
1509.000000	1.112185
1510.000000	1.109236
1511.000000	1.115783
1512.000000	1.115360
1513.000000	1.125265
1514.000000	1.126503
1515.000000	1.128047
1516.000000	1.128110
1517.000000	1.133095
1518.000000	1.141100
1519.000000	1.151927
1520.000000	1.151265
1521.000000	1.150451
1522.000000	1.161306
1523.000000	1.164644
1524.000000	1.176330
1525.000000	1.179458
1526.000000	1.184046
1527.000000	1.194212
1528.000000	1.206882
1529.000000	1.210557
1530.000000	1.209597
1531.000000	1.218915
1532.000000	1.219307
1533.000000	1.224999
1534.000000	1.240444
1535.000000	1.240409
1536.000000	1.240280
1537.000000	1.252452
1538.000000	1.258678
1539.000000	1.257430
1540.000000	1.260641
1541.000000	1.259946
1542.000000	1.266477
1543.000000	1.277471
1544.000000	1.283017
1545.000000	1.291077
1546.000000	1.297292
1547.000000	1.301057
1548.000000	1.308169
1549.000000	1.310697
1550.000000	1.325143
1551.000000	1.335863
1552.000000	1.335947
1553.000000	1.342307
1554.000000	1.337653
1555.000000	1.331540
1556.000000	1.335291
1557.000000	1.342519
1558.000000	1.341083
1559.000000	1.351358
1560.000000	1.358172
1561.000000	1.354661
1562.000000	1.352284
1563.000000	1.341364
1564.000000	1.341565
1565.000000	1.343066
1566.000000	1.333022
1567.000000	1.329561
1568.000000	1.333205
1569.000000	1.325478
1570.000000	1.325437
1571.000000	1.326935
1572.000000	1.321321
1573.000000	1.319072
1574.000000	1.319907
1575.000000	1.321314
1576.000000	1.310570
1577.000000	1.305014
1578.000000	1.312458
1579.000000	1.310697
1580.000000	1.303610
1581.000000	1.302403
1582.000000	1.293820
1583.000000	1.283753
1584.000000	1.287044
1585.000000	1.287792
1586.000000	1.287285
1587.000000	1.295863
1588.000000	1.301710
1589.000000	1.298274
1590.000000	1.297791
1591.000000	1.295252
1592.000000	1.282385
1593.000000	1.275392
1594.000000	1.281054
1595.000000	1.285959
1596.000000	1.276420
1597.000000	1.283614
1598.000000	1.279459
1599.000000	1.279675
1600.000000	1.283617
1601.000000	1.283711
1602.000000	1.286936
1603.000000	1.278925
1604.000000	1.280004
1605.000000	1.284177
1606.000000	1.289235
1607.000000	1.291286
1608.000000	1.296380
1609.000000	1.302490
1610.000000	1.302405
1611.000000	1.306387
1612.000000	1.316839
1613.000000	1.304003
1614.000000	1.308208
1615.000000	1.313406
1616.000000	1.313162
1617.000000	1.320935
1618.000000	1.325957
1619.000000	1.322750
1620.000000	1.328106
1621.000000	1.330394
1622.000000	1.333871
1623.000000	1.337486
1624.000000	1.347186
1625.000000	1.349882
1626.000000	1.350900
1627.000000	1.351065
1628.000000	1.363350
1629.000000	1.361722
1630.000000	1.363064
1631.000000	1.355526
1632.000000	1.362568
1633.000000	1.369262
1634.000000	1.381090
1635.000000	1.378539
1636.000000	1.375007
1637.000000	1.372843
1638.000000	1.385579
1639.000000	1.386010
1640.000000	1.389589
1641.000000	1.387854
1642.000000	1.388164
1643.000000	1.379761
1644.000000	1.388560
1645.000000	1.396089
1646.000000	1.408303
1647.000000	1.400253
1648.000000	1.405281
1649.000000	1.390454
1650.000000	1.398664
1651.000000	1.395171
1652.000000	1.385667
1653.000000	1.390007
1654.000000	1.396408
1655.000000	1.380390
1656.000000	1.379747
1657.000000	1.372784
1658.000000	1.375541
1659.000000	1.356923
1660.000000	1.357250
1661.000000	1.354947
1662.000000	1.343143
1663.000000	1.332609
1664.000000	1.314562
1665.000000	1.316714
1666.000000	1.318033
1667.000000	1.298593
1668.000000	1.304043
1669.000000	1.296959
1670.000000	1.294964
1671.000000	1.291024
1672.000000	1.283123
1673.000000	1.282426
1674.000000	1.279363
1675.000000	1.272551
1676.000000	1.289795
1677.000000	1.269345
1678.000000	1.261342
1679.000000	1.259407
1680.000000	1.260569
1681.000000	1.247124
1682.000000	1.234070
1683.000000	1.240179
1684.000000	1.228805
1685.000000	1.214991
1686.000000	1.211860
1687.000000	1.211072
1688.000000	1.214109
1689.000000	1.219307
1690.000000	1.225419
1691.000000	1.231397
1692.000000	1.226241
1693.000000	1.251300
1694.000000	1.271090
1695.000000	1.262669
1696.000000	1.262868
1697.000000	1.273103
1698.000000	1.266066
1699.000000	1.275128
1700.000000	1.237882
1701.000000	1.237622
1702.000000	1.231086
1703.000000	1.232579
1704.000000	1.222129
1705.000000	1.213891
1706.000000	1.189179
1707.000000	1.181579
1708.000000	1.165632
1709.000000	1.163532
1710.000000	1.150856
1711.000000	1.125825
1712.000000	1.115622
1713.000000	1.096562
1714.000000	1.097136
1715.000000	1.067406
1716.000000	1.038120
1717.000000	1.022383
1718.000000	0.987754
1719.000000	0.987700
1720.000000	0.960632
1721.000000	0.950759
1722.000000	0.927382
1723.000000	0.920876
1724.000000	0.911890
1725.000000	0.923280
1726.000000	0.925024
1727.000000	0.921259
1728.000000	0.921808
1729.000000	0.916964
1730.000000	0.933954
1731.000000	0.929783
1732.000000	0.940765
1733.000000	0.960922
1734.000000	0.975734
1735.000000	0.978601
1736.000000	0.991361
1737.000000	1.000950
1738.000000	1.017708
1739.000000	1.021935
1740.000000	1.035026
1741.000000	1.048304
1742.000000	1.055268
1743.000000	1.067244
1744.000000	1.081794
1745.000000	1.093032
1746.000000	1.096042
1747.000000	1.092885
1748.000000	1.103683
1749.000000	1.111991
1750.000000	1.107734
1751.000000	1.108808
1752.000000	1.101640
1753.000000	1.105688
1754.000000	1.095090
1755.000000	1.089175
1756.000000	1.094388
1757.000000	1.103227
1758.000000	1.091480
1759.000000	1.093554
1760.000000	1.090831
1761.000000	1.094067
1762.000000	1.105152
1763.000000	1.109715
1764.000000	1.092649
1765.000000	1.092644
1766.000000	1.112027
1767.000000	1.109785
1768.000000	1.129181
1769.000000	1.118036
1770.000000	1.126020
1771.000000	1.145047
1772.000000	1.142077
1773.000000	1.146311
1774.000000	1.153813
1775.000000	1.160270
1776.000000	1.173966
1777.000000	1.176726
1778.000000	1.181479
1779.000000	1.187348
1780.000000	1.187189
1781.000000	1.188054
1782.000000	1.205774
1783.000000	1.197846
1784.000000	1.194341
1785.000000	1.201067
1786.000000	1.199475
1787.000000	1.198668
1788.000000	1.214538
1789.000000	1.217190
1790.000000	1.202872
1791.000000	1.189583
1792.000000	1.195976
1793.000000	1.210220
1794.000000	1.211139
1795.000000	1.211362
1796.000000	1.213716
1797.000000	1.220018
1798.000000	1.212178
1799.000000	1.212496
1800.000000	1.216490
1801.000000	1.213181
1802.000000	1.219185
1803.000000	1.216012
1804.000000	1.221923
1805.000000	1.216873
1806.000000	1.213536
1807.000000	1.210946
1808.000000	1.223406
1809.000000	1.220729
1810.000000	1.214687
1811.000000	1.223268
1812.000000	1.227209
1813.000000	1.221388
1814.000000	1.231364
1815.000000	1.227662
1816.000000	1.221635
1817.000000	1.219317
1818.000000	1.213140
1819.000000	1.215785
1820.000000	1.225533
1821.000000	1.228487
1822.000000	1.217348
1823.000000	1.225790
1824.000000	1.225532
1825.000000	1.202716
1826.000000	1.203955
1827.000000	1.206874
1828.000000	1.207387
1829.000000	1.213978
1830.000000	1.211955
1831.000000	1.206225
1832.000000	1.210883
1833.000000	1.213257
1834.000000	1.203252
1835.000000	1.195909
1836.000000	1.202002
1837.000000	1.221486
1838.000000	1.219443
1839.000000	1.211702
1840.000000	1.214263
1841.000000	1.211107
1842.000000	1.214009
1843.000000	1.218269
1844.000000	1.216445
1845.000000	1.204553
1846.000000	1.212950
1847.000000	1.223098
1848.000000	1.223777
1849.000000	1.219281
1850.000000	1.227018
1851.000000	1.227990
1852.000000	1.219484
1853.000000	1.203719
1854.000000	1.199488
1855.000000	1.208800
1856.000000	1.205635
1857.000000	1.195795
1858.000000	1.191055
1859.000000	1.200245
1860.000000	1.200991
1861.000000	1.186400
1862.000000	1.185591
1863.000000	1.193465
1864.000000	1.173741
1865.000000	1.157349
1866.000000	1.166121
1867.000000	1.167463
1868.000000	1.153275
1869.000000	1.148122
1870.000000	1.156932
1871.000000	1.170615
1872.000000	1.167788
1873.000000	1.148307
1874.000000	1.143089
1875.000000	1.146170
1876.000000	1.133239
1877.000000	1.115001
1878.000000	1.097562
1879.000000	1.085064
1880.000000	1.060928
1881.000000	1.051666
1882.000000	1.037020
1883.000000	1.014049
1884.000000	1.010706
1885.000000	1.000016
1886.000000	0.966600
1887.000000	0.955918
1888.000000	0.935333
1889.000000	0.920409
1890.000000	0.889234
1891.000000	0.871823
1892.000000	0.825388
1893.000000	0.803349
1894.000000	0.786858
1895.000000	0.770698
1896.000000	0.742182
1897.000000	0.722145
1898.000000	0.724746
1899.000000	0.689638
1900.000000	0.672720
1901.000000	0.649093
1902.000000	0.647957
1903.000000	0.624603
1904.000000	0.594758
1905.000000	0.567694
1906.000000	0.558036
1907.000000	0.536905
1908.000000	0.527754
1909.000000	0.537665
1910.000000	0.518463
1911.000000	0.511313
1912.000000	0.493613
1913.000000	0.515757
1914.000000	0.511206
1915.000000	0.510909
1916.000000	0.510127
1917.000000	0.502466
1918.000000	0.488300
1919.000000	0.491312
1920.000000	0.493431
1921.000000	0.486187
1922.000000	0.498824
1923.000000	0.513085
1924.000000	0.495640
1925.000000	0.488264
1926.000000	0.495890
1927.000000	0.493900
1928.000000	0.486014
1929.000000	0.499934
1930.000000	0.501030
1931.000000	0.494909
1932.000000	0.484851
1933.000000	0.488671
1934.000000	0.507551
1935.000000	0.501344
1936.000000	0.498058
1937.000000	0.512166
1938.000000	0.519847
1939.000000	0.526924
1940.000000	0.512609
1941.000000	0.515837
1942.000000	0.517588
1943.000000	0.512911
1944.000000	0.528111
1945.000000	0.526131
1946.000000	0.529905
1947.000000	0.526285
1948.000000	0.546452
1949.000000	0.548330
1950.000000	0.541207
1951.000000	0.544740
1952.000000	0.550151
1953.000000	0.559436
1954.000000	0.556990
1955.000000	0.571488
1956.000000	0.551008
1957.000000	0.573126
1958.000000	0.578209
1959.000000	0.581154
1960.000000	0.585133
1961.000000	0.601916
1962.000000	0.609212
1963.000000	0.604468
1964.000000	0.605476
1965.000000	0.603155
1966.000000	0.609051
1967.000000	0.613847
1968.000000	0.632966
1969.000000	0.629034
1970.000000	0.627626
1971.000000	0.629163
1972.000000	0.641507
1973.000000	0.650785
1974.000000	0.650486
1975.000000	0.649857
1976.000000	0.656539
1977.000000	0.652918
1978.000000	0.664688
1979.000000	0.673047
1980.000000	0.674248
1981.000000	0.665258
1982.000000	0.672232
1983.000000	0.679794
1984.000000	0.680982
1985.000000	0.678417
1986.000000	0.680969
1987.000000	0.675444
1988.000000	0.694844
1989.000000	0.687923
1990.000000	0.697593
1991.000000	0.710090
1992.000000	0.705366
1993.000000	0.712741
1994.000000	0.708307
1995.000000	0.696421
1996.000000	0.695716
1997.000000	0.690620
1998.000000	0.698555
1999.000000	0.693614
2000.000000	0.694317
2001.000000	0.694667
2002.000000	0.689652
2003.000000	0.674257
2004.000000	0.673882
2005.000000	0.678349
2006.000000	0.680001
2007.000000	0.674560
2008.000000	0.669580
2009.000000	0.663190
2010.000000	0.658410
2011.000000	0.642967
2012.000000	0.646179
2013.000000	0.647386
2014.000000	0.643007
2015.000000	0.639146
2016.000000	0.627169
2017.000000	0.626011
2018.000000	0.604488
2019.000000	0.615725
2020.000000	0.613230
2021.000000	0.617302
2022.000000	0.608594
2023.000000	0.599168
2024.000000	0.582915
2025.000000	0.591506
2026.000000	0.579693
2027.000000	0.570020
2028.000000	0.569703
2029.000000	0.550388
2030.000000	0.549831
2031.000000	0.541571
2032.000000	0.542465
2033.000000	0.521255
2034.000000	0.512297
2035.000000	0.508206
2036.000000	0.506592
2037.000000	0.495096
2038.000000	0.470554
2039.000000	0.478848
2040.000000	0.463304
2041.000000	0.451806
2042.000000	0.441705
2043.000000	0.432388
2044.000000	0.439383
2045.000000	0.430294
2046.000000	0.418065
2047.000000	0.437927
2048.000000	0.434600
2049.000000	0.440061
2050.000000	0.436434
2051.000000	0.432071
2052.000000	0.445014
2053.000000	0.467041
2054.000000	0.466965
2055.000000	0.469947
2056.000000	0.491059
2057.000000	0.494921
2058.000000	0.513492
2059.000000	0.521972
2060.000000	0.531125
2061.000000	0.535354
2062.000000	0.560964
2063.000000	0.580661
2064.000000	0.586954
2065.000000	0.593726
2066.000000	0.608157
2067.000000	0.627009
2068.000000	0.628016
2069.000000	0.633965
2070.000000	0.641207
2071.000000	0.649380
2072.000000	0.664063
2073.000000	0.674283
2074.000000	0.676840
2075.000000	0.687979
2076.000000	0.696861
2077.000000	0.706866
2078.000000	0.717519
2079.000000	0.720858
2080.000000	0.719434
2081.000000	0.724943
2082.000000	0.731051
2083.000000	0.730920
2084.000000	0.730597
2085.000000	0.744092
2086.000000	0.757841
2087.000000	0.765097
2088.000000	0.767115
2089.000000	0.764029
2090.000000	0.762833
2091.000000	0.765128
2092.000000	0.778558
2093.000000	0.779524
2094.000000	0.774810
2095.000000	0.785767
2096.000000	0.786362
2097.000000	0.786915
2098.000000	0.797975
2099.000000	0.801590
2100.000000	0.807916
2101.000000	0.808864
2102.000000	0.809747
2103.000000	0.819528
2104.000000	0.826730
2105.000000	0.827447
2106.000000	0.831109
2107.000000	0.837836
2108.000000	0.841381
2109.000000	0.841946
2110.000000	0.841623
2111.000000	0.845585
2112.000000	0.856065
2113.000000	0.862233
2114.000000	0.867834
2115.000000	0.876668
2116.000000	0.873489
2117.000000	0.869736
2118.000000	0.881911
2119.000000	0.892869
2120.000000	0.894837
2121.000000	0.903527
2122.000000	0.904402
2123.000000	0.898901
2124.000000	0.904549
2125.000000	0.910873
2126.000000	0.911142
2127.000000	0.911306
2128.000000	0.910741
2129.000000	0.915877
2130.000000	0.925179
2131.000000	0.916718
2132.000000	0.910763
2133.000000	0.919562
2134.000000	0.909993
2135.000000	0.911801
2136.000000	0.916059
2137.000000	0.899658
2138.000000	0.903641
2139.000000	0.910893
2140.000000	0.912786
2141.000000	0.909696
2142.000000	0.897341
2143.000000	0.894524
2144.000000	0.896554
2145.000000	0.893133
2146.000000	0.883634
2147.000000	0.877666
2148.000000	0.880115
2149.000000	0.886554
2150.000000	0.879826
2151.000000	0.859645
2152.000000	0.850664
2153.000000	0.858188
2154.000000	0.861154
2155.000000	0.844824
2156.000000	0.845195
2157.000000	0.818234
2158.000000	0.810959
2159.000000	0.800264
2160.000000	0.796804
2161.000000	0.803737
2162.000000	0.792197
2163.000000	0.785431
2164.000000	0.771237
2165.000000	0.773729
2166.000000	0.759287
2167.000000	0.750918
2168.000000	0.745478
2169.000000	0.735458
2170.000000	0.743599
2171.000000	0.734514
2172.000000	0.723752
2173.000000	0.719384
2174.000000	0.723044
2175.000000	0.709850
2176.000000	0.694879
2177.000000	0.703307
2178.000000	0.703302
2179.000000	0.692850
2180.000000	0.684980
2181.000000	0.684659
2182.000000	0.687305
2183.000000	0.690477
2184.000000	0.689780
2185.000000	0.694985
2186.000000	0.676684
2187.000000	0.684023
2188.000000	0.683872
2189.000000	0.671003
2190.000000	0.666793
2191.000000	0.686281
2192.000000	0.666209
2193.000000	0.678857
2194.000000	0.683415
2195.000000	0.677617
2196.000000	0.687910
2197.000000	0.692310
2198.000000	0.669749
2199.000000	0.681011
2200.000000	0.691613
2201.000000	0.686961
2202.000000	0.691311
2203.000000	0.685992
2204.000000	0.684536
2205.000000	0.706057
2206.000000	0.688021
2207.000000	0.706942
2208.000000	0.695824
2209.000000	0.703773
2210.000000	0.713329
2211.000000	0.706030
2212.000000	0.693145
2213.000000	0.706132
2214.000000	0.700697
2215.000000	0.719244
2216.000000	0.700892
2217.000000	0.710685
2218.000000	0.720690
2219.000000	0.731322
2220.000000	0.716792
2221.000000	0.736931
2222.000000	0.742650
2223.000000	0.738140
2224.000000	0.718394
2225.000000	0.741681
2226.000000	0.736479
2227.000000	0.738997
2228.000000	0.728055
2229.000000	0.750509
2230.000000	0.745305
2231.000000	0.738891
2232.000000	0.747206
2233.000000	0.746462
2234.000000	0.746235
2235.000000	0.751181
2236.000000	0.766617
2237.000000	0.761686
2238.000000	0.764914
2239.000000	0.760542
2240.000000	0.768997
2241.000000	0.761336
2242.000000	0.769750
2243.000000	0.782655
2244.000000	0.774025
2245.000000	0.764089
2246.000000	0.767560
2247.000000	0.777687
2248.000000	0.791660
2249.000000	0.758367
2250.000000	0.775904
2251.000000	0.772086
2252.000000	0.775924
2253.000000	0.784747
2254.000000	0.774765
2255.000000	0.765835
2256.000000	0.780075
2257.000000	0.771106
2258.000000	0.769195
2259.000000	0.765642
2260.000000	0.759762
2261.000000	0.767192
2262.000000	0.754498
2263.000000	0.766200
2264.000000	0.751148
2265.000000	0.753441
2266.000000	0.759094
2267.000000	0.759168
2268.000000	0.770732
2269.000000	0.752750
2270.000000	0.760761
2271.000000	0.752159
2272.000000	0.775257
2273.000000	0.755823
2274.000000	0.774514
2275.000000	0.769607
2276.000000	0.780659
2277.000000	0.776853
2278.000000	0.781980
2279.000000	0.775954
2280.000000	0.779568
2281.000000	0.781317
2282.000000	0.786649
2283.000000	0.789791
2284.000000	0.791538
2285.000000	0.787875
2286.000000	0.800221
2287.000000	0.808569
2288.000000	0.814976
2289.000000	0.812130
2290.000000	0.821505
2291.000000	0.834138
2292.000000	0.833412
2293.000000	0.841541
2294.000000	0.852058
2295.000000	0.834635
2296.000000	0.852667
2297.000000	0.854344
2298.000000	0.854163
2299.000000	0.866706
2300.000000	0.865928
2301.000000	0.875009
2302.000000	0.887853
2303.000000	0.890128
2304.000000	0.888699
2305.000000	0.893218
2306.000000	0.903199
2307.000000	0.915344
2308.000000	0.932591
2309.000000	0.923333
2310.000000	0.925554
2311.000000	0.951072
2312.000000	0.962605
2313.000000	0.978323
2314.000000	0.981197
2315.000000	0.986383
2316.000000	0.997316
2317.000000	1.020371
2318.000000	1.035904
2319.000000	1.057791
2320.000000	1.051504
2321.000000	1.055654
2322.000000	1.071350
2323.000000	1.074091
2324.000000	1.089502
2325.000000	1.107439
2326.000000	1.111240
2327.000000	1.130648
2328.000000	1.136445
2329.000000	1.139372
2330.000000	1.136722
2331.000000	1.146225
2332.000000	1.162485
2333.000000	1.162677
2334.000000	1.170810
2335.000000	1.182196
2336.000000	1.190524
2337.000000	1.190324
2338.000000	1.194934
2339.000000	1.207563
2340.000000	1.226860
2341.000000	1.234077
2342.000000	1.237287
2343.000000	1.243278
2344.000000	1.247198
2345.000000	1.263924
2346.000000	1.274229
2347.000000	1.279230
2348.000000	1.284816
2349.000000	1.291814
2350.000000	1.291456
2351.000000	1.306651
2352.000000	1.322391
2353.000000	1.327159
2354.000000	1.334878
2355.000000	1.336511
2356.000000	1.352720
2357.000000	1.358176
2358.000000	1.365773
2359.000000	1.383077
2360.000000	1.391662
2361.000000	1.394471
2362.000000	1.398464
2363.000000	1.414754
2364.000000	1.426610
2365.000000	1.429170
2366.000000	1.433952
2367.000000	1.449901
2368.000000	1.467180
2369.000000	1.476120
2370.000000	1.476625
2371.000000	1.469739
2372.000000	1.471369
2373.000000	1.477740
2374.000000	1.492097
2375.000000	1.499175
2376.000000	1.502236
2377.000000	1.516719
2378.000000	1.525888
2379.000000	1.524053
2380.000000	1.537249
2381.000000	1.548287
2382.000000	1.553938
2383.000000	1.557077
2384.000000	1.565432
2385.000000	1.585529
2386.000000	1.585452
2387.000000	1.594401
2388.000000	1.611016
2389.000000	1.614727
2390.000000	1.619346
2391.000000	1.631065
2392.000000	1.646614
2393.000000	1.655134
2394.000000	1.657379
2395.000000	1.658311
2396.000000	1.658809
2397.000000	1.667864
2398.000000	1.679889
2399.000000	1.696375
2400.000000	1.715711
2401.000000	1.736700
2402.000000	1.751321
2403.000000	1.757660
2404.000000	1.755036
2405.000000	1.760971
2406.000000	1.760987
2407.000000	1.758739
2408.000000	1.759937
2409.000000	1.772434
2410.000000	1.782529
2411.000000	1.774335
2412.000000	1.766653
2413.000000	1.775439
2414.000000	1.778625
2415.000000	1.793084
2416.000000	1.791889
2417.000000	1.789670
2418.000000	1.785142
2419.000000	1.792150
2420.000000	1.803558
2421.000000	1.808739
2422.000000	1.819120
2423.000000	1.810709
2424.000000	1.810082
2425.000000	1.817362
2426.000000	1.814467
2427.000000	1.815569
2428.000000	1.816917
2429.000000	1.815216
2430.000000	1.812794
2431.000000	1.829304
2432.000000	1.838298
2433.000000	1.838981
2434.000000	1.831700
2435.000000	1.830058
2436.000000	1.822833
2437.000000	1.826113
2438.000000	1.834940
2439.000000	1.837691
2440.000000	1.847944
2441.000000	1.818461
2442.000000	1.823275
2443.000000	1.827713
2444.000000	1.809893
2445.000000	1.828429
2446.000000	1.820718
2447.000000	1.834457
2448.000000	1.819003
2449.000000	1.818858
2450.000000	1.811980
2451.000000	1.816647
2452.000000	1.812244
2453.000000	1.831152
2454.000000	1.818674
2455.000000	1.830982
2456.000000	1.810711
2457.000000	1.796423
2458.000000	1.807812
2459.000000	1.793043
2460.000000	1.804675
2461.000000	1.775952
2462.000000	1.784979
2463.000000	1.774633
2464.000000	1.773010
2465.000000	1.770630
2466.000000	1.773713
2467.000000	1.764160
2468.000000	1.798868
2469.000000	1.819725
2470.000000	1.799520
2471.000000	1.814392
2472.000000	1.782022
2473.000000	1.789283
2474.000000	1.781987
2475.000000	1.781203
2476.000000	1.782870
2477.000000	1.741489
2478.000000	1.779325
2479.000000	1.796965
2480.000000	1.767259
2481.000000	1.776760
2482.000000	1.768175
2483.000000	1.774262
2484.000000	1.773292
2485.000000	1.785472
2486.000000	1.810508
2487.000000	1.809032
2488.000000	1.805886
2489.000000	1.805164
2490.000000	1.819037
2491.000000	1.837519
2492.000000	1.767375
2493.000000	1.820948
2494.000000	1.879327
2495.000000	1.772397
2496.000000	1.826064
2497.000000	1.826254
2498.000000	1.861458
2499.000000	1.764152
2500.000000	1.741632
