PE UV       SUBTECH     SPECTRUM    ASCII       PEDS        4.00        
   -1
INBUCR0144-3.Sample.ASC
24/04/29
14:11:41.00
24/04/29
14:11:41.00
Vinicio Soto Monge
C. cupreomarginata
250,000000
1
Lambda 1050
1050L1511233
PerkinElmer UV WinLab 6.3.2.0749 / 2.02.05 Lambda 900 UV/VIS/NIR, Aug  7 2015 09:38:08

0
0
3350/servo 860,8/2
0
0
UV/VIS
1
1
1
DoubleDePol,CommonBeamDepol,RBeamAtt,SBeamAtt,60mm sphere, WB InGaAs Detector
0
0
0
0
Program
Program
3350/servo 860,8/2
3350/0,2 860,8/0,2
3350/0,2 860,8/0,2
0
15.00
 
 
 
0
 
860,8
319,2
860,8
Front
100
on
S:100 R:100
0
0
0
0
 
0
 
 
 
0
 
 
0
0
0
0
0
 
 
 
 
0
0


0
0
#HDR
-1
-1
#GR
nm
%R
1.0
0.0
2500,000000
-1,000000
2251
8
83,950500
5,540900
#DATA
250.000000	0.062162
251.000000	0.058383
252.000000	0.089220
253.000000	0.069470
254.000000	0.014215
255.000000	0.023459
256.000000	0.075984
257.000000	0.037145
258.000000	0.025355
259.000000	0.062376
260.000000	0.032579
261.000000	0.022758
262.000000	0.011433
263.000000	0.031824
264.000000	0.026801
265.000000	0.057267
266.000000	0.049020
267.000000	0.065291
268.000000	0.022709
269.000000	0.037173
270.000000	0.010971
271.000000	0.043852
272.000000	0.045034
273.000000	0.024299
274.000000	0.022264
275.000000	0.064273
276.000000	0.079757
277.000000	0.039424
278.000000	0.036627
279.000000	0.031282
280.000000	0.046503
281.000000	0.036138
282.000000	0.055340
283.000000	0.042054
284.000000	0.041973
285.000000	0.073676
286.000000	0.051684
287.000000	0.039424
288.000000	0.083747
289.000000	0.047187
290.000000	0.043936
291.000000	0.076113
292.000000	0.086871
293.000000	0.019026
294.000000	0.043357
295.000000	0.056437
296.000000	0.059581
297.000000	0.052068
298.000000	0.049195
299.000000	0.006904
300.000000	0.045885
301.000000	0.044374
302.000000	0.037566
303.000000	0.054972
304.000000	0.013228
305.000000	0.019807
306.000000	0.065214
307.000000	0.065346
308.000000	0.031696
309.000000	0.085648
310.000000	0.060819
311.000000	0.068471
312.000000	0.036935
313.000000	0.075871
314.000000	0.041903
315.000000	0.033586
316.000000	0.069693
317.000000	0.148553
318.000000	0.482051
319.000000	0.551740
320.000000	0.499160
321.000000	0.167887
322.000000	0.052589
323.000000	0.313478
324.000000	0.223892
325.000000	0.231833
326.000000	0.159596
327.000000	0.260361
328.000000	0.269888
329.000000	0.318493
330.000000	0.101081
331.000000	0.133546
332.000000	0.114599
333.000000	0.238904
334.000000	0.423361
335.000000	0.199133
336.000000	0.073691
337.000000	0.092558
338.000000	0.110751
339.000000	0.171692
340.000000	0.293703
341.000000	0.093304
342.000000	0.120676
343.000000	0.120219
344.000000	0.043988
345.000000	0.039784
346.000000	0.058100
347.000000	0.142195
348.000000	0.086989
349.000000	0.066758
350.000000	0.160508
351.000000	0.047871
352.000000	0.097319
353.000000	0.118490
354.000000	0.062740
355.000000	0.122696
356.000000	0.082269
357.000000	0.077076
358.000000	0.083015
359.000000	0.144057
360.000000	0.031229
361.000000	0.107045
362.000000	0.106653
363.000000	0.027735
364.000000	0.099299
365.000000	0.164416
366.000000	0.117666
367.000000	0.043572
368.000000	0.155843
369.000000	0.051893
370.000000	0.022444
371.000000	0.058178
372.000000	0.080744
373.000000	0.079298
374.000000	0.108893
375.000000	0.126094
376.000000	0.075675
377.000000	0.014930
378.000000	0.014153
379.000000	0.022658
380.000000	0.024179
381.000000	0.026654
382.000000	0.039600
383.000000	0.036043
384.000000	0.022142
385.000000	0.029683
386.000000	0.029435
387.000000	0.027318
388.000000	0.019886
389.000000	0.023808
390.000000	0.044300
391.000000	0.062142
392.000000	0.056890
393.000000	0.060478
394.000000	0.067146
395.000000	0.065315
396.000000	0.080660
397.000000	0.080073
398.000000	0.094730
399.000000	0.121111
400.000000	0.126694
401.000000	0.146343
402.000000	0.149500
403.000000	0.150940
404.000000	0.172907
405.000000	0.189329
406.000000	0.201474
407.000000	0.231860
408.000000	0.255862
409.000000	0.250050
410.000000	0.274633
411.000000	0.299761
412.000000	0.308365
413.000000	0.314092
414.000000	0.319108
415.000000	0.330723
416.000000	0.344484
417.000000	0.347812
418.000000	0.364932
419.000000	0.371666
420.000000	0.377462
421.000000	0.379749
422.000000	0.379252
423.000000	0.370290
424.000000	0.371426
425.000000	0.385134
426.000000	0.372357
427.000000	0.364556
428.000000	0.368077
429.000000	0.362250
430.000000	0.346458
431.000000	0.338523
432.000000	0.344730
433.000000	0.342384
434.000000	0.338573
435.000000	0.341773
436.000000	0.345338
437.000000	0.342422
438.000000	0.333266
439.000000	0.348086
440.000000	0.357353
441.000000	0.361407
442.000000	0.382296
443.000000	0.395418
444.000000	0.400083
445.000000	0.418834
446.000000	0.446191
447.000000	0.460970
448.000000	0.470472
449.000000	0.484697
450.000000	0.512003
451.000000	0.535112
452.000000	0.553058
453.000000	0.570433
454.000000	0.583497
455.000000	0.605349
456.000000	0.628910
457.000000	0.653107
458.000000	0.678629
459.000000	0.711429
460.000000	0.730225
461.000000	0.751414
462.000000	0.772649
463.000000	0.803955
464.000000	0.845856
465.000000	0.863514
466.000000	0.881482
467.000000	0.906837
468.000000	0.933751
469.000000	0.954699
470.000000	0.973793
471.000000	0.990263
472.000000	1.012041
473.000000	1.035849
474.000000	1.047187
475.000000	1.056803
476.000000	1.065682
477.000000	1.075823
478.000000	1.064442
479.000000	1.052530
480.000000	1.036786
481.000000	1.012942
482.000000	0.976741
483.000000	0.936597
484.000000	0.877338
485.000000	0.798967
486.000000	0.708833
487.000000	0.618150
488.000000	0.544369
489.000000	0.501447
490.000000	0.509670
491.000000	0.552762
492.000000	0.674335
493.000000	0.828122
494.000000	0.993742
495.000000	1.156762
496.000000	1.341721
497.000000	1.521585
498.000000	1.693274
499.000000	1.851243
500.000000	1.973139
501.000000	2.116108
502.000000	2.213408
503.000000	2.281699
504.000000	2.343951
505.000000	2.404953
506.000000	2.450990
507.000000	2.470301
508.000000	2.479273
509.000000	2.472140
510.000000	2.480781
511.000000	2.472040
512.000000	2.427627
513.000000	2.397188
514.000000	2.373978
515.000000	2.335332
516.000000	2.292560
517.000000	2.265921
518.000000	2.252216
519.000000	2.241897
520.000000	2.200163
521.000000	2.168426
522.000000	2.154544
523.000000	2.144598
524.000000	2.144265
525.000000	2.107425
526.000000	2.095265
527.000000	2.061150
528.000000	2.044281
529.000000	2.018712
530.000000	2.000231
531.000000	1.964088
532.000000	1.931793
533.000000	1.914869
534.000000	1.893141
535.000000	1.873669
536.000000	1.838174
537.000000	1.824478
538.000000	1.797486
539.000000	1.792684
540.000000	1.814279
541.000000	1.821630
542.000000	1.793569
543.000000	1.821402
544.000000	1.854331
545.000000	1.879572
546.000000	1.919492
547.000000	1.963620
548.000000	2.062589
549.000000	2.125718
550.000000	2.237445
551.000000	2.339854
552.000000	2.437757
553.000000	2.575870
554.000000	2.743413
555.000000	2.884862
556.000000	3.033475
557.000000	3.203951
558.000000	3.338218
559.000000	3.486724
560.000000	3.575637
561.000000	3.679580
562.000000	3.777441
563.000000	3.857460
564.000000	3.843746
565.000000	3.868243
566.000000	3.830203
567.000000	3.767001
568.000000	3.709005
569.000000	3.625916
570.000000	3.532865
571.000000	3.463955
572.000000	3.370422
573.000000	3.341790
574.000000	3.285016
575.000000	3.270677
576.000000	3.312463
577.000000	3.354447
578.000000	3.450503
579.000000	3.560901
580.000000	3.743839
581.000000	3.887926
582.000000	4.115996
583.000000	4.327249
584.000000	4.580329
585.000000	4.804270
586.000000	5.035981
587.000000	5.265135
588.000000	5.441141
589.000000	5.643529
590.000000	5.764880
591.000000	5.882745
592.000000	5.951632
593.000000	5.963898
594.000000	5.970744
595.000000	5.910515
596.000000	5.833730
597.000000	5.684826
598.000000	5.537920
599.000000	5.398058
600.000000	5.208153
601.000000	5.037587
602.000000	4.861057
603.000000	4.710606
604.000000	4.603937
605.000000	4.510783
606.000000	4.375438
607.000000	4.317723
608.000000	4.295322
609.000000	4.266402
610.000000	4.214527
611.000000	4.228831
612.000000	4.237585
613.000000	4.253719
614.000000	4.239783
615.000000	4.249282
616.000000	4.173784
617.000000	4.098229
618.000000	3.971084
619.000000	3.823559
620.000000	3.664809
621.000000	3.414500
622.000000	3.114691
623.000000	2.835981
624.000000	2.503873
625.000000	2.190622
626.000000	1.857191
627.000000	1.517936
628.000000	1.200253
629.000000	0.923595
630.000000	0.722586
631.000000	0.607843
632.000000	0.624813
633.000000	0.721479
634.000000	0.843912
635.000000	0.966810
636.000000	1.043815
637.000000	1.072922
638.000000	1.133762
639.000000	1.155057
640.000000	1.158404
641.000000	1.138327
642.000000	1.154586
643.000000	1.169677
644.000000	1.197552
645.000000	1.237245
646.000000	1.300325
647.000000	1.342561
648.000000	1.361306
649.000000	1.389154
650.000000	1.384643
651.000000	1.358183
652.000000	1.287033
653.000000	1.203436
654.000000	1.131457
655.000000	0.962620
656.000000	0.824136
657.000000	0.707575
658.000000	0.601827
659.000000	0.438211
660.000000	0.319059
661.000000	0.232632
662.000000	0.250377
663.000000	0.303486
664.000000	0.378289
665.000000	0.497176
666.000000	0.616765
667.000000	0.726077
668.000000	0.779669
669.000000	0.875856
670.000000	0.975294
671.000000	1.033918
672.000000	1.101869
673.000000	1.145012
674.000000	1.183415
675.000000	1.192196
676.000000	1.151821
677.000000	1.080767
678.000000	0.992096
679.000000	0.895111
680.000000	0.774151
681.000000	0.630899
682.000000	0.452459
683.000000	0.291499
684.000000	0.201590
685.000000	0.281648
686.000000	0.498326
687.000000	0.727556
688.000000	0.921209
689.000000	1.103558
690.000000	1.244460
691.000000	1.378435
692.000000	1.461885
693.000000	1.578773
694.000000	1.622189
695.000000	1.664204
696.000000	1.698865
697.000000	1.685006
698.000000	1.669571
699.000000	1.665793
700.000000	1.629397
701.000000	1.545572
702.000000	1.491124
703.000000	1.408920
704.000000	1.339208
705.000000	1.333643
706.000000	1.264669
707.000000	1.178546
708.000000	1.097053
709.000000	1.025360
710.000000	1.009274
711.000000	0.995379
712.000000	0.989660
713.000000	1.025527
714.000000	1.031115
715.000000	1.053408
716.000000	1.065234
717.000000	1.100792
718.000000	1.136556
719.000000	1.188166
720.000000	1.171440
721.000000	1.178946
722.000000	1.210650
723.000000	1.200144
724.000000	1.195092
725.000000	1.213580
726.000000	1.208781
727.000000	1.183192
728.000000	1.184071
729.000000	1.168805
730.000000	1.144101
731.000000	1.179745
732.000000	1.211621
733.000000	1.212588
734.000000	1.219465
735.000000	1.259683
736.000000	1.246679
737.000000	1.225568
738.000000	1.240031
739.000000	1.280189
740.000000	1.295321
741.000000	1.275551
742.000000	1.264406
743.000000	1.284671
744.000000	1.284521
745.000000	1.267944
746.000000	1.257806
747.000000	1.218641
748.000000	1.233020
749.000000	1.267118
750.000000	1.249383
751.000000	1.279123
752.000000	1.306655
753.000000	1.314232
754.000000	1.345594
755.000000	1.397427
756.000000	1.395634
757.000000	1.403002
758.000000	1.413110
759.000000	1.434087
760.000000	1.479395
761.000000	1.484878
762.000000	1.495074
763.000000	1.518920
764.000000	1.508699
765.000000	1.475736
766.000000	1.472261
767.000000	1.521594
768.000000	1.513805
769.000000	1.415656
770.000000	1.422232
771.000000	1.507039
772.000000	1.497078
773.000000	1.445322
774.000000	1.385450
775.000000	1.433971
776.000000	1.404939
777.000000	1.469609
778.000000	1.482719
779.000000	1.452751
780.000000	1.415499
781.000000	1.391766
782.000000	1.442501
783.000000	1.419813
784.000000	1.450189
785.000000	1.497029
786.000000	1.489387
787.000000	1.476004
788.000000	1.438324
789.000000	1.423539
790.000000	1.540253
791.000000	1.587641
792.000000	1.639652
793.000000	1.677468
794.000000	1.678179
795.000000	1.662797
796.000000	1.582704
797.000000	1.596428
798.000000	1.590861
799.000000	1.567996
800.000000	1.656184
801.000000	1.656379
802.000000	1.601896
803.000000	1.640007
804.000000	1.648571
805.000000	1.615972
806.000000	1.544153
807.000000	1.494832
808.000000	1.548838
809.000000	1.550738
810.000000	1.751128
811.000000	1.818641
812.000000	1.728407
813.000000	1.831836
814.000000	1.930249
815.000000	1.720288
816.000000	1.793581
817.000000	1.803854
818.000000	1.791576
819.000000	1.852567
820.000000	1.917619
821.000000	1.868753
822.000000	1.806398
823.000000	1.773775
824.000000	1.880167
825.000000	1.820802
826.000000	1.884128
827.000000	1.865979
828.000000	1.924609
829.000000	1.823152
830.000000	2.089431
831.000000	2.072289
832.000000	1.892083
833.000000	1.852473
834.000000	2.015950
835.000000	2.070285
836.000000	2.046854
837.000000	1.979160
838.000000	2.090243
839.000000	1.968020
840.000000	2.035200
841.000000	1.999118
842.000000	1.978679
843.000000	2.075073
844.000000	2.164632
845.000000	2.045488
846.000000	2.016438
847.000000	1.872814
848.000000	1.997667
849.000000	2.410466
850.000000	2.247537
851.000000	2.187941
852.000000	2.094957
853.000000	2.265184
854.000000	2.064500
855.000000	2.156453
856.000000	1.946745
857.000000	1.987000
858.000000	2.026527
859.000000	2.418196
860.000000	2.411990
861.000000	2.402468
862.000000	2.388056
863.000000	2.392229
864.000000	2.394704
865.000000	2.397287
866.000000	2.413165
867.000000	2.419830
868.000000	2.412915
869.000000	2.418411
870.000000	2.425634
871.000000	2.402186
872.000000	2.377472
873.000000	2.294566
874.000000	2.183196
875.000000	2.098319
876.000000	2.042845
877.000000	2.001305
878.000000	1.881933
879.000000	1.919242
880.000000	1.883397
881.000000	1.808166
882.000000	1.828299
883.000000	1.784154
884.000000	1.773288
885.000000	1.767762
886.000000	1.790336
887.000000	1.868468
888.000000	1.873272
889.000000	1.881623
890.000000	1.878340
891.000000	1.840394
892.000000	1.871929
893.000000	1.886389
894.000000	1.898183
895.000000	1.858242
896.000000	1.890679
897.000000	1.894152
898.000000	1.916429
899.000000	1.913182
900.000000	1.866292
901.000000	1.866781
902.000000	1.886696
903.000000	1.898457
904.000000	1.891822
905.000000	1.915734
906.000000	1.899806
907.000000	1.893322
908.000000	1.880289
909.000000	1.852181
910.000000	1.860421
911.000000	1.873218
912.000000	1.875766
913.000000	1.876058
914.000000	1.873304
915.000000	1.877539
916.000000	1.894711
917.000000	1.892089
918.000000	1.883873
919.000000	1.910580
920.000000	1.944128
921.000000	1.961667
922.000000	1.990960
923.000000	2.010852
924.000000	1.963942
925.000000	1.998458
926.000000	2.004462
927.000000	2.028234
928.000000	2.044200
929.000000	2.018740
930.000000	2.032064
931.000000	2.071200
932.000000	2.083919
933.000000	2.045357
934.000000	2.033190
935.000000	2.058813
936.000000	2.065989
937.000000	2.068047
938.000000	2.068902
939.000000	2.054397
940.000000	2.088676
941.000000	2.103052
942.000000	2.094743
943.000000	2.084807
944.000000	2.091378
945.000000	2.111577
946.000000	2.082181
947.000000	2.055040
948.000000	2.065453
949.000000	2.065548
950.000000	2.022679
951.000000	2.033139
952.000000	2.028035
953.000000	1.991296
954.000000	2.004427
955.000000	2.002146
956.000000	1.988829
957.000000	1.988361
958.000000	1.995826
959.000000	2.009670
960.000000	2.011067
961.000000	2.004757
962.000000	2.032895
963.000000	2.038112
964.000000	2.046830
965.000000	2.078862
966.000000	2.104413
967.000000	2.109030
968.000000	2.136857
969.000000	2.138525
970.000000	2.158770
971.000000	2.184866
972.000000	2.201874
973.000000	2.215476
974.000000	2.234056
975.000000	2.252615
976.000000	2.281512
977.000000	2.307957
978.000000	2.316461
979.000000	2.343934
980.000000	2.374709
981.000000	2.411084
982.000000	2.424928
983.000000	2.457321
984.000000	2.490245
985.000000	2.523569
986.000000	2.540362
987.000000	2.561088
988.000000	2.583969
989.000000	2.596240
990.000000	2.608839
991.000000	2.635717
992.000000	2.635997
993.000000	2.645030
994.000000	2.651504
995.000000	2.643704
996.000000	2.636641
997.000000	2.647138
998.000000	2.650823
999.000000	2.655789
1000.000000	2.660319
1001.000000	2.663818
1002.000000	2.675630
1003.000000	2.674669
1004.000000	2.677777
1005.000000	2.691301
1006.000000	2.690011
1007.000000	2.700785
1008.000000	2.696584
1009.000000	2.700821
1010.000000	2.709996
1011.000000	2.706833
1012.000000	2.710387
1013.000000	2.716325
1014.000000	2.717416
1015.000000	2.709105
1016.000000	2.699575
1017.000000	2.691710
1018.000000	2.700824
1019.000000	2.699525
1020.000000	2.691561
1021.000000	2.692667
1022.000000	2.683998
1023.000000	2.692899
1024.000000	2.689844
1025.000000	2.692174
1026.000000	2.698141
1027.000000	2.707687
1028.000000	2.709754
1029.000000	2.715292
1030.000000	2.731503
1031.000000	2.739597
1032.000000	2.746471
1033.000000	2.752676
1034.000000	2.752897
1035.000000	2.756032
1036.000000	2.774321
1037.000000	2.789462
1038.000000	2.788871
1039.000000	2.790933
1040.000000	2.799215
1041.000000	2.812363
1042.000000	2.810526
1043.000000	2.810507
1044.000000	2.820259
1045.000000	2.826677
1046.000000	2.835956
1047.000000	2.838097
1048.000000	2.850944
1049.000000	2.865195
1050.000000	2.857382
1051.000000	2.860995
1052.000000	2.879093
1053.000000	2.883218
1054.000000	2.887161
1055.000000	2.901042
1056.000000	2.914851
1057.000000	2.926467
1058.000000	2.920829
1059.000000	2.926601
1060.000000	2.943082
1061.000000	2.953683
1062.000000	2.947593
1063.000000	2.957361
1064.000000	2.966248
1065.000000	2.963804
1066.000000	2.962856
1067.000000	2.966610
1068.000000	2.968016
1069.000000	2.973911
1070.000000	2.975615
1071.000000	2.979760
1072.000000	2.983400
1073.000000	2.985946
1074.000000	2.984446
1075.000000	2.985999
1076.000000	2.994112
1077.000000	2.991927
1078.000000	2.998072
1079.000000	3.008917
1080.000000	3.002941
1081.000000	2.993798
1082.000000	3.006666
1083.000000	3.020466
1084.000000	3.008767
1085.000000	3.023914
1086.000000	3.029304
1087.000000	3.027211
1088.000000	3.031033
1089.000000	3.033177
1090.000000	3.024699
1091.000000	3.034743
1092.000000	3.035868
1093.000000	3.034692
1094.000000	3.037958
1095.000000	3.041202
1096.000000	3.041433
1097.000000	3.048040
1098.000000	3.054018
1099.000000	3.047769
1100.000000	3.042947
1101.000000	3.056591
1102.000000	3.058676
1103.000000	3.063150
1104.000000	3.059414
1105.000000	3.057319
1106.000000	3.058521
1107.000000	3.075853
1108.000000	3.085389
1109.000000	3.079356
1110.000000	3.080149
1111.000000	3.076740
1112.000000	3.084009
1113.000000	3.089944
1114.000000	3.095498
1115.000000	3.102556
1116.000000	3.094329
1117.000000	3.085871
1118.000000	3.103436
1119.000000	3.104076
1120.000000	3.101875
1121.000000	3.110326
1122.000000	3.109148
1123.000000	3.108120
1124.000000	3.101292
1125.000000	3.118052
1126.000000	3.122431
1127.000000	3.119045
1128.000000	3.108869
1129.000000	3.119220
1130.000000	3.128051
1131.000000	3.117007
1132.000000	3.116044
1133.000000	3.114263
1134.000000	3.113661
1135.000000	3.115329
1136.000000	3.124308
1137.000000	3.101595
1138.000000	3.106980
1139.000000	3.103104
1140.000000	3.099742
1141.000000	3.112438
1142.000000	3.097037
1143.000000	3.100428
1144.000000	3.091188
1145.000000	3.089789
1146.000000	3.112382
1147.000000	3.104993
1148.000000	3.099618
1149.000000	3.108066
1150.000000	3.094894
1151.000000	3.089279
1152.000000	3.093138
1153.000000	3.101729
1154.000000	3.099082
1155.000000	3.085953
1156.000000	3.091903
1157.000000	3.076517
1158.000000	3.081574
1159.000000	3.076155
1160.000000	3.081056
1161.000000	3.074931
1162.000000	3.066499
1163.000000	3.073978
1164.000000	3.068953
1165.000000	3.055849
1166.000000	3.056116
1167.000000	3.056577
1168.000000	3.058207
1169.000000	3.065174
1170.000000	3.044370
1171.000000	3.044801
1172.000000	3.057528
1173.000000	3.030113
1174.000000	3.046469
1175.000000	3.043471
1176.000000	3.035865
1177.000000	3.035221
1178.000000	3.051757
1179.000000	3.042125
1180.000000	3.047929
1181.000000	3.049712
1182.000000	3.047849
1183.000000	3.054481
1184.000000	3.053332
1185.000000	3.040111
1186.000000	3.050940
1187.000000	3.050818
1188.000000	3.046102
1189.000000	3.051087
1190.000000	3.053561
1191.000000	3.061879
1192.000000	3.065991
1193.000000	3.064824
1194.000000	3.066700
1195.000000	3.068990
1196.000000	3.084489
1197.000000	3.082243
1198.000000	3.082438
1199.000000	3.098964
1200.000000	3.099681
1201.000000	3.087209
1202.000000	3.098228
1203.000000	3.103335
1204.000000	3.096399
1205.000000	3.113104
1206.000000	3.111968
1207.000000	3.108643
1208.000000	3.105985
1209.000000	3.115263
1210.000000	3.115073
1211.000000	3.115183
1212.000000	3.121786
1213.000000	3.129182
1214.000000	3.129527
1215.000000	3.130609
1216.000000	3.130359
1217.000000	3.137264
1218.000000	3.132454
1219.000000	3.128128
1220.000000	3.134208
1221.000000	3.137658
1222.000000	3.138030
1223.000000	3.137759
1224.000000	3.130564
1225.000000	3.137708
1226.000000	3.137690
1227.000000	3.128160
1228.000000	3.132656
1229.000000	3.133530
1230.000000	3.136912
1231.000000	3.140233
1232.000000	3.143802
1233.000000	3.141534
1234.000000	3.139366
1235.000000	3.134673
1236.000000	3.135145
1237.000000	3.142454
1238.000000	3.137859
1239.000000	3.133397
1240.000000	3.140209
1241.000000	3.141456
1242.000000	3.139677
1243.000000	3.139581
1244.000000	3.146584
1245.000000	3.145373
1246.000000	3.134126
1247.000000	3.143054
1248.000000	3.148102
1249.000000	3.132546
1250.000000	3.141089
1251.000000	3.153801
1252.000000	3.144427
1253.000000	3.150263
1254.000000	3.146073
1255.000000	3.149260
1256.000000	3.150122
1257.000000	3.147445
1258.000000	3.141410
1259.000000	3.136486
1260.000000	3.150683
1261.000000	3.142859
1262.000000	3.135087
1263.000000	3.139270
1264.000000	3.140093
1265.000000	3.132815
1266.000000	3.142730
1267.000000	3.149686
1268.000000	3.143567
1269.000000	3.143651
1270.000000	3.148159
1271.000000	3.144321
1272.000000	3.147150
1273.000000	3.140063
1274.000000	3.135420
1275.000000	3.144428
1276.000000	3.148442
1277.000000	3.148076
1278.000000	3.154517
1279.000000	3.153509
1280.000000	3.145780
1281.000000	3.149326
1282.000000	3.157020
1283.000000	3.162878
1284.000000	3.157359
1285.000000	3.158689
1286.000000	3.166994
1287.000000	3.170495
1288.000000	3.164490
1289.000000	3.164662
1290.000000	3.170334
1291.000000	3.163314
1292.000000	3.166234
1293.000000	3.169359
1294.000000	3.172157
1295.000000	3.175811
1296.000000	3.179221
1297.000000	3.191620
1298.000000	3.190229
1299.000000	3.179644
1300.000000	3.178276
1301.000000	3.180919
1302.000000	3.188033
1303.000000	3.191014
1304.000000	3.181082
1305.000000	3.180811
1306.000000	3.189373
1307.000000	3.194473
1308.000000	3.196647
1309.000000	3.193049
1310.000000	3.192299
1311.000000	3.190913
1312.000000	3.189074
1313.000000	3.188578
1314.000000	3.188304
1315.000000	3.193571
1316.000000	3.185185
1317.000000	3.183875
1318.000000	3.192463
1319.000000	3.193983
1320.000000	3.191557
1321.000000	3.179006
1322.000000	3.174256
1323.000000	3.179466
1324.000000	3.185257
1325.000000	3.177819
1326.000000	3.176744
1327.000000	3.181913
1328.000000	3.181045
1329.000000	3.174929
1330.000000	3.166112
1331.000000	3.171567
1332.000000	3.176508
1333.000000	3.163866
1334.000000	3.168127
1335.000000	3.173764
1336.000000	3.163358
1337.000000	3.157176
1338.000000	3.152864
1339.000000	3.149141
1340.000000	3.142683
1341.000000	3.139525
1342.000000	3.136488
1343.000000	3.138706
1344.000000	3.127715
1345.000000	3.132836
1346.000000	3.122011
1347.000000	3.110370
1348.000000	3.113983
1349.000000	3.114145
1350.000000	3.107487
1351.000000	3.095550
1352.000000	3.091007
1353.000000	3.089377
1354.000000	3.080064
1355.000000	3.077208
1356.000000	3.080334
1357.000000	3.067316
1358.000000	3.063517
1359.000000	3.076163
1360.000000	3.058825
1361.000000	3.056881
1362.000000	3.054312
1363.000000	3.054531
1364.000000	3.051341
1365.000000	3.041641
1366.000000	3.029981
1367.000000	3.030039
1368.000000	3.035124
1369.000000	3.024717
1370.000000	3.018434
1371.000000	3.020526
1372.000000	3.039619
1373.000000	3.013727
1374.000000	3.009281
1375.000000	3.016102
1376.000000	2.990008
1377.000000	2.998935
1378.000000	2.989904
1379.000000	2.984703
1380.000000	2.979687
1381.000000	2.983841
1382.000000	2.984218
1383.000000	2.980566
1384.000000	2.968490
1385.000000	2.960528
1386.000000	2.955202
1387.000000	2.960112
1388.000000	2.956048
1389.000000	2.909700
1390.000000	2.914284
1391.000000	2.911458
1392.000000	2.903300
1393.000000	2.889867
1394.000000	2.885744
1395.000000	2.894967
1396.000000	2.893875
1397.000000	2.858961
1398.000000	2.837659
1399.000000	2.834918
1400.000000	2.841588
1401.000000	2.838734
1402.000000	2.880190
1403.000000	2.811451
1404.000000	2.793220
1405.000000	2.818846
1406.000000	2.781579
1407.000000	2.754798
1408.000000	2.748415
1409.000000	2.744956
1410.000000	2.743549
1411.000000	2.709353
1412.000000	2.689950
1413.000000	2.687167
1414.000000	2.680580
1415.000000	2.669954
1416.000000	2.654372
1417.000000	2.632099
1418.000000	2.653083
1419.000000	2.626659
1420.000000	2.621454
1421.000000	2.603197
1422.000000	2.590692
1423.000000	2.595065
1424.000000	2.586580
1425.000000	2.575403
1426.000000	2.557854
1427.000000	2.561639
1428.000000	2.560268
1429.000000	2.549888
1430.000000	2.541655
1431.000000	2.542672
1432.000000	2.530214
1433.000000	2.516027
1434.000000	2.512640
1435.000000	2.525342
1436.000000	2.500880
1437.000000	2.514535
1438.000000	2.496267
1439.000000	2.493469
1440.000000	2.497167
1441.000000	2.495150
1442.000000	2.486076
1443.000000	2.489244
1444.000000	2.466135
1445.000000	2.469227
1446.000000	2.470060
1447.000000	2.463511
1448.000000	2.454533
1449.000000	2.462009
1450.000000	2.461229
1451.000000	2.464924
1452.000000	2.460116
1453.000000	2.453570
1454.000000	2.445272
1455.000000	2.438544
1456.000000	2.441373
1457.000000	2.420871
1458.000000	2.426596
1459.000000	2.423338
1460.000000	2.408373
1461.000000	2.418532
1462.000000	2.406670
1463.000000	2.410428
1464.000000	2.395888
1465.000000	2.388217
1466.000000	2.389940
1467.000000	2.380898
1468.000000	2.394304
1469.000000	2.378723
1470.000000	2.386352
1471.000000	2.365878
1472.000000	2.374673
1473.000000	2.375001
1474.000000	2.370273
1475.000000	2.353847
1476.000000	2.365491
1477.000000	2.343373
1478.000000	2.350114
1479.000000	2.348478
1480.000000	2.356584
1481.000000	2.341304
1482.000000	2.339614
1483.000000	2.341032
1484.000000	2.339025
1485.000000	2.325880
1486.000000	2.329310
1487.000000	2.328652
1488.000000	2.323029
1489.000000	2.321881
1490.000000	2.318872
1491.000000	2.325572
1492.000000	2.317368
1493.000000	2.308863
1494.000000	2.310299
1495.000000	2.306279
1496.000000	2.303775
1497.000000	2.312823
1498.000000	2.317168
1499.000000	2.317337
1500.000000	2.303944
1501.000000	2.314299
1502.000000	2.301400
1503.000000	2.312253
1504.000000	2.309491
1505.000000	2.310706
1506.000000	2.303676
1507.000000	2.305201
1508.000000	2.317824
1509.000000	2.319804
1510.000000	2.307176
1511.000000	2.299390
1512.000000	2.308899
1513.000000	2.309807
1514.000000	2.306558
1515.000000	2.316320
1516.000000	2.321968
1517.000000	2.320561
1518.000000	2.311248
1519.000000	2.307639
1520.000000	2.323982
1521.000000	2.329270
1522.000000	2.315162
1523.000000	2.326443
1524.000000	2.326719
1525.000000	2.328783
1526.000000	2.337457
1527.000000	2.340709
1528.000000	2.344579
1529.000000	2.347420
1530.000000	2.342265
1531.000000	2.342218
1532.000000	2.348720
1533.000000	2.348559
1534.000000	2.345292
1535.000000	2.347661
1536.000000	2.346683
1537.000000	2.351623
1538.000000	2.346964
1539.000000	2.351735
1540.000000	2.361364
1541.000000	2.357416
1542.000000	2.357537
1543.000000	2.359946
1544.000000	2.356256
1545.000000	2.363385
1546.000000	2.369801
1547.000000	2.370248
1548.000000	2.368841
1549.000000	2.364009
1550.000000	2.363451
1551.000000	2.371672
1552.000000	2.369211
1553.000000	2.364528
1554.000000	2.375461
1555.000000	2.383954
1556.000000	2.385999
1557.000000	2.392482
1558.000000	2.397226
1559.000000	2.394171
1560.000000	2.387723
1561.000000	2.385123
1562.000000	2.393417
1563.000000	2.394166
1564.000000	2.384077
1565.000000	2.381138
1566.000000	2.389097
1567.000000	2.395583
1568.000000	2.392291
1569.000000	2.387854
1570.000000	2.385436
1571.000000	2.388419
1572.000000	2.397864
1573.000000	2.396117
1574.000000	2.388864
1575.000000	2.390280
1576.000000	2.390979
1577.000000	2.393448
1578.000000	2.395627
1579.000000	2.403968
1580.000000	2.398372
1581.000000	2.394309
1582.000000	2.399093
1583.000000	2.396120
1584.000000	2.394673
1585.000000	2.402818
1586.000000	2.407126
1587.000000	2.402025
1588.000000	2.403558
1589.000000	2.407611
1590.000000	2.416248
1591.000000	2.414000
1592.000000	2.414167
1593.000000	2.406693
1594.000000	2.408528
1595.000000	2.421096
1596.000000	2.428722
1597.000000	2.418752
1598.000000	2.421564
1599.000000	2.432898
1600.000000	2.433503
1601.000000	2.434978
1602.000000	2.433133
1603.000000	2.429678
1604.000000	2.434512
1605.000000	2.439153
1606.000000	2.438018
1607.000000	2.438548
1608.000000	2.450780
1609.000000	2.444258
1610.000000	2.440097
1611.000000	2.445077
1612.000000	2.460627
1613.000000	2.465695
1614.000000	2.445988
1615.000000	2.446379
1616.000000	2.451825
1617.000000	2.463115
1618.000000	2.458157
1619.000000	2.458903
1620.000000	2.462258
1621.000000	2.466616
1622.000000	2.460837
1623.000000	2.452057
1624.000000	2.460508
1625.000000	2.463355
1626.000000	2.463109
1627.000000	2.465808
1628.000000	2.461225
1629.000000	2.467439
1630.000000	2.472569
1631.000000	2.468162
1632.000000	2.463815
1633.000000	2.467461
1634.000000	2.470927
1635.000000	2.475511
1636.000000	2.473649
1637.000000	2.464439
1638.000000	2.475791
1639.000000	2.475109
1640.000000	2.481673
1641.000000	2.477499
1642.000000	2.479885
1643.000000	2.473464
1644.000000	2.476998
1645.000000	2.482036
1646.000000	2.467045
1647.000000	2.469262
1648.000000	2.482040
1649.000000	2.472529
1650.000000	2.482573
1651.000000	2.480635
1652.000000	2.483734
1653.000000	2.475485
1654.000000	2.480264
1655.000000	2.475421
1656.000000	2.478044
1657.000000	2.484398
1658.000000	2.478566
1659.000000	2.477076
1660.000000	2.457051
1661.000000	2.465918
1662.000000	2.465554
1663.000000	2.460737
1664.000000	2.462869
1665.000000	2.462892
1666.000000	2.453552
1667.000000	2.451405
1668.000000	2.441364
1669.000000	2.447000
1670.000000	2.430846
1671.000000	2.413349
1672.000000	2.416512
1673.000000	2.422510
1674.000000	2.403183
1675.000000	2.391566
1676.000000	2.383467
1677.000000	2.391397
1678.000000	2.380145
1679.000000	2.368912
1680.000000	2.366107
1681.000000	2.356105
1682.000000	2.342007
1683.000000	2.336226
1684.000000	2.347045
1685.000000	2.325471
1686.000000	2.309317
1687.000000	2.322944
1688.000000	2.296481
1689.000000	2.297902
1690.000000	2.300073
1691.000000	2.285592
1692.000000	2.295705
1693.000000	2.286289
1694.000000	2.287797
1695.000000	2.294799
1696.000000	2.293822
1697.000000	2.287466
1698.000000	2.291328
1699.000000	2.284487
1700.000000	2.290894
1701.000000	2.284098
1702.000000	2.297381
1703.000000	2.287484
1704.000000	2.292777
1705.000000	2.287766
1706.000000	2.285635
1707.000000	2.303200
1708.000000	2.294825
1709.000000	2.292870
1710.000000	2.295501
1711.000000	2.276840
1712.000000	2.276805
1713.000000	2.283839
1714.000000	2.273397
1715.000000	2.277660
1716.000000	2.277485
1717.000000	2.267194
1718.000000	2.260118
1719.000000	2.247698
1720.000000	2.243427
1721.000000	2.240065
1722.000000	2.250359
1723.000000	2.238202
1724.000000	2.238112
1725.000000	2.238855
1726.000000	2.234568
1727.000000	2.229943
1728.000000	2.237077
1729.000000	2.227229
1730.000000	2.238613
1731.000000	2.229870
1732.000000	2.238725
1733.000000	2.228788
1734.000000	2.239457
1735.000000	2.240726
1736.000000	2.247072
1737.000000	2.231576
1738.000000	2.226505
1739.000000	2.223674
1740.000000	2.236786
1741.000000	2.234519
1742.000000	2.223097
1743.000000	2.233809
1744.000000	2.225987
1745.000000	2.231436
1746.000000	2.247026
1747.000000	2.248293
1748.000000	2.249340
1749.000000	2.239014
1750.000000	2.239227
1751.000000	2.247606
1752.000000	2.253808
1753.000000	2.249319
1754.000000	2.239975
1755.000000	2.246218
1756.000000	2.249430
1757.000000	2.252515
1758.000000	2.257831
1759.000000	2.258545
1760.000000	2.248021
1761.000000	2.253981
1762.000000	2.275278
1763.000000	2.277809
1764.000000	2.254748
1765.000000	2.259808
1766.000000	2.251241
1767.000000	2.253679
1768.000000	2.255215
1769.000000	2.257654
1770.000000	2.256585
1771.000000	2.264103
1772.000000	2.260358
1773.000000	2.260062
1774.000000	2.259842
1775.000000	2.262769
1776.000000	2.270435
1777.000000	2.277913
1778.000000	2.282166
1779.000000	2.282227
1780.000000	2.277036
1781.000000	2.267689
1782.000000	2.268284
1783.000000	2.269292
1784.000000	2.258690
1785.000000	2.261977
1786.000000	2.269370
1787.000000	2.268263
1788.000000	2.269305
1789.000000	2.274431
1790.000000	2.270929
1791.000000	2.269261
1792.000000	2.273730
1793.000000	2.281453
1794.000000	2.278793
1795.000000	2.273185
1796.000000	2.277125
1797.000000	2.271159
1798.000000	2.262206
1799.000000	2.268335
1800.000000	2.271710
1801.000000	2.269705
1802.000000	2.261656
1803.000000	2.260431
1804.000000	2.277881
1805.000000	2.272343
1806.000000	2.272824
1807.000000	2.286744
1808.000000	2.282431
1809.000000	2.262969
1810.000000	2.268440
1811.000000	2.276861
1812.000000	2.272326
1813.000000	2.281814
1814.000000	2.283925
1815.000000	2.278359
1816.000000	2.271888
1817.000000	2.271783
1818.000000	2.281027
1819.000000	2.284916
1820.000000	2.277430
1821.000000	2.278904
1822.000000	2.284361
1823.000000	2.275719
1824.000000	2.263008
1825.000000	2.268750
1826.000000	2.277021
1827.000000	2.271637
1828.000000	2.255750
1829.000000	2.260571
1830.000000	2.276951
1831.000000	2.274759
1832.000000	2.271041
1833.000000	2.280176
1834.000000	2.280604
1835.000000	2.272803
1836.000000	2.270212
1837.000000	2.259919
1838.000000	2.262290
1839.000000	2.274739
1840.000000	2.274115
1841.000000	2.278946
1842.000000	2.292931
1843.000000	2.282306
1844.000000	2.264803
1845.000000	2.263780
1846.000000	2.253438
1847.000000	2.265763
1848.000000	2.283959
1849.000000	2.265769
1850.000000	2.258061
1851.000000	2.277909
1852.000000	2.272225
1853.000000	2.269336
1854.000000	2.269808
1855.000000	2.267053
1856.000000	2.264429
1857.000000	2.263809
1858.000000	2.266087
1859.000000	2.267670
1860.000000	2.263360
1861.000000	2.251146
1862.000000	2.245471
1863.000000	2.239145
1864.000000	2.242714
1865.000000	2.251683
1866.000000	2.252168
1867.000000	2.247407
1868.000000	2.246195
1869.000000	2.232482
1870.000000	2.230778
1871.000000	2.213777
1872.000000	2.204162
1873.000000	2.201150
1874.000000	2.185022
1875.000000	2.179983
1876.000000	2.156678
1877.000000	2.160747
1878.000000	2.176725
1879.000000	2.156594
1880.000000	2.142225
1881.000000	2.135358
1882.000000	2.127744
1883.000000	2.134507
1884.000000	2.111474
1885.000000	2.079390
1886.000000	2.075439
1887.000000	2.045114
1888.000000	2.022330
1889.000000	1.993834
1890.000000	2.019596
1891.000000	2.000793
1892.000000	1.960386
1893.000000	1.940671
1894.000000	1.924496
1895.000000	1.898951
1896.000000	1.899423
1897.000000	1.883683
1898.000000	1.832014
1899.000000	1.823391
1900.000000	1.805149
1901.000000	1.776327
1902.000000	1.769930
1903.000000	1.741862
1904.000000	1.721947
1905.000000	1.689149
1906.000000	1.667254
1907.000000	1.654753
1908.000000	1.632280
1909.000000	1.616750
1910.000000	1.592349
1911.000000	1.578663
1912.000000	1.585107
1913.000000	1.563964
1914.000000	1.522600
1915.000000	1.504293
1916.000000	1.486164
1917.000000	1.482811
1918.000000	1.483414
1919.000000	1.461954
1920.000000	1.458617
1921.000000	1.447316
1922.000000	1.427802
1923.000000	1.408013
1924.000000	1.403939
1925.000000	1.391110
1926.000000	1.377028
1927.000000	1.388597
1928.000000	1.370835
1929.000000	1.358453
1930.000000	1.372150
1931.000000	1.368539
1932.000000	1.361799
1933.000000	1.369581
1934.000000	1.371439
1935.000000	1.363712
1936.000000	1.352637
1937.000000	1.362935
1938.000000	1.357913
1939.000000	1.365781
1940.000000	1.349905
1941.000000	1.355008
1942.000000	1.348176
1943.000000	1.361169
1944.000000	1.360876
1945.000000	1.371120
1946.000000	1.367226
1947.000000	1.368306
1948.000000	1.370801
1949.000000	1.376721
1950.000000	1.381225
1951.000000	1.389787
1952.000000	1.393698
1953.000000	1.404116
1954.000000	1.407359
1955.000000	1.395929
1956.000000	1.407393
1957.000000	1.413963
1958.000000	1.417194
1959.000000	1.407237
1960.000000	1.431513
1961.000000	1.427745
1962.000000	1.435689
1963.000000	1.445891
1964.000000	1.428094
1965.000000	1.447325
1966.000000	1.442893
1967.000000	1.428503
1968.000000	1.446550
1969.000000	1.463683
1970.000000	1.445782
1971.000000	1.469051
1972.000000	1.462381
1973.000000	1.458342
1974.000000	1.471899
1975.000000	1.469409
1976.000000	1.468662
1977.000000	1.480754
1978.000000	1.472815
1979.000000	1.474270
1980.000000	1.487004
1981.000000	1.488128
1982.000000	1.492375
1983.000000	1.481580
1984.000000	1.493797
1985.000000	1.502672
1986.000000	1.513569
1987.000000	1.502439
1988.000000	1.529010
1989.000000	1.510766
1990.000000	1.510163
1991.000000	1.520588
1992.000000	1.536123
1993.000000	1.543039
1994.000000	1.546728
1995.000000	1.537739
1996.000000	1.549939
1997.000000	1.544424
1998.000000	1.560471
1999.000000	1.558827
2000.000000	1.559354
2001.000000	1.552314
2002.000000	1.551524
2003.000000	1.559289
2004.000000	1.564385
2005.000000	1.568483
2006.000000	1.573775
2007.000000	1.574626
2008.000000	1.576346
2009.000000	1.579947
2010.000000	1.591269
2011.000000	1.578490
2012.000000	1.586442
2013.000000	1.589413
2014.000000	1.579441
2015.000000	1.593951
2016.000000	1.596828
2017.000000	1.588638
2018.000000	1.577129
2019.000000	1.588604
2020.000000	1.576464
2021.000000	1.575007
2022.000000	1.586098
2023.000000	1.586735
2024.000000	1.585646
2025.000000	1.580423
2026.000000	1.581914
2027.000000	1.579366
2028.000000	1.565206
2029.000000	1.575724
2030.000000	1.586647
2031.000000	1.573462
2032.000000	1.564625
2033.000000	1.566179
2034.000000	1.562942
2035.000000	1.572560
2036.000000	1.569803
2037.000000	1.570609
2038.000000	1.548065
2039.000000	1.547549
2040.000000	1.538313
2041.000000	1.533199
2042.000000	1.521799
2043.000000	1.518528
2044.000000	1.526901
2045.000000	1.528369
2046.000000	1.521207
2047.000000	1.519509
2048.000000	1.500564
2049.000000	1.487552
2050.000000	1.487874
2051.000000	1.482207
2052.000000	1.470299
2053.000000	1.470783
2054.000000	1.467994
2055.000000	1.464639
2056.000000	1.455960
2057.000000	1.445832
2058.000000	1.440289
2059.000000	1.441640
2060.000000	1.437428
2061.000000	1.434080
2062.000000	1.442646
2063.000000	1.449770
2064.000000	1.449166
2065.000000	1.452723
2066.000000	1.451105
2067.000000	1.446447
2068.000000	1.454133
2069.000000	1.452923
2070.000000	1.446993
2071.000000	1.442661
2072.000000	1.453724
2073.000000	1.468445
2074.000000	1.475130
2075.000000	1.472127
2076.000000	1.467348
2077.000000	1.470734
2078.000000	1.462125
2079.000000	1.457354
2080.000000	1.469011
2081.000000	1.477188
2082.000000	1.476718
2083.000000	1.470318
2084.000000	1.465887
2085.000000	1.467828
2086.000000	1.465573
2087.000000	1.470104
2088.000000	1.477234
2089.000000	1.469035
2090.000000	1.468831
2091.000000	1.477721
2092.000000	1.463878
2093.000000	1.460595
2094.000000	1.466742
2095.000000	1.459998
2096.000000	1.450396
2097.000000	1.452261
2098.000000	1.459795
2099.000000	1.459228
2100.000000	1.446275
2101.000000	1.446201
2102.000000	1.445903
2103.000000	1.450190
2104.000000	1.453960
2105.000000	1.454649
2106.000000	1.445657
2107.000000	1.445102
2108.000000	1.447632
2109.000000	1.446065
2110.000000	1.443153
2111.000000	1.435312
2112.000000	1.428607
2113.000000	1.433368
2114.000000	1.438225
2115.000000	1.438506
2116.000000	1.430672
2117.000000	1.427061
2118.000000	1.424078
2119.000000	1.420182
2120.000000	1.414565
2121.000000	1.408017
2122.000000	1.414277
2123.000000	1.413087
2124.000000	1.394667
2125.000000	1.389210
2126.000000	1.394009
2127.000000	1.388044
2128.000000	1.383631
2129.000000	1.388585
2130.000000	1.374166
2131.000000	1.366813
2132.000000	1.373797
2133.000000	1.373179
2134.000000	1.367517
2135.000000	1.362901
2136.000000	1.359314
2137.000000	1.364877
2138.000000	1.363999
2139.000000	1.349111
2140.000000	1.343863
2141.000000	1.345923
2142.000000	1.341402
2143.000000	1.330211
2144.000000	1.323314
2145.000000	1.323066
2146.000000	1.315158
2147.000000	1.315711
2148.000000	1.314737
2149.000000	1.313454
2150.000000	1.314663
2151.000000	1.303043
2152.000000	1.297197
2153.000000	1.288916
2154.000000	1.283129
2155.000000	1.279515
2156.000000	1.284071
2157.000000	1.276617
2158.000000	1.263229
2159.000000	1.261888
2160.000000	1.258777
2161.000000	1.259181
2162.000000	1.256395
2163.000000	1.255303
2164.000000	1.255075
2165.000000	1.252925
2166.000000	1.254107
2167.000000	1.251542
2168.000000	1.246646
2169.000000	1.252172
2170.000000	1.263681
2171.000000	1.256204
2172.000000	1.254379
2173.000000	1.248736
2174.000000	1.261337
2175.000000	1.259116
2176.000000	1.253548
2177.000000	1.248539
2178.000000	1.253250
2179.000000	1.250273
2180.000000	1.257112
2181.000000	1.248388
2182.000000	1.252162
2183.000000	1.266358
2184.000000	1.272043
2185.000000	1.267884
2186.000000	1.263361
2187.000000	1.269586
2188.000000	1.268378
2189.000000	1.262873
2190.000000	1.259138
2191.000000	1.259628
2192.000000	1.265844
2193.000000	1.275471
2194.000000	1.268505
2195.000000	1.269467
2196.000000	1.280690
2197.000000	1.277213
2198.000000	1.270372
2199.000000	1.255921
2200.000000	1.253819
2201.000000	1.263340
2202.000000	1.267791
2203.000000	1.271310
2204.000000	1.263069
2205.000000	1.270389
2206.000000	1.260316
2207.000000	1.252850
2208.000000	1.261567
2209.000000	1.277911
2210.000000	1.278662
2211.000000	1.291921
2212.000000	1.283407
2213.000000	1.286135
2214.000000	1.285989
2215.000000	1.284186
2216.000000	1.299963
2217.000000	1.282291
2218.000000	1.283844
2219.000000	1.290485
2220.000000	1.300484
2221.000000	1.302740
2222.000000	1.308918
2223.000000	1.308415
2224.000000	1.320018
2225.000000	1.313678
2226.000000	1.317123
2227.000000	1.308731
2228.000000	1.331159
2229.000000	1.326058
2230.000000	1.320502
2231.000000	1.327908
2232.000000	1.327567
2233.000000	1.315640
2234.000000	1.315893
2235.000000	1.316671
2236.000000	1.325130
2237.000000	1.332033
2238.000000	1.332125
2239.000000	1.326130
2240.000000	1.299281
2241.000000	1.314664
2242.000000	1.325551
2243.000000	1.321241
2244.000000	1.305317
2245.000000	1.306780
2246.000000	1.310047
2247.000000	1.294899
2248.000000	1.294994
2249.000000	1.285363
2250.000000	1.277562
2251.000000	1.263352
2252.000000	1.262994
2253.000000	1.252216
2254.000000	1.246817
2255.000000	1.245630
2256.000000	1.232675
2257.000000	1.224532
2258.000000	1.225483
2259.000000	1.209240
2260.000000	1.199223
2261.000000	1.211444
2262.000000	1.206957
2263.000000	1.184392
2264.000000	1.187621
2265.000000	1.167933
2266.000000	1.179353
2267.000000	1.181060
2268.000000	1.181246
2269.000000	1.175216
2270.000000	1.168107
2271.000000	1.173764
2272.000000	1.151762
2273.000000	1.160595
2274.000000	1.165350
2275.000000	1.169995
2276.000000	1.158422
2277.000000	1.155260
2278.000000	1.148841
2279.000000	1.150381
2280.000000	1.147757
2281.000000	1.150310
2282.000000	1.143284
2283.000000	1.158238
2284.000000	1.150615
2285.000000	1.141438
2286.000000	1.146097
2287.000000	1.128291
2288.000000	1.149975
2289.000000	1.142351
2290.000000	1.138103
2291.000000	1.136864
2292.000000	1.139638
2293.000000	1.131327
2294.000000	1.152225
2295.000000	1.150384
2296.000000	1.148462
2297.000000	1.132950
2298.000000	1.125670
2299.000000	1.130403
2300.000000	1.129689
2301.000000	1.137598
2302.000000	1.141686
2303.000000	1.149690
2304.000000	1.139692
2305.000000	1.148090
2306.000000	1.147582
2307.000000	1.144447
2308.000000	1.138705
2309.000000	1.133525
2310.000000	1.132654
2311.000000	1.134020
2312.000000	1.135360
2313.000000	1.149608
2314.000000	1.162646
2315.000000	1.133944
2316.000000	1.120328
2317.000000	1.123125
2318.000000	1.139387
2319.000000	1.125298
2320.000000	1.115965
2321.000000	1.109898
2322.000000	1.097087
2323.000000	1.098510
2324.000000	1.096739
2325.000000	1.087491
2326.000000	1.069190
2327.000000	1.062966
2328.000000	1.064046
2329.000000	1.046405
2330.000000	1.040694
2331.000000	1.039044
2332.000000	1.019793
2333.000000	1.021147
2334.000000	1.019517
2335.000000	1.003289
2336.000000	0.996109
2337.000000	1.003954
2338.000000	0.996688
2339.000000	0.977446
2340.000000	0.979937
2341.000000	0.976541
2342.000000	0.965494
2343.000000	0.968780
2344.000000	0.992043
2345.000000	0.970588
2346.000000	0.950080
2347.000000	0.965515
2348.000000	0.976182
2349.000000	0.987571
2350.000000	0.978936
2351.000000	0.947351
2352.000000	0.945755
2353.000000	0.962636
2354.000000	0.959872
2355.000000	0.945294
2356.000000	0.939768
2357.000000	0.937652
2358.000000	0.923109
2359.000000	0.912386
2360.000000	0.911844
2361.000000	0.921911
2362.000000	0.913819
2363.000000	0.896712
2364.000000	0.899548
2365.000000	0.873327
2366.000000	0.859096
2367.000000	0.884482
2368.000000	0.884305
2369.000000	0.876963
2370.000000	0.874688
2371.000000	0.874455
2372.000000	0.871975
2373.000000	0.867054
2374.000000	0.868128
2375.000000	0.848704
2376.000000	0.833636
2377.000000	0.842684
2378.000000	0.843166
2379.000000	0.841711
2380.000000	0.845120
2381.000000	0.843612
2382.000000	0.832571
2383.000000	0.831919
2384.000000	0.826857
2385.000000	0.824030
2386.000000	0.822756
2387.000000	0.810292
2388.000000	0.803254
2389.000000	0.813729
2390.000000	0.815731
2391.000000	0.806040
2392.000000	0.805304
2393.000000	0.792050
2394.000000	0.792408
2395.000000	0.781670
2396.000000	0.783730
2397.000000	0.789810
2398.000000	0.788406
2399.000000	0.782580
2400.000000	0.764479
2401.000000	0.755546
2402.000000	0.748703
2403.000000	0.751750
2404.000000	0.747668
2405.000000	0.728986
2406.000000	0.733627
2407.000000	0.741687
2408.000000	0.733652
2409.000000	0.731788
2410.000000	0.736605
2411.000000	0.723194
2412.000000	0.722812
2413.000000	0.721182
2414.000000	0.721574
2415.000000	0.728321
2416.000000	0.725694
2417.000000	0.717086
2418.000000	0.718730
2419.000000	0.714983
2420.000000	0.711843
2421.000000	0.715116
2422.000000	0.708768
2423.000000	0.697671
2424.000000	0.702853
2425.000000	0.705729
2426.000000	0.699748
2427.000000	0.693322
2428.000000	0.695659
2429.000000	0.685326
2430.000000	0.684723
2431.000000	0.667999
2432.000000	0.661396
2433.000000	0.651961
2434.000000	0.661493
2435.000000	0.657662
2436.000000	0.662437
2437.000000	0.661580
2438.000000	0.645199
2439.000000	0.632924
2440.000000	0.607853
2441.000000	0.617472
2442.000000	0.621273
2443.000000	0.627607
2444.000000	0.619577
2445.000000	0.614254
2446.000000	0.601228
2447.000000	0.606581
2448.000000	0.604082
2449.000000	0.581268
2450.000000	0.593688
2451.000000	0.573267
2452.000000	0.570366
2453.000000	0.560193
2454.000000	0.560601
2455.000000	0.550868
2456.000000	0.529955
2457.000000	0.534379
2458.000000	0.542842
2459.000000	0.546326
2460.000000	0.532679
2461.000000	0.551478
2462.000000	0.538792
2463.000000	0.495840
2464.000000	0.484633
2465.000000	0.492714
2466.000000	0.466058
2467.000000	0.508649
2468.000000	0.500516
2469.000000	0.474187
2470.000000	0.500004
2471.000000	0.475348
2472.000000	0.519557
2473.000000	0.469215
2474.000000	0.433404
2475.000000	0.466044
2476.000000	0.469039
2477.000000	0.472952
2478.000000	0.518903
2479.000000	0.445154
2480.000000	0.439320
2481.000000	0.447448
2482.000000	0.445750
2483.000000	0.474633
2484.000000	0.509616
2485.000000	0.429139
2486.000000	0.426504
2487.000000	0.463811
2488.000000	0.505218
2489.000000	0.407585
2490.000000	0.396873
2491.000000	0.486181
2492.000000	0.447510
2493.000000	0.441989
2494.000000	0.372124
2495.000000	0.449873
2496.000000	0.493086
2497.000000	0.519356
2498.000000	0.415297
2499.000000	0.456539
2500.000000	0.413518
