PE UV       SUBTECH     SPECTRUM    ASCII       PEDS        4.00        
   -1
CICIMAUCR0175-3.ASC
24/03/01
12:49:06.00
24/03/01
12:49:06.00
Vinicio Soto Monge
C.aurora. USA: AZ: Cochise Co, Chiricahua Mtns., Pine Canyon, 31°56.895'N 10920.495'W, 1798 m, 22.VII.2009 MV light, N.P. Lord, colr
250,000000
1
Lambda 1050
1050L1511233
PerkinElmer UV WinLab 6.3.2.0749 / 2.02.05 Lambda 900 UV/VIS/NIR, Aug  7 2015 09:38:08

0
0
3350/servo 860,8/2
0
0
UV/VIS
1
1
1
DoubleDePol,CommonBeamDepol,RBeamAtt,SBeamAtt,60mm sphere, WB InGaAs Detector
0
0
0
0
Program
Program
3350/servo 860,8/2
3350/0,2 860,8/0,2
3350/0,2 860,8/0,2
0
15.00
 
 
 
0
 
860,8
319,2
860,8
Front
100
on
S:100 R:100
0
0
0
0
 
0
 
 
 
0
 
 
0
0
0
0
0
 
 
 
 
0
0


0
0
#HDR
-1
-1
#GR
nm
%R
1.0
0.0
2500,000000
-1,000000
2251
8
20,716100
1,862600
#DATA
250.000000	0.117714
251.000000	0.134876
252.000000	0.118394
253.000000	0.128625
254.000000	0.114836
255.000000	0.103326
256.000000	0.125372
257.000000	0.100099
258.000000	0.104497
259.000000	0.124974
260.000000	0.134099
261.000000	0.134115
262.000000	0.139762
263.000000	0.134907
264.000000	0.116229
265.000000	0.107312
266.000000	0.129845
267.000000	0.103110
268.000000	0.118667
269.000000	0.117792
270.000000	0.128335
271.000000	0.125587
272.000000	0.137485
273.000000	0.114759
274.000000	0.132427
275.000000	0.141651
276.000000	0.149561
277.000000	0.113076
278.000000	0.137602
279.000000	0.116645
280.000000	0.103556
281.000000	0.116574
282.000000	0.118458
283.000000	0.141393
284.000000	0.135138
285.000000	0.129478
286.000000	0.107510
287.000000	0.133515
288.000000	0.130210
289.000000	0.107154
290.000000	0.112152
291.000000	0.121445
292.000000	0.127793
293.000000	0.113729
294.000000	0.119216
295.000000	0.121834
296.000000	0.120136
297.000000	0.140277
298.000000	0.114483
299.000000	0.123369
300.000000	0.137661
301.000000	0.123832
302.000000	0.142423
303.000000	0.124515
304.000000	0.085138
305.000000	0.147409
306.000000	0.120240
307.000000	0.108932
308.000000	0.146403
309.000000	0.133551
310.000000	0.158586
311.000000	0.119795
312.000000	0.147575
313.000000	0.125991
314.000000	0.094137
315.000000	0.107466
316.000000	0.136909
317.000000	0.233453
318.000000	0.208745
319.000000	0.233150
320.000000	0.186622
321.000000	0.196542
322.000000	0.167772
323.000000	0.206522
324.000000	0.150790
325.000000	0.273388
326.000000	0.209702
327.000000	0.131863
328.000000	0.164529
329.000000	0.148810
330.000000	0.116562
331.000000	0.135615
332.000000	0.184941
333.000000	0.190447
334.000000	0.183507
335.000000	0.187899
336.000000	0.170249
337.000000	0.185307
338.000000	0.173833
339.000000	0.191449
340.000000	0.247219
341.000000	0.218804
342.000000	0.218557
343.000000	0.258894
344.000000	0.233825
345.000000	0.223875
346.000000	0.209377
347.000000	0.231077
348.000000	0.233137
349.000000	0.237782
350.000000	0.212857
351.000000	0.259096
352.000000	0.293062
353.000000	0.268374
354.000000	0.293212
355.000000	0.290976
356.000000	0.323785
357.000000	0.329414
358.000000	0.317718
359.000000	0.363898
360.000000	0.404252
361.000000	0.441614
362.000000	0.408440
363.000000	0.398319
364.000000	0.437023
365.000000	0.440338
366.000000	0.416462
367.000000	0.443345
368.000000	0.485108
369.000000	0.488169
370.000000	0.515175
371.000000	0.486812
372.000000	0.550247
373.000000	0.538060
374.000000	0.613031
375.000000	0.583627
376.000000	0.529114
377.000000	0.553926
378.000000	0.566289
379.000000	0.577403
380.000000	0.582137
381.000000	0.593211
382.000000	0.609742
383.000000	0.617175
384.000000	0.627791
385.000000	0.637222
386.000000	0.645758
387.000000	0.646631
388.000000	0.658629
389.000000	0.666653
390.000000	0.671472
391.000000	0.679569
392.000000	0.683594
393.000000	0.690615
394.000000	0.688147
395.000000	0.683654
396.000000	0.686612
397.000000	0.688920
398.000000	0.687533
399.000000	0.688768
400.000000	0.689946
401.000000	0.690319
402.000000	0.685596
403.000000	0.683115
404.000000	0.671160
405.000000	0.672099
406.000000	0.672054
407.000000	0.664430
408.000000	0.658422
409.000000	0.646644
410.000000	0.646255
411.000000	0.641900
412.000000	0.640485
413.000000	0.635995
414.000000	0.627562
415.000000	0.616364
416.000000	0.606336
417.000000	0.598267
418.000000	0.594239
419.000000	0.591530
420.000000	0.585919
421.000000	0.575706
422.000000	0.568896
423.000000	0.567469
424.000000	0.560956
425.000000	0.551794
426.000000	0.548956
427.000000	0.545846
428.000000	0.544359
429.000000	0.543150
430.000000	0.532626
431.000000	0.528632
432.000000	0.529376
433.000000	0.524385
434.000000	0.519080
435.000000	0.519600
436.000000	0.520859
437.000000	0.522348
438.000000	0.520882
439.000000	0.523175
440.000000	0.528219
441.000000	0.530929
442.000000	0.530654
443.000000	0.532514
444.000000	0.536027
445.000000	0.540393
446.000000	0.547334
447.000000	0.545792
448.000000	0.549493
449.000000	0.555855
450.000000	0.557397
451.000000	0.562340
452.000000	0.567157
453.000000	0.573835
454.000000	0.583471
455.000000	0.586541
456.000000	0.590096
457.000000	0.596777
458.000000	0.602536
459.000000	0.602832
460.000000	0.608032
461.000000	0.616759
462.000000	0.621332
463.000000	0.622737
464.000000	0.622154
465.000000	0.628752
466.000000	0.631758
467.000000	0.630580
468.000000	0.632377
469.000000	0.634177
470.000000	0.637862
471.000000	0.643494
472.000000	0.646578
473.000000	0.648698
474.000000	0.651795
475.000000	0.656606
476.000000	0.658246
477.000000	0.658907
478.000000	0.664979
479.000000	0.668427
480.000000	0.673218
481.000000	0.683481
482.000000	0.693318
483.000000	0.698347
484.000000	0.701914
485.000000	0.708563
486.000000	0.717977
487.000000	0.724203
488.000000	0.738609
489.000000	0.744164
490.000000	0.747582
491.000000	0.756562
492.000000	0.772569
493.000000	0.787690
494.000000	0.791781
495.000000	0.807180
496.000000	0.823179
497.000000	0.835405
498.000000	0.846292
499.000000	0.859406
500.000000	0.873045
501.000000	0.880349
502.000000	0.891269
503.000000	0.907661
504.000000	0.918670
505.000000	0.929991
506.000000	0.942312
507.000000	0.950798
508.000000	0.961712
509.000000	0.971125
510.000000	0.979869
511.000000	0.981801
512.000000	0.980172
513.000000	0.979736
514.000000	0.980695
515.000000	0.985862
516.000000	0.984679
517.000000	0.983749
518.000000	0.988359
519.000000	0.982021
520.000000	0.978291
521.000000	0.969125
522.000000	0.973252
523.000000	0.974979
524.000000	0.971304
525.000000	0.969404
526.000000	0.968974
527.000000	0.970769
528.000000	0.967905
529.000000	0.973051
530.000000	0.979282
531.000000	0.976877
532.000000	0.973529
533.000000	0.962139
534.000000	0.953108
535.000000	0.947621
536.000000	0.947150
537.000000	0.941747
538.000000	0.932750
539.000000	0.937641
540.000000	0.929934
541.000000	0.932095
542.000000	0.927075
543.000000	0.928958
544.000000	0.925965
545.000000	0.924442
546.000000	0.915236
547.000000	0.917470
548.000000	0.914290
549.000000	0.899636
550.000000	0.900854
551.000000	0.898717
552.000000	0.891553
553.000000	0.891154
554.000000	0.890174
555.000000	0.883401
556.000000	0.881067
557.000000	0.875175
558.000000	0.861218
559.000000	0.854659
560.000000	0.787619
561.000000	0.772616
562.000000	0.760688
563.000000	0.756630
564.000000	0.745179
565.000000	0.747386
566.000000	0.737085
567.000000	0.722975
568.000000	0.717839
569.000000	0.719057
570.000000	0.711138
571.000000	0.704838
572.000000	0.700992
573.000000	0.699677
574.000000	0.688434
575.000000	0.670838
576.000000	0.676167
577.000000	0.663659
578.000000	0.657962
579.000000	0.654437
580.000000	0.639328
581.000000	0.647116
582.000000	0.642165
583.000000	0.642801
584.000000	0.636537
585.000000	0.634557
586.000000	0.633921
587.000000	0.635685
588.000000	0.633685
589.000000	0.626764
590.000000	0.625407
591.000000	0.624715
592.000000	0.614334
593.000000	0.604095
594.000000	0.592637
595.000000	0.596698
596.000000	0.591770
597.000000	0.579846
598.000000	0.570425
599.000000	0.568435
600.000000	0.568577
601.000000	0.565122
602.000000	0.556984
603.000000	0.557932
604.000000	0.558854
605.000000	0.553536
606.000000	0.544741
607.000000	0.546247
608.000000	0.551861
609.000000	0.548070
610.000000	0.553930
611.000000	0.537669
612.000000	0.533973
613.000000	0.542534
614.000000	0.531753
615.000000	0.527784
616.000000	0.521643
617.000000	0.530867
618.000000	0.531975
619.000000	0.533747
620.000000	0.540265
621.000000	0.540019
622.000000	0.536324
623.000000	0.546293
624.000000	0.545612
625.000000	0.551375
626.000000	0.542954
627.000000	0.542273
628.000000	0.532971
629.000000	0.536757
630.000000	0.536413
631.000000	0.531919
632.000000	0.540384
633.000000	0.533685
634.000000	0.538986
635.000000	0.528944
636.000000	0.538067
637.000000	0.542424
638.000000	0.537879
639.000000	0.552276
640.000000	0.548267
641.000000	0.548920
642.000000	0.551068
643.000000	0.554167
644.000000	0.551856
645.000000	0.562979
646.000000	0.564387
647.000000	0.556128
648.000000	0.560860
649.000000	0.564829
650.000000	0.574863
651.000000	0.575233
652.000000	0.578223
653.000000	0.578662
654.000000	0.588072
655.000000	0.601615
656.000000	0.606885
657.000000	0.615472
658.000000	0.621451
659.000000	0.626426
660.000000	0.624321
661.000000	0.621760
662.000000	0.623930
663.000000	0.625288
664.000000	0.638207
665.000000	0.641759
666.000000	0.636412
667.000000	0.644683
668.000000	0.645204
669.000000	0.646682
670.000000	0.638668
671.000000	0.639957
672.000000	0.640992
673.000000	0.650473
674.000000	0.652246
675.000000	0.648797
676.000000	0.649463
677.000000	0.640781
678.000000	0.635570
679.000000	0.642483
680.000000	0.642676
681.000000	0.628272
682.000000	0.634056
683.000000	0.629391
684.000000	0.617859
685.000000	0.623506
686.000000	0.642259
687.000000	0.642071
688.000000	0.622306
689.000000	0.623284
690.000000	0.624648
691.000000	0.622811
692.000000	0.621515
693.000000	0.613939
694.000000	0.608408
695.000000	0.604547
696.000000	0.601326
697.000000	0.595438
698.000000	0.595171
699.000000	0.592973
700.000000	0.589570
701.000000	0.587020
702.000000	0.586574
703.000000	0.572997
704.000000	0.562067
705.000000	0.562557
706.000000	0.559574
707.000000	0.555079
708.000000	0.546657
709.000000	0.546289
710.000000	0.543850
711.000000	0.547833
712.000000	0.548483
713.000000	0.543878
714.000000	0.531920
715.000000	0.532553
716.000000	0.531269
717.000000	0.538509
718.000000	0.532333
719.000000	0.515246
720.000000	0.516965
721.000000	0.504791
722.000000	0.497881
723.000000	0.504463
724.000000	0.498873
725.000000	0.490575
726.000000	0.490680
727.000000	0.486347
728.000000	0.485809
729.000000	0.481683
730.000000	0.480089
731.000000	0.490056
732.000000	0.484090
733.000000	0.477832
734.000000	0.485631
735.000000	0.494746
736.000000	0.486426
737.000000	0.478270
738.000000	0.472264
739.000000	0.469765
740.000000	0.455259
741.000000	0.451230
742.000000	0.463785
743.000000	0.460217
744.000000	0.453964
745.000000	0.465720
746.000000	0.470470
747.000000	0.459109
748.000000	0.446530
749.000000	0.444311
750.000000	0.444683
751.000000	0.448137
752.000000	0.446412
753.000000	0.441478
754.000000	0.439362
755.000000	0.442508
756.000000	0.448308
757.000000	0.452651
758.000000	0.446342
759.000000	0.437305
760.000000	0.453286
761.000000	0.463434
762.000000	0.457684
763.000000	0.463414
764.000000	0.463430
765.000000	0.447155
766.000000	0.447505
767.000000	0.444452
768.000000	0.443230
769.000000	0.443053
770.000000	0.422988
771.000000	0.432632
772.000000	0.439680
773.000000	0.442653
774.000000	0.444614
775.000000	0.446500
776.000000	0.460795
777.000000	0.451770
778.000000	0.442661
779.000000	0.455027
780.000000	0.454212
781.000000	0.452198
782.000000	0.472266
783.000000	0.474336
784.000000	0.447435
785.000000	0.450935
786.000000	0.461008
787.000000	0.465081
788.000000	0.462093
789.000000	0.458159
790.000000	0.449957
791.000000	0.450401
792.000000	0.459096
793.000000	0.458254
794.000000	0.447896
795.000000	0.457012
796.000000	0.470575
797.000000	0.461363
798.000000	0.470571
799.000000	0.462570
800.000000	0.445261
801.000000	0.462699
802.000000	0.479050
803.000000	0.471384
804.000000	0.491189
805.000000	0.474365
806.000000	0.476085
807.000000	0.462313
808.000000	0.471827
809.000000	0.483158
810.000000	0.489637
811.000000	0.443996
812.000000	0.451687
813.000000	0.479828
814.000000	0.498951
815.000000	0.477590
816.000000	0.503372
817.000000	0.500083
818.000000	0.495146
819.000000	0.496981
820.000000	0.519230
821.000000	0.512569
822.000000	0.503986
823.000000	0.476085
824.000000	0.501615
825.000000	0.521718
826.000000	0.493754
827.000000	0.495280
828.000000	0.483516
829.000000	0.491209
830.000000	0.543638
831.000000	0.496890
832.000000	0.537149
833.000000	0.493843
834.000000	0.541864
835.000000	0.528021
836.000000	0.555839
837.000000	0.550686
838.000000	0.558903
839.000000	0.504088
840.000000	0.500781
841.000000	0.511596
842.000000	0.438015
843.000000	0.558928
844.000000	0.571204
845.000000	0.570868
846.000000	0.467142
847.000000	0.521360
848.000000	0.525250
849.000000	0.498116
850.000000	0.520063
851.000000	0.529499
852.000000	0.374675
853.000000	0.589607
854.000000	0.570496
855.000000	0.690614
856.000000	0.639650
857.000000	0.443255
858.000000	0.692821
859.000000	0.458421
860.000000	0.448611
861.000000	0.468796
862.000000	0.483183
863.000000	0.501389
864.000000	0.501738
865.000000	0.517801
866.000000	0.526341
867.000000	0.540362
868.000000	0.558259
869.000000	0.560485
870.000000	0.559685
871.000000	0.574700
872.000000	0.583103
873.000000	0.583394
874.000000	0.587688
875.000000	0.601268
876.000000	0.599221
877.000000	0.610463
878.000000	0.635275
879.000000	0.629951
880.000000	0.644097
881.000000	0.645707
882.000000	0.649865
883.000000	0.663650
884.000000	0.675915
885.000000	0.678074
886.000000	0.677748
887.000000	0.686839
888.000000	0.683963
889.000000	0.702597
890.000000	0.705806
891.000000	0.712683
892.000000	0.696566
893.000000	0.702099
894.000000	0.747020
895.000000	0.737627
896.000000	0.736718
897.000000	0.762913
898.000000	0.764172
899.000000	0.756161
900.000000	0.768441
901.000000	0.774212
902.000000	0.789788
903.000000	0.785081
904.000000	0.796753
905.000000	0.786659
906.000000	0.796710
907.000000	0.820017
908.000000	0.848471
909.000000	0.827112
910.000000	0.852917
911.000000	0.858481
912.000000	0.845244
913.000000	0.842678
914.000000	0.852635
915.000000	0.874466
916.000000	0.886628
917.000000	0.894248
918.000000	0.894830
919.000000	0.911490
920.000000	0.907171
921.000000	0.903838
922.000000	0.911174
923.000000	0.903140
924.000000	0.919752
925.000000	0.933710
926.000000	0.949008
927.000000	0.938595
928.000000	0.935630
929.000000	0.955137
930.000000	0.960260
931.000000	0.971369
932.000000	0.979956
933.000000	0.967218
934.000000	0.971219
935.000000	0.978057
936.000000	0.986454
937.000000	0.991746
938.000000	0.999135
939.000000	0.987815
940.000000	0.991347
941.000000	0.991051
942.000000	1.012132
943.000000	1.014723
944.000000	1.019106
945.000000	1.022816
946.000000	1.027330
947.000000	1.031987
948.000000	1.028593
949.000000	1.038599
950.000000	1.051294
951.000000	1.055931
952.000000	1.052726
953.000000	1.060883
954.000000	1.072573
955.000000	1.070500
956.000000	1.074992
957.000000	1.080302
958.000000	1.076167
959.000000	1.086661
960.000000	1.091133
961.000000	1.098412
962.000000	1.083009
963.000000	1.092705
964.000000	1.114799
965.000000	1.118849
966.000000	1.126671
967.000000	1.113291
968.000000	1.118630
969.000000	1.136723
970.000000	1.142000
971.000000	1.129626
972.000000	1.134949
973.000000	1.146306
974.000000	1.151165
975.000000	1.155388
976.000000	1.162368
977.000000	1.150157
978.000000	1.146995
979.000000	1.159739
980.000000	1.166755
981.000000	1.170312
982.000000	1.171646
983.000000	1.186571
984.000000	1.177347
985.000000	1.179194
986.000000	1.194074
987.000000	1.202499
988.000000	1.206769
989.000000	1.199983
990.000000	1.200380
991.000000	1.210131
992.000000	1.214220
993.000000	1.212293
994.000000	1.212197
995.000000	1.208053
996.000000	1.218571
997.000000	1.223776
998.000000	1.224808
999.000000	1.231630
1000.000000	1.235369
1001.000000	1.235582
1002.000000	1.225961
1003.000000	1.238541
1004.000000	1.258161
1005.000000	1.260380
1006.000000	1.260908
1007.000000	1.256519
1008.000000	1.250871
1009.000000	1.260207
1010.000000	1.263114
1011.000000	1.254549
1012.000000	1.254612
1013.000000	1.264096
1014.000000	1.271138
1015.000000	1.269980
1016.000000	1.277111
1017.000000	1.278184
1018.000000	1.276944
1019.000000	1.279191
1020.000000	1.280229
1021.000000	1.275763
1022.000000	1.280399
1023.000000	1.291017
1024.000000	1.291680
1025.000000	1.291608
1026.000000	1.293993
1027.000000	1.291528
1028.000000	1.295840
1029.000000	1.302672
1030.000000	1.297715
1031.000000	1.303566
1032.000000	1.318358
1033.000000	1.316377
1034.000000	1.318447
1035.000000	1.334903
1036.000000	1.333203
1037.000000	1.323009
1038.000000	1.324536
1039.000000	1.338200
1040.000000	1.338192
1041.000000	1.329417
1042.000000	1.332468
1043.000000	1.328678
1044.000000	1.329828
1045.000000	1.341971
1046.000000	1.350254
1047.000000	1.344991
1048.000000	1.346753
1049.000000	1.350502
1050.000000	1.355990
1051.000000	1.355588
1052.000000	1.357059
1053.000000	1.364588
1054.000000	1.368889
1055.000000	1.370352
1056.000000	1.375438
1057.000000	1.364427
1058.000000	1.376810
1059.000000	1.399954
1060.000000	1.385836
1061.000000	1.392767
1062.000000	1.401398
1063.000000	1.389938
1064.000000	1.384459
1065.000000	1.385740
1066.000000	1.393483
1067.000000	1.398589
1068.000000	1.406198
1069.000000	1.410263
1070.000000	1.415786
1071.000000	1.414703
1072.000000	1.413324
1073.000000	1.414272
1074.000000	1.405496
1075.000000	1.401760
1076.000000	1.406913
1077.000000	1.404910
1078.000000	1.422282
1079.000000	1.427757
1080.000000	1.423961
1081.000000	1.432399
1082.000000	1.435458
1083.000000	1.439875
1084.000000	1.442782
1085.000000	1.437913
1086.000000	1.451530
1087.000000	1.456210
1088.000000	1.444334
1089.000000	1.419526
1090.000000	1.427607
1091.000000	1.434906
1092.000000	1.437223
1093.000000	1.433064
1094.000000	1.455085
1095.000000	1.453616
1096.000000	1.455849
1097.000000	1.457000
1098.000000	1.470072
1099.000000	1.462334
1100.000000	1.472052
1101.000000	1.467391
1102.000000	1.477521
1103.000000	1.460700
1104.000000	1.470864
1105.000000	1.467918
1106.000000	1.462783
1107.000000	1.474372
1108.000000	1.471354
1109.000000	1.477148
1110.000000	1.469328
1111.000000	1.470766
1112.000000	1.464316
1113.000000	1.466779
1114.000000	1.463536
1115.000000	1.461406
1116.000000	1.462659
1117.000000	1.470671
1118.000000	1.468816
1119.000000	1.467579
1120.000000	1.462804
1121.000000	1.468437
1122.000000	1.468422
1123.000000	1.481210
1124.000000	1.461397
1125.000000	1.477483
1126.000000	1.477864
1127.000000	1.485396
1128.000000	1.470347
1129.000000	1.484820
1130.000000	1.476100
1131.000000	1.465581
1132.000000	1.467629
1133.000000	1.467620
1134.000000	1.469248
1135.000000	1.467394
1136.000000	1.471387
1137.000000	1.467488
1138.000000	1.463571
1139.000000	1.454293
1140.000000	1.459079
1141.000000	1.466419
1142.000000	1.469347
1143.000000	1.445995
1144.000000	1.446566
1145.000000	1.462889
1146.000000	1.457959
1147.000000	1.463735
1148.000000	1.459465
1149.000000	1.461831
1150.000000	1.456560
1151.000000	1.441732
1152.000000	1.443346
1153.000000	1.437668
1154.000000	1.458617
1155.000000	1.459773
1156.000000	1.460256
1157.000000	1.435967
1158.000000	1.429013
1159.000000	1.421605
1160.000000	1.429277
1161.000000	1.421211
1162.000000	1.424499
1163.000000	1.418733
1164.000000	1.413785
1165.000000	1.427642
1166.000000	1.426904
1167.000000	1.397751
1168.000000	1.416298
1169.000000	1.425785
1170.000000	1.399733
1171.000000	1.393884
1172.000000	1.402526
1173.000000	1.400450
1174.000000	1.411378
1175.000000	1.413596
1176.000000	1.408537
1177.000000	1.388632
1178.000000	1.399361
1179.000000	1.408005
1180.000000	1.393867
1181.000000	1.400915
1182.000000	1.393477
1183.000000	1.404877
1184.000000	1.392115
1185.000000	1.388306
1186.000000	1.393286
1187.000000	1.397611
1188.000000	1.410617
1189.000000	1.394594
1190.000000	1.405430
1191.000000	1.399038
1192.000000	1.403683
1193.000000	1.412089
1194.000000	1.418136
1195.000000	1.417686
1196.000000	1.407808
1197.000000	1.414615
1198.000000	1.417733
1199.000000	1.413111
1200.000000	1.427769
1201.000000	1.433479
1202.000000	1.432945
1203.000000	1.438385
1204.000000	1.430175
1205.000000	1.442292
1206.000000	1.449443
1207.000000	1.453575
1208.000000	1.447703
1209.000000	1.435402
1210.000000	1.439933
1211.000000	1.444097
1212.000000	1.432522
1213.000000	1.446123
1214.000000	1.446078
1215.000000	1.445360
1216.000000	1.438175
1217.000000	1.453169
1218.000000	1.457412
1219.000000	1.452885
1220.000000	1.456038
1221.000000	1.442748
1222.000000	1.450265
1223.000000	1.446829
1224.000000	1.454306
1225.000000	1.441619
1226.000000	1.443393
1227.000000	1.450024
1228.000000	1.454499
1229.000000	1.445218
1230.000000	1.448382
1231.000000	1.430044
1232.000000	1.443602
1233.000000	1.447431
1234.000000	1.452394
1235.000000	1.443335
1236.000000	1.449674
1237.000000	1.438583
1238.000000	1.451608
1239.000000	1.455473
1240.000000	1.473317
1241.000000	1.473412
1242.000000	1.462083
1243.000000	1.462003
1244.000000	1.447710
1245.000000	1.447505
1246.000000	1.453284
1247.000000	1.467044
1248.000000	1.467736
1249.000000	1.457054
1250.000000	1.446066
1251.000000	1.449744
1252.000000	1.448321
1253.000000	1.456644
1254.000000	1.470859
1255.000000	1.462465
1256.000000	1.460976
1257.000000	1.461383
1258.000000	1.460880
1259.000000	1.472172
1260.000000	1.488825
1261.000000	1.477546
1262.000000	1.469335
1263.000000	1.477061
1264.000000	1.478212
1265.000000	1.466745
1266.000000	1.456048
1267.000000	1.467658
1268.000000	1.473906
1269.000000	1.471750
1270.000000	1.473853
1271.000000	1.477055
1272.000000	1.465487
1273.000000	1.462194
1274.000000	1.471817
1275.000000	1.470518
1276.000000	1.476513
1277.000000	1.473956
1278.000000	1.476762
1279.000000	1.476809
1280.000000	1.472872
1281.000000	1.477446
1282.000000	1.474200
1283.000000	1.468292
1284.000000	1.474599
1285.000000	1.483137
1286.000000	1.484480
1287.000000	1.480957
1288.000000	1.485980
1289.000000	1.498984
1290.000000	1.498724
1291.000000	1.489014
1292.000000	1.475439
1293.000000	1.469780
1294.000000	1.482403
1295.000000	1.494262
1296.000000	1.491636
1297.000000	1.486323
1298.000000	1.479156
1299.000000	1.481287
1300.000000	1.494953
1301.000000	1.488552
1302.000000	1.478034
1303.000000	1.482409
1304.000000	1.480817
1305.000000	1.476943
1306.000000	1.487629
1307.000000	1.491127
1308.000000	1.490031
1309.000000	1.493833
1310.000000	1.498658
1311.000000	1.499532
1312.000000	1.493171
1313.000000	1.485606
1314.000000	1.480394
1315.000000	1.476382
1316.000000	1.473472
1317.000000	1.473871
1318.000000	1.480422
1319.000000	1.488549
1320.000000	1.481595
1321.000000	1.473503
1322.000000	1.474535
1323.000000	1.479510
1324.000000	1.473492
1325.000000	1.466695
1326.000000	1.462010
1327.000000	1.460608
1328.000000	1.463555
1329.000000	1.462953
1330.000000	1.452217
1331.000000	1.454265
1332.000000	1.459392
1333.000000	1.456456
1334.000000	1.451825
1335.000000	1.441890
1336.000000	1.437625
1337.000000	1.443197
1338.000000	1.455055
1339.000000	1.444871
1340.000000	1.430061
1341.000000	1.436225
1342.000000	1.431364
1343.000000	1.422168
1344.000000	1.435570
1345.000000	1.431527
1346.000000	1.414165
1347.000000	1.410355
1348.000000	1.404453
1349.000000	1.418181
1350.000000	1.421010
1351.000000	1.410572
1352.000000	1.396677
1353.000000	1.388192
1354.000000	1.395801
1355.000000	1.393851
1356.000000	1.390779
1357.000000	1.398321
1358.000000	1.390726
1359.000000	1.388196
1360.000000	1.376850
1361.000000	1.367088
1362.000000	1.361009
1363.000000	1.377629
1364.000000	1.377706
1365.000000	1.366605
1366.000000	1.367817
1367.000000	1.370073
1368.000000	1.352439
1369.000000	1.341701
1370.000000	1.358871
1371.000000	1.353787
1372.000000	1.350148
1373.000000	1.349143
1374.000000	1.324911
1375.000000	1.312531
1376.000000	1.288306
1377.000000	1.279133
1378.000000	1.274286
1379.000000	1.250353
1380.000000	1.250919
1381.000000	1.235063
1382.000000	1.221687
1383.000000	1.231316
1384.000000	1.239281
1385.000000	1.235749
1386.000000	1.236802
1387.000000	1.216263
1388.000000	1.228403
1389.000000	1.237642
1390.000000	1.224983
1391.000000	1.216463
1392.000000	1.215975
1393.000000	1.235341
1394.000000	1.229307
1395.000000	1.224829
1396.000000	1.228396
1397.000000	1.254810
1398.000000	1.247054
1399.000000	1.231593
1400.000000	1.217877
1401.000000	1.243312
1402.000000	1.267482
1403.000000	1.255967
1404.000000	1.248556
1405.000000	1.244466
1406.000000	1.241102
1407.000000	1.242390
1408.000000	1.240882
1409.000000	1.251190
1410.000000	1.243854
1411.000000	1.234864
1412.000000	1.225381
1413.000000	1.215479
1414.000000	1.218036
1415.000000	1.230673
1416.000000	1.241564
1417.000000	1.220046
1418.000000	1.221009
1419.000000	1.210591
1420.000000	1.216869
1421.000000	1.221587
1422.000000	1.209557
1423.000000	1.200350
1424.000000	1.209517
1425.000000	1.208332
1426.000000	1.213973
1427.000000	1.196944
1428.000000	1.201777
1429.000000	1.215040
1430.000000	1.206918
1431.000000	1.187641
1432.000000	1.201460
1433.000000	1.187843
1434.000000	1.214684
1435.000000	1.200396
1436.000000	1.205161
1437.000000	1.204660
1438.000000	1.187363
1439.000000	1.201624
1440.000000	1.180827
1441.000000	1.207993
1442.000000	1.199414
1443.000000	1.193932
1444.000000	1.189541
1445.000000	1.188969
1446.000000	1.192490
1447.000000	1.203324
1448.000000	1.201845
1449.000000	1.189704
1450.000000	1.169359
1451.000000	1.196707
1452.000000	1.193223
1453.000000	1.200754
1454.000000	1.187582
1455.000000	1.185242
1456.000000	1.172933
1457.000000	1.192536
1458.000000	1.168234
1459.000000	1.196935
1460.000000	1.179473
1461.000000	1.193026
1462.000000	1.181051
1463.000000	1.174469
1464.000000	1.183341
1465.000000	1.170755
1466.000000	1.180795
1467.000000	1.173197
1468.000000	1.159513
1469.000000	1.156209
1470.000000	1.158199
1471.000000	1.165010
1472.000000	1.177050
1473.000000	1.174423
1474.000000	1.182427
1475.000000	1.163908
1476.000000	1.161622
1477.000000	1.165338
1478.000000	1.162771
1479.000000	1.167189
1480.000000	1.165797
1481.000000	1.163453
1482.000000	1.165656
1483.000000	1.165647
1484.000000	1.171009
1485.000000	1.164170
1486.000000	1.152458
1487.000000	1.151408
1488.000000	1.148203
1489.000000	1.147402
1490.000000	1.153254
1491.000000	1.153604
1492.000000	1.149657
1493.000000	1.151205
1494.000000	1.164122
1495.000000	1.158010
1496.000000	1.155150
1497.000000	1.144763
1498.000000	1.150206
1499.000000	1.154806
1500.000000	1.165045
1501.000000	1.169676
1502.000000	1.156928
1503.000000	1.152798
1504.000000	1.154278
1505.000000	1.160251
1506.000000	1.157728
1507.000000	1.152684
1508.000000	1.154399
1509.000000	1.162089
1510.000000	1.154098
1511.000000	1.163024
1512.000000	1.161623
1513.000000	1.153175
1514.000000	1.151785
1515.000000	1.157830
1516.000000	1.162466
1517.000000	1.163199
1518.000000	1.164883
1519.000000	1.166211
1520.000000	1.168600
1521.000000	1.167051
1522.000000	1.162255
1523.000000	1.169985
1524.000000	1.183578
1525.000000	1.184772
1526.000000	1.179782
1527.000000	1.181190
1528.000000	1.166443
1529.000000	1.160542
1530.000000	1.167657
1531.000000	1.166756
1532.000000	1.175493
1533.000000	1.182819
1534.000000	1.182584
1535.000000	1.189995
1536.000000	1.193073
1537.000000	1.178635
1538.000000	1.164913
1539.000000	1.182414
1540.000000	1.195256
1541.000000	1.182819
1542.000000	1.177267
1543.000000	1.176088
1544.000000	1.185457
1545.000000	1.184023
1546.000000	1.183345
1547.000000	1.174963
1548.000000	1.178627
1549.000000	1.186319
1550.000000	1.177444
1551.000000	1.177802
1552.000000	1.179372
1553.000000	1.186855
1554.000000	1.195968
1555.000000	1.192718
1556.000000	1.192681
1557.000000	1.193236
1558.000000	1.192392
1559.000000	1.191785
1560.000000	1.194185
1561.000000	1.192914
1562.000000	1.194337
1563.000000	1.194121
1564.000000	1.201589
1565.000000	1.212684
1566.000000	1.203629
1567.000000	1.188600
1568.000000	1.195908
1569.000000	1.192323
1570.000000	1.189719
1571.000000	1.198067
1572.000000	1.197942
1573.000000	1.200585
1574.000000	1.198745
1575.000000	1.195883
1576.000000	1.193725
1577.000000	1.187185
1578.000000	1.193416
1579.000000	1.199114
1580.000000	1.201574
1581.000000	1.202556
1582.000000	1.198775
1583.000000	1.199737
1584.000000	1.192073
1585.000000	1.190203
1586.000000	1.196065
1587.000000	1.192387
1588.000000	1.202409
1589.000000	1.206480
1590.000000	1.199206
1591.000000	1.202840
1592.000000	1.204286
1593.000000	1.197609
1594.000000	1.207041
1595.000000	1.205074
1596.000000	1.200476
1597.000000	1.206129
1598.000000	1.196663
1599.000000	1.195828
1600.000000	1.191232
1601.000000	1.190321
1602.000000	1.203889
1603.000000	1.214481
1604.000000	1.214960
1605.000000	1.201564
1606.000000	1.203663
1607.000000	1.214256
1608.000000	1.206669
1609.000000	1.215788
1610.000000	1.225355
1611.000000	1.223882
1612.000000	1.226139
1613.000000	1.229878
1614.000000	1.221111
1615.000000	1.212450
1616.000000	1.226340
1617.000000	1.225909
1618.000000	1.226286
1619.000000	1.227645
1620.000000	1.217151
1621.000000	1.218434
1622.000000	1.213170
1623.000000	1.221901
1624.000000	1.212417
1625.000000	1.210544
1626.000000	1.212322
1627.000000	1.209905
1628.000000	1.212171
1629.000000	1.219513
1630.000000	1.228712
1631.000000	1.227482
1632.000000	1.220743
1633.000000	1.225381
1634.000000	1.220887
1635.000000	1.230036
1636.000000	1.225108
1637.000000	1.224165
1638.000000	1.218135
1639.000000	1.213187
1640.000000	1.229458
1641.000000	1.231118
1642.000000	1.243622
1643.000000	1.235469
1644.000000	1.242796
1645.000000	1.232750
1646.000000	1.230394
1647.000000	1.238695
1648.000000	1.235125
1649.000000	1.243229
1650.000000	1.249845
1651.000000	1.249863
1652.000000	1.236141
1653.000000	1.232168
1654.000000	1.233268
1655.000000	1.237803
1656.000000	1.235573
1657.000000	1.243427
1658.000000	1.241813
1659.000000	1.231149
1660.000000	1.238842
1661.000000	1.237966
1662.000000	1.228361
1663.000000	1.223199
1664.000000	1.234311
1665.000000	1.246231
1666.000000	1.245375
1667.000000	1.227540
1668.000000	1.218041
1669.000000	1.217798
1670.000000	1.220797
1671.000000	1.222885
1672.000000	1.226548
1673.000000	1.212996
1674.000000	1.197743
1675.000000	1.225829
1676.000000	1.222248
1677.000000	1.205431
1678.000000	1.214140
1679.000000	1.218547
1680.000000	1.229544
1681.000000	1.220515
1682.000000	1.210931
1683.000000	1.211816
1684.000000	1.199980
1685.000000	1.196356
1686.000000	1.195543
1687.000000	1.193931
1688.000000	1.193121
1689.000000	1.206737
1690.000000	1.206576
1691.000000	1.196171
1692.000000	1.199405
1693.000000	1.207676
1694.000000	1.207111
1695.000000	1.195660
1696.000000	1.183441
1697.000000	1.207735
1698.000000	1.215355
1699.000000	1.208701
1700.000000	1.222808
1701.000000	1.221859
1702.000000	1.220047
1703.000000	1.222120
1704.000000	1.220474
1705.000000	1.222074
1706.000000	1.219822
1707.000000	1.229241
1708.000000	1.222574
1709.000000	1.221435
1710.000000	1.211782
1711.000000	1.222895
1712.000000	1.217079
1713.000000	1.227942
1714.000000	1.223994
1715.000000	1.216054
1716.000000	1.206337
1717.000000	1.200236
1718.000000	1.224351
1719.000000	1.199222
1720.000000	1.206637
1721.000000	1.201673
1722.000000	1.201753
1723.000000	1.200374
1724.000000	1.195880
1725.000000	1.203203
1726.000000	1.206457
1727.000000	1.194589
1728.000000	1.199683
1729.000000	1.200407
1730.000000	1.202145
1731.000000	1.199597
1732.000000	1.201749
1733.000000	1.187008
1734.000000	1.192896
1735.000000	1.196734
1736.000000	1.200671
1737.000000	1.193253
1738.000000	1.200964
1739.000000	1.194953
1740.000000	1.201016
1741.000000	1.205879
1742.000000	1.190899
1743.000000	1.198379
1744.000000	1.193416
1745.000000	1.201663
1746.000000	1.205054
1747.000000	1.207227
1748.000000	1.208041
1749.000000	1.213106
1750.000000	1.203234
1751.000000	1.216720
1752.000000	1.204017
1753.000000	1.203670
1754.000000	1.209814
1755.000000	1.202213
1756.000000	1.211828
1757.000000	1.204925
1758.000000	1.225702
1759.000000	1.215357
1760.000000	1.205395
1761.000000	1.210641
1762.000000	1.221763
1763.000000	1.227017
1764.000000	1.224208
1765.000000	1.216093
1766.000000	1.220426
1767.000000	1.211764
1768.000000	1.212105
1769.000000	1.211189
1770.000000	1.204446
1771.000000	1.204400
1772.000000	1.203095
1773.000000	1.197075
1774.000000	1.202540
1775.000000	1.223537
1776.000000	1.217825
1777.000000	1.215209
1778.000000	1.197364
1779.000000	1.200240
1780.000000	1.214497
1781.000000	1.220500
1782.000000	1.211660
1783.000000	1.211397
1784.000000	1.201364
1785.000000	1.206400
1786.000000	1.214536
1787.000000	1.212789
1788.000000	1.223986
1789.000000	1.225105
1790.000000	1.221809
1791.000000	1.214641
1792.000000	1.218228
1793.000000	1.222383
1794.000000	1.216658
1795.000000	1.200841
1796.000000	1.198506
1797.000000	1.205860
1798.000000	1.218441
1799.000000	1.217112
1800.000000	1.207040
1801.000000	1.204943
1802.000000	1.211350
1803.000000	1.226972
1804.000000	1.223729
1805.000000	1.221287
1806.000000	1.223968
1807.000000	1.217709
1808.000000	1.216891
1809.000000	1.224228
1810.000000	1.220968
1811.000000	1.213198
1812.000000	1.207319
1813.000000	1.221331
1814.000000	1.223409
1815.000000	1.220586
1816.000000	1.224143
1817.000000	1.226645
1818.000000	1.229134
1819.000000	1.211865
1820.000000	1.189420
1821.000000	1.187120
1822.000000	1.216295
1823.000000	1.252033
1824.000000	1.243616
1825.000000	1.213141
1826.000000	1.192297
1827.000000	1.194900
1828.000000	1.202084
1829.000000	1.207199
1830.000000	1.202796
1831.000000	1.205368
1832.000000	1.219320
1833.000000	1.227655
1834.000000	1.229077
1835.000000	1.199797
1836.000000	1.190599
1837.000000	1.206982
1838.000000	1.215966
1839.000000	1.214318
1840.000000	1.210364
1841.000000	1.208231
1842.000000	1.222624
1843.000000	1.254667
1844.000000	1.264347
1845.000000	1.236515
1846.000000	1.194817
1847.000000	1.162346
1848.000000	1.171639
1849.000000	1.213066
1850.000000	1.255406
1851.000000	1.250460
1852.000000	1.219277
1853.000000	1.205504
1854.000000	1.200140
1855.000000	1.200975
1856.000000	1.206092
1857.000000	1.223536
1858.000000	1.215115
1859.000000	1.200307
1860.000000	1.206505
1861.000000	1.221177
1862.000000	1.229201
1863.000000	1.232028
1864.000000	1.237240
1865.000000	1.217297
1866.000000	1.200059
1867.000000	1.192479
1868.000000	1.188583
1869.000000	1.176893
1870.000000	1.162949
1871.000000	1.177823
1872.000000	1.198391
1873.000000	1.197226
1874.000000	1.216117
1875.000000	1.218989
1876.000000	1.228689
1877.000000	1.236729
1878.000000	1.223234
1879.000000	1.218641
1880.000000	1.223053
1881.000000	1.222488
1882.000000	1.195793
1883.000000	1.194756
1884.000000	1.211006
1885.000000	1.219775
1886.000000	1.215013
1887.000000	1.219938
1888.000000	1.229050
1889.000000	1.203239
1890.000000	1.177484
1891.000000	1.168238
1892.000000	1.182711
1893.000000	1.200365
1894.000000	1.221410
1895.000000	1.197814
1896.000000	1.179481
1897.000000	1.157939
1898.000000	1.159609
1899.000000	1.148781
1900.000000	1.145462
1901.000000	1.156248
1902.000000	1.152184
1903.000000	1.125841
1904.000000	1.127553
1905.000000	1.102958
1906.000000	1.093863
1907.000000	1.129980
1908.000000	1.123884
1909.000000	1.129494
1910.000000	1.110364
1911.000000	1.094913
1912.000000	1.071857
1913.000000	1.056264
1914.000000	1.056497
1915.000000	1.079787
1916.000000	1.084166
1917.000000	1.070719
1918.000000	1.057574
1919.000000	1.033311
1920.000000	1.022205
1921.000000	1.014242
1922.000000	1.031677
1923.000000	1.028824
1924.000000	1.029869
1925.000000	1.023556
1926.000000	0.990520
1927.000000	0.989204
1928.000000	1.005024
1929.000000	0.990269
1930.000000	1.009128
1931.000000	1.003633
1932.000000	1.005005
1933.000000	0.985679
1934.000000	1.001457
1935.000000	1.003694
1936.000000	0.996597
1937.000000	0.997652
1938.000000	0.981380
1939.000000	0.982476
1940.000000	1.003179
1941.000000	0.992304
1942.000000	0.978086
1943.000000	0.986423
1944.000000	0.988676
1945.000000	0.996372
1946.000000	0.993393
1947.000000	0.982524
1948.000000	0.987695
1949.000000	0.994524
1950.000000	0.977053
1951.000000	0.989087
1952.000000	0.980194
1953.000000	0.986179
1954.000000	0.991313
1955.000000	1.013875
1956.000000	1.005999
1957.000000	1.007620
1958.000000	1.007023
1959.000000	1.002105
1960.000000	1.000553
1961.000000	1.004256
1962.000000	1.006643
1963.000000	1.012270
1964.000000	1.015159
1965.000000	1.015303
1966.000000	1.012128
1967.000000	1.024388
1968.000000	1.014319
1969.000000	1.024839
1970.000000	1.014247
1971.000000	1.015991
1972.000000	1.019707
1973.000000	1.012889
1974.000000	1.016897
1975.000000	1.033677
1976.000000	1.034995
1977.000000	1.026168
1978.000000	1.031288
1979.000000	1.025184
1980.000000	1.023513
1981.000000	1.018806
1982.000000	1.016047
1983.000000	1.027122
1984.000000	1.029795
1985.000000	1.027641
1986.000000	1.033426
1987.000000	1.025495
1988.000000	1.018964
1989.000000	1.037419
1990.000000	1.038366
1991.000000	1.033736
1992.000000	1.029413
1993.000000	1.021501
1994.000000	1.030053
1995.000000	1.038293
1996.000000	1.029534
1997.000000	1.043306
1998.000000	1.036713
1999.000000	1.027867
2000.000000	1.031571
2001.000000	1.035963
2002.000000	1.052025
2003.000000	1.048287
2004.000000	1.042259
2005.000000	1.051700
2006.000000	1.041013
2007.000000	1.036521
2008.000000	1.028712
2009.000000	1.035720
2010.000000	1.029512
2011.000000	1.036347
2012.000000	1.039483
2013.000000	1.046755
2014.000000	1.041547
2015.000000	1.039492
2016.000000	1.041446
2017.000000	1.038784
2018.000000	1.023574
2019.000000	1.025208
2020.000000	1.037240
2021.000000	1.031847
2022.000000	1.037749
2023.000000	1.040780
2024.000000	1.043485
2025.000000	1.034260
2026.000000	1.025970
2027.000000	1.028488
2028.000000	1.023192
2029.000000	1.018619
2030.000000	1.025377
2031.000000	1.033292
2032.000000	1.011554
2033.000000	1.015348
2034.000000	1.008426
2035.000000	1.008659
2036.000000	1.008626
2037.000000	1.006721
2038.000000	1.014784
2039.000000	1.001370
2040.000000	0.998656
2041.000000	1.009909
2042.000000	0.989895
2043.000000	0.990734
2044.000000	0.983932
2045.000000	0.986823
2046.000000	0.974585
2047.000000	0.971126
2048.000000	0.968564
2049.000000	0.966599
2050.000000	0.967882
2051.000000	0.964440
2052.000000	0.956492
2053.000000	0.948181
2054.000000	0.948370
2055.000000	0.955273
2056.000000	0.953845
2057.000000	0.956513
2058.000000	0.962615
2059.000000	0.956842
2060.000000	0.948895
2061.000000	0.958131
2062.000000	0.946908
2063.000000	0.948995
2064.000000	0.954064
2065.000000	0.952238
2066.000000	0.948838
2067.000000	0.960902
2068.000000	0.957661
2069.000000	0.949216
2070.000000	0.951943
2071.000000	0.957951
2072.000000	0.950043
2073.000000	0.956005
2074.000000	0.970660
2075.000000	0.978304
2076.000000	0.972771
2077.000000	0.968057
2078.000000	0.969880
2079.000000	0.981867
2080.000000	0.978709
2081.000000	0.982517
2082.000000	0.991710
2083.000000	0.985536
2084.000000	0.983867
2085.000000	0.980798
2086.000000	0.979849
2087.000000	0.983336
2088.000000	0.989296
2089.000000	0.988848
2090.000000	0.994636
2091.000000	0.992234
2092.000000	0.980044
2093.000000	0.975751
2094.000000	0.978312
2095.000000	0.979382
2096.000000	0.978954
2097.000000	0.976134
2098.000000	0.966418
2099.000000	0.965731
2100.000000	0.973438
2101.000000	0.965936
2102.000000	0.966937
2103.000000	0.981120
2104.000000	0.974169
2105.000000	0.969456
2106.000000	0.967499
2107.000000	0.967680
2108.000000	0.978628
2109.000000	0.966518
2110.000000	0.962747
2111.000000	0.967519
2112.000000	0.974962
2113.000000	0.969889
2114.000000	0.952218
2115.000000	0.947446
2116.000000	0.943715
2117.000000	0.952119
2118.000000	0.965798
2119.000000	0.959097
2120.000000	0.946118
2121.000000	0.940967
2122.000000	0.946281
2123.000000	0.948642
2124.000000	0.944660
2125.000000	0.933733
2126.000000	0.938929
2127.000000	0.939149
2128.000000	0.934084
2129.000000	0.933770
2130.000000	0.931241
2131.000000	0.932836
2132.000000	0.926761
2133.000000	0.931843
2134.000000	0.935174
2135.000000	0.938604
2136.000000	0.929596
2137.000000	0.919671
2138.000000	0.919760
2139.000000	0.916364
2140.000000	0.912412
2141.000000	0.912200
2142.000000	0.914592
2143.000000	0.907379
2144.000000	0.899375
2145.000000	0.911574
2146.000000	0.903348
2147.000000	0.890440
2148.000000	0.897009
2149.000000	0.887922
2150.000000	0.893327
2151.000000	0.881938
2152.000000	0.885335
2153.000000	0.877045
2154.000000	0.879391
2155.000000	0.874188
2156.000000	0.874306
2157.000000	0.877275
2158.000000	0.865120
2159.000000	0.858534
2160.000000	0.852558
2161.000000	0.862255
2162.000000	0.860978
2163.000000	0.848646
2164.000000	0.846207
2165.000000	0.854100
2166.000000	0.852483
2167.000000	0.850628
2168.000000	0.840653
2169.000000	0.845229
2170.000000	0.851631
2171.000000	0.854218
2172.000000	0.839009
2173.000000	0.840733
2174.000000	0.844315
2175.000000	0.827142
2176.000000	0.834241
2177.000000	0.826590
2178.000000	0.831930
2179.000000	0.843622
2180.000000	0.836651
2181.000000	0.847288
2182.000000	0.823178
2183.000000	0.830506
2184.000000	0.818237
2185.000000	0.826564
2186.000000	0.824972
2187.000000	0.821602
2188.000000	0.826777
2189.000000	0.826857
2190.000000	0.815521
2191.000000	0.788980
2192.000000	0.792107
2193.000000	0.784339
2194.000000	0.788428
2195.000000	0.775517
2196.000000	0.764262
2197.000000	0.720708
2198.000000	0.742273
2199.000000	0.724316
2200.000000	0.711816
2201.000000	0.696402
2202.000000	0.692048
2203.000000	0.677286
2204.000000	0.666595
2205.000000	0.651263
2206.000000	0.644973
2207.000000	0.649423
2208.000000	0.641139
2209.000000	0.619386
2210.000000	0.627011
2211.000000	0.614763
2212.000000	0.639389
2213.000000	0.626482
2214.000000	0.634899
2215.000000	0.641098
2216.000000	0.632785
2217.000000	0.629483
2218.000000	0.638559
2219.000000	0.657242
2220.000000	0.649248
2221.000000	0.651429
2222.000000	0.666990
2223.000000	0.670985
2224.000000	0.686183
2225.000000	0.679073
2226.000000	0.685963
2227.000000	0.696698
2228.000000	0.696650
2229.000000	0.681422
2230.000000	0.704566
2231.000000	0.709400
2232.000000	0.706879
2233.000000	0.712194
2234.000000	0.719261
2235.000000	0.712807
2236.000000	0.703071
2237.000000	0.726456
2238.000000	0.717991
2239.000000	0.717492
2240.000000	0.709462
2241.000000	0.737226
2242.000000	0.717738
2243.000000	0.727175
2244.000000	0.726170
2245.000000	0.728832
2246.000000	0.726397
2247.000000	0.728407
2248.000000	0.730891
2249.000000	0.727868
2250.000000	0.741023
2251.000000	0.719372
2252.000000	0.730590
2253.000000	0.719600
2254.000000	0.732522
2255.000000	0.716355
2256.000000	0.718295
2257.000000	0.724034
2258.000000	0.703166
2259.000000	0.718407
2260.000000	0.721201
2261.000000	0.700596
2262.000000	0.701471
2263.000000	0.706534
2264.000000	0.707180
2265.000000	0.691481
2266.000000	0.700262
2267.000000	0.715529
2268.000000	0.716756
2269.000000	0.724785
2270.000000	0.707182
2271.000000	0.713748
2272.000000	0.732344
2273.000000	0.721102
2274.000000	0.721960
2275.000000	0.721562
2276.000000	0.733392
2277.000000	0.730998
2278.000000	0.722406
2279.000000	0.740431
2280.000000	0.724986
2281.000000	0.720501
2282.000000	0.730117
2283.000000	0.722525
2284.000000	0.733582
2285.000000	0.736427
2286.000000	0.729372
2287.000000	0.738156
2288.000000	0.747468
2289.000000	0.746049
2290.000000	0.744234
2291.000000	0.740392
2292.000000	0.736507
2293.000000	0.735174
2294.000000	0.745976
2295.000000	0.752311
2296.000000	0.750974
2297.000000	0.740225
2298.000000	0.741286
2299.000000	0.748092
2300.000000	0.750873
2301.000000	0.762719
2302.000000	0.764036
2303.000000	0.765554
2304.000000	0.761389
2305.000000	0.766083
2306.000000	0.767515
2307.000000	0.767900
2308.000000	0.765280
2309.000000	0.774511
2310.000000	0.770732
2311.000000	0.769450
2312.000000	0.765328
2313.000000	0.776831
2314.000000	0.783626
2315.000000	0.772845
2316.000000	0.765597
2317.000000	0.762422
2318.000000	0.763823
2319.000000	0.769344
2320.000000	0.777499
2321.000000	0.780731
2322.000000	0.773368
2323.000000	0.779140
2324.000000	0.772925
2325.000000	0.775930
2326.000000	0.770978
2327.000000	0.772509
2328.000000	0.759389
2329.000000	0.761659
2330.000000	0.772468
2331.000000	0.757380
2332.000000	0.760209
2333.000000	0.773140
2334.000000	0.764049
2335.000000	0.763000
2336.000000	0.757162
2337.000000	0.758299
2338.000000	0.762518
2339.000000	0.756579
2340.000000	0.762808
2341.000000	0.770722
2342.000000	0.770016
2343.000000	0.771171
2344.000000	0.762144
2345.000000	0.760711
2346.000000	0.759518
2347.000000	0.765381
2348.000000	0.776049
2349.000000	0.764450
2350.000000	0.753867
2351.000000	0.751597
2352.000000	0.755495
2353.000000	0.760949
2354.000000	0.758280
2355.000000	0.762006
2356.000000	0.764793
2357.000000	0.759354
2358.000000	0.741824
2359.000000	0.747340
2360.000000	0.765052
2361.000000	0.761547
2362.000000	0.750171
2363.000000	0.745640
2364.000000	0.743067
2365.000000	0.740477
2366.000000	0.746502
2367.000000	0.752679
2368.000000	0.755334
2369.000000	0.750073
2370.000000	0.742754
2371.000000	0.745741
2372.000000	0.752761
2373.000000	0.751688
2374.000000	0.747988
2375.000000	0.743248
2376.000000	0.752590
2377.000000	0.751236
2378.000000	0.736876
2379.000000	0.740202
2380.000000	0.748399
2381.000000	0.748065
2382.000000	0.742757
2383.000000	0.744733
2384.000000	0.735880
2385.000000	0.730569
2386.000000	0.738016
2387.000000	0.743588
2388.000000	0.733208
2389.000000	0.736771
2390.000000	0.743484
2391.000000	0.735867
2392.000000	0.734368
2393.000000	0.735272
2394.000000	0.731262
2395.000000	0.728971
2396.000000	0.739975
2397.000000	0.732010
2398.000000	0.731032
2399.000000	0.732675
2400.000000	0.722388
2401.000000	0.723299
2402.000000	0.720937
2403.000000	0.707221
2404.000000	0.707648
2405.000000	0.720376
2406.000000	0.718443
2407.000000	0.709188
2408.000000	0.701257
2409.000000	0.703003
2410.000000	0.702365
2411.000000	0.704143
2412.000000	0.698232
2413.000000	0.682959
2414.000000	0.687692
2415.000000	0.678978
2416.000000	0.690889
2417.000000	0.688723
2418.000000	0.685724
2419.000000	0.686108
2420.000000	0.688053
2421.000000	0.690038
2422.000000	0.688812
2423.000000	0.671638
2424.000000	0.645809
2425.000000	0.633131
2426.000000	0.617052
2427.000000	0.608451
2428.000000	0.601332
2429.000000	0.609919
2430.000000	0.603610
2431.000000	0.595199
2432.000000	0.594726
2433.000000	0.591721
2434.000000	0.583476
2435.000000	0.590905
2436.000000	0.591518
2437.000000	0.583505
2438.000000	0.577145
2439.000000	0.575167
2440.000000	0.570845
2441.000000	0.568736
2442.000000	0.569902
2443.000000	0.569664
2444.000000	0.557987
2445.000000	0.556590
2446.000000	0.567011
2447.000000	0.543485
2448.000000	0.559002
2449.000000	0.536158
2450.000000	0.526409
2451.000000	0.525101
2452.000000	0.533356
2453.000000	0.520107
2454.000000	0.511087
2455.000000	0.535395
2456.000000	0.525765
2457.000000	0.517764
2458.000000	0.517607
2459.000000	0.508625
2460.000000	0.499635
2461.000000	0.516306
2462.000000	0.498624
2463.000000	0.489792
2464.000000	0.491254
2465.000000	0.493877
2466.000000	0.489390
2467.000000	0.479033
2468.000000	0.487011
2469.000000	0.497005
2470.000000	0.481783
2471.000000	0.493098
2472.000000	0.479597
2473.000000	0.480916
2474.000000	0.459374
2475.000000	0.473112
2476.000000	0.428935
2477.000000	0.465982
2478.000000	0.503890
2479.000000	0.421023
2480.000000	0.458302
2481.000000	0.493651
2482.000000	0.461473
2483.000000	0.471476
2484.000000	0.437975
2485.000000	0.456314
2486.000000	0.472415
2487.000000	0.424966
2488.000000	0.461039
2489.000000	0.482918
2490.000000	0.465252
2491.000000	0.516768
2492.000000	0.413988
2493.000000	0.426175
2494.000000	0.476385
2495.000000	0.468359
2496.000000	0.400278
2497.000000	0.363888
2498.000000	0.422753
2499.000000	0.404216
2500.000000	0.415076
