PE UV       SUBTECH     SPECTRUM    ASCII       PEDS        4.00        
   -1
CICIMAUCR0176-3.ASC
24/03/01
13:01:25.00
24/03/01
13:01:25.00
Vinicio Soto Monge
C.aurora. USA: AZ: Cochise Co, Chiricahua Mtns., Pine Canyon, 31°56.895'N 10920.495'W, 1798 m, 22.VII.2009 MV light, N.P. Lord, colr.
250,000000
1
Lambda 1050
1050L1511233
PerkinElmer UV WinLab 6.3.2.0749 / 2.02.05 Lambda 900 UV/VIS/NIR, Aug  7 2015 09:38:08

0
0
3350/servo 860,8/2
0
0
UV/VIS
1
1
1
DoubleDePol,CommonBeamDepol,RBeamAtt,SBeamAtt,60mm sphere, WB InGaAs Detector
0
0
0
0
Program
Program
3350/servo 860,8/2
3350/0,2 860,8/0,2
3350/0,2 860,8/0,2
0
15.00
 
 
 
0
 
860,8
319,2
860,8
Front
100
on
S:100 R:100
0
0
0
0
 
0
 
 
 
0
 
 
0
0
0
0
0
 
 
 
 
0
0


0
0
#HDR
-1
-1
#GR
nm
%R
1.0
0.0
2500,000000
-1,000000
2251
8
21,706100
1,596200
#DATA
250.000000	0.059600
251.000000	0.070120
252.000000	0.060124
253.000000	0.059565
254.000000	0.054622
255.000000	0.062143
256.000000	0.060657
257.000000	0.054983
258.000000	0.038239
259.000000	0.052757
260.000000	0.068734
261.000000	0.065084
262.000000	0.064190
263.000000	0.045450
264.000000	0.049100
265.000000	0.063644
266.000000	0.057266
267.000000	0.046355
268.000000	0.016841
269.000000	0.043121
270.000000	0.026877
271.000000	0.041022
272.000000	0.037181
273.000000	0.027185
274.000000	0.042966
275.000000	0.065096
276.000000	0.067898
277.000000	0.056943
278.000000	0.049883
279.000000	0.083626
280.000000	0.044371
281.000000	0.041672
282.000000	0.052234
283.000000	0.039804
284.000000	0.030376
285.000000	0.036759
286.000000	0.069999
287.000000	0.048753
288.000000	0.048340
289.000000	0.067023
290.000000	0.045076
291.000000	0.069636
292.000000	0.059482
293.000000	0.084086
294.000000	0.082964
295.000000	0.086509
296.000000	0.099724
297.000000	0.064849
298.000000	0.090292
299.000000	0.081566
300.000000	0.115807
301.000000	0.118973
302.000000	0.115883
303.000000	0.142968
304.000000	0.115949
305.000000	0.135858
306.000000	0.133442
307.000000	0.149927
308.000000	0.159991
309.000000	0.133699
310.000000	0.164833
311.000000	0.166152
312.000000	0.164275
313.000000	0.169800
314.000000	0.149589
315.000000	0.185302
316.000000	0.188615
317.000000	0.243849
318.000000	0.324814
319.000000	0.228788
320.000000	0.296233
321.000000	0.181363
322.000000	0.272869
323.000000	0.228830
324.000000	0.223564
325.000000	0.259293
326.000000	0.197655
327.000000	0.228848
328.000000	0.337413
329.000000	0.238930
330.000000	0.214307
331.000000	0.242708
332.000000	0.268033
333.000000	0.257503
334.000000	0.170242
335.000000	0.177958
336.000000	0.209110
337.000000	0.196193
338.000000	0.238029
339.000000	0.176947
340.000000	0.202969
341.000000	0.284615
342.000000	0.239915
343.000000	0.219325
344.000000	0.228893
345.000000	0.204246
346.000000	0.193435
347.000000	0.158922
348.000000	0.182025
349.000000	0.182168
350.000000	0.183455
351.000000	0.220395
352.000000	0.226785
353.000000	0.231661
354.000000	0.224235
355.000000	0.199284
356.000000	0.240933
357.000000	0.284425
358.000000	0.258365
359.000000	0.281562
360.000000	0.290529
361.000000	0.255402
362.000000	0.265779
363.000000	0.286702
364.000000	0.295774
365.000000	0.319619
366.000000	0.332939
367.000000	0.319040
368.000000	0.324056
369.000000	0.345340
370.000000	0.388062
371.000000	0.452965
372.000000	0.425272
373.000000	0.437430
374.000000	0.507209
375.000000	0.475488
376.000000	0.423782
377.000000	0.400517
378.000000	0.418282
379.000000	0.433898
380.000000	0.454022
381.000000	0.468383
382.000000	0.468871
383.000000	0.483825
384.000000	0.506032
385.000000	0.522188
386.000000	0.536454
387.000000	0.546090
388.000000	0.553575
389.000000	0.561602
390.000000	0.574444
391.000000	0.587158
392.000000	0.600120
393.000000	0.615312
394.000000	0.621908
395.000000	0.627263
396.000000	0.631508
397.000000	0.636011
398.000000	0.641770
399.000000	0.644845
400.000000	0.657050
401.000000	0.668743
402.000000	0.662603
403.000000	0.667216
404.000000	0.674081
405.000000	0.674661
406.000000	0.675709
407.000000	0.674868
408.000000	0.671127
409.000000	0.667369
410.000000	0.664156
411.000000	0.661655
412.000000	0.660793
413.000000	0.659127
414.000000	0.659383
415.000000	0.649114
416.000000	0.640688
417.000000	0.646719
418.000000	0.646367
419.000000	0.646012
420.000000	0.641429
421.000000	0.633676
422.000000	0.630881
423.000000	0.628020
424.000000	0.624848
425.000000	0.620299
426.000000	0.621780
427.000000	0.621190
428.000000	0.619439
429.000000	0.612539
430.000000	0.612003
431.000000	0.615993
432.000000	0.619506
433.000000	0.615593
434.000000	0.611769
435.000000	0.615172
436.000000	0.611134
437.000000	0.611402
438.000000	0.616058
439.000000	0.621019
440.000000	0.626218
441.000000	0.624593
442.000000	0.620676
443.000000	0.625724
444.000000	0.628667
445.000000	0.629525
446.000000	0.636450
447.000000	0.644692
448.000000	0.650863
449.000000	0.650569
450.000000	0.648250
451.000000	0.652125
452.000000	0.655551
453.000000	0.662246
454.000000	0.664005
455.000000	0.661270
456.000000	0.661481
457.000000	0.665765
458.000000	0.669025
459.000000	0.667032
460.000000	0.666440
461.000000	0.670184
462.000000	0.673059
463.000000	0.673167
464.000000	0.674851
465.000000	0.676495
466.000000	0.678261
467.000000	0.681583
468.000000	0.683218
469.000000	0.687320
470.000000	0.689084
471.000000	0.687025
472.000000	0.684915
473.000000	0.687897
474.000000	0.689436
475.000000	0.691575
476.000000	0.691659
477.000000	0.689571
478.000000	0.691947
479.000000	0.690177
480.000000	0.679427
481.000000	0.664798
482.000000	0.659611
483.000000	0.657399
484.000000	0.652848
485.000000	0.651917
486.000000	0.646469
487.000000	0.646704
488.000000	0.646007
489.000000	0.641375
490.000000	0.643256
491.000000	0.652596
492.000000	0.650869
493.000000	0.656806
494.000000	0.659015
495.000000	0.657599
496.000000	0.662905
497.000000	0.667572
498.000000	0.674463
499.000000	0.673545
500.000000	0.675245
501.000000	0.673357
502.000000	0.673234
503.000000	0.676320
504.000000	0.677028
505.000000	0.677066
506.000000	0.673324
507.000000	0.672138
508.000000	0.669584
509.000000	0.666122
510.000000	0.668395
511.000000	0.673568
512.000000	0.675736
513.000000	0.677124
514.000000	0.682217
515.000000	0.686304
516.000000	0.690559
517.000000	0.695089
518.000000	0.700019
519.000000	0.704635
520.000000	0.712065
521.000000	0.727983
522.000000	0.734489
523.000000	0.733757
524.000000	0.745361
525.000000	0.749300
526.000000	0.750712
527.000000	0.761021
528.000000	0.769854
529.000000	0.769671
530.000000	0.765733
531.000000	0.760154
532.000000	0.755559
533.000000	0.750731
534.000000	0.746189
535.000000	0.741654
536.000000	0.739829
537.000000	0.735052
538.000000	0.734340
539.000000	0.733921
540.000000	0.723432
541.000000	0.718836
542.000000	0.717315
543.000000	0.717238
544.000000	0.712639
545.000000	0.716858
546.000000	0.709490
547.000000	0.702939
548.000000	0.699346
549.000000	0.689632
550.000000	0.682203
551.000000	0.674815
552.000000	0.671347
553.000000	0.647176
554.000000	0.642639
555.000000	0.633993
556.000000	0.622994
557.000000	0.600892
558.000000	0.584131
559.000000	0.566677
560.000000	0.583452
561.000000	0.578208
562.000000	0.560807
563.000000	0.561359
564.000000	0.562131
565.000000	0.551164
566.000000	0.546126
567.000000	0.548590
568.000000	0.549597
569.000000	0.560833
570.000000	0.561158
571.000000	0.573848
572.000000	0.581056
573.000000	0.583702
574.000000	0.593379
575.000000	0.601156
576.000000	0.620417
577.000000	0.631128
578.000000	0.638842
579.000000	0.658746
580.000000	0.669505
581.000000	0.683606
582.000000	0.698638
583.000000	0.715822
584.000000	0.729817
585.000000	0.740000
586.000000	0.760272
587.000000	0.780000
588.000000	0.786412
589.000000	0.802090
590.000000	0.815770
591.000000	0.838159
592.000000	0.854526
593.000000	0.868924
594.000000	0.880972
595.000000	0.900558
596.000000	0.911649
597.000000	0.926255
598.000000	0.942456
599.000000	0.951174
600.000000	0.960050
601.000000	0.974268
602.000000	0.990678
603.000000	0.994951
604.000000	1.003355
605.000000	1.006620
606.000000	1.008586
607.000000	1.016190
608.000000	1.019735
609.000000	1.021042
610.000000	1.019184
611.000000	1.025345
612.000000	1.027418
613.000000	1.027454
614.000000	1.022487
615.000000	1.029189
616.000000	1.027755
617.000000	1.026217
618.000000	1.026930
619.000000	1.028562
620.000000	1.020988
621.000000	1.028439
622.000000	1.020757
623.000000	1.037353
624.000000	1.039426
625.000000	1.034988
626.000000	1.033887
627.000000	1.039153
628.000000	1.041634
629.000000	1.047664
630.000000	1.055140
631.000000	1.046877
632.000000	1.050047
633.000000	1.052021
634.000000	1.060516
635.000000	1.053444
636.000000	1.073658
637.000000	1.079343
638.000000	1.091449
639.000000	1.086308
640.000000	1.095181
641.000000	1.097167
642.000000	1.106963
643.000000	1.109749
644.000000	1.110348
645.000000	1.120478
646.000000	1.114356
647.000000	1.109322
648.000000	1.102783
649.000000	1.112682
650.000000	1.111635
651.000000	1.101357
652.000000	1.102742
653.000000	1.098040
654.000000	1.102491
655.000000	1.108946
656.000000	1.110834
657.000000	1.119744
658.000000	1.122702
659.000000	1.131655
660.000000	1.129426
661.000000	1.144054
662.000000	1.160945
663.000000	1.166565
664.000000	1.175373
665.000000	1.184976
666.000000	1.181855
667.000000	1.195052
668.000000	1.211200
669.000000	1.210533
670.000000	1.219356
671.000000	1.224824
672.000000	1.237510
673.000000	1.227974
674.000000	1.226380
675.000000	1.242888
676.000000	1.242661
677.000000	1.249165
678.000000	1.246805
679.000000	1.257846
680.000000	1.246619
681.000000	1.252919
682.000000	1.255656
683.000000	1.250643
684.000000	1.248991
685.000000	1.260116
686.000000	1.255969
687.000000	1.252021
688.000000	1.248206
689.000000	1.243615
690.000000	1.241575
691.000000	1.226563
692.000000	1.223961
693.000000	1.214702
694.000000	1.200390
695.000000	1.205658
696.000000	1.199185
697.000000	1.190367
698.000000	1.186868
699.000000	1.182416
700.000000	1.168584
701.000000	1.154504
702.000000	1.150567
703.000000	1.141799
704.000000	1.135767
705.000000	1.132007
706.000000	1.127781
707.000000	1.112704
708.000000	1.102382
709.000000	1.082932
710.000000	1.067246
711.000000	1.074069
712.000000	1.071799
713.000000	1.059201
714.000000	1.043587
715.000000	1.036843
716.000000	1.033363
717.000000	1.017867
718.000000	1.012544
719.000000	1.006575
720.000000	1.002723
721.000000	1.001394
722.000000	0.973650
723.000000	0.960436
724.000000	0.961311
725.000000	0.956822
726.000000	0.945171
727.000000	0.932759
728.000000	0.917872
729.000000	0.901027
730.000000	0.885547
731.000000	0.872740
732.000000	0.875116
733.000000	0.871883
734.000000	0.866884
735.000000	0.851950
736.000000	0.844132
737.000000	0.842356
738.000000	0.843262
739.000000	0.847768
740.000000	0.846478
741.000000	0.845633
742.000000	0.822033
743.000000	0.804405
744.000000	0.808245
745.000000	0.795148
746.000000	0.801692
747.000000	0.819414
748.000000	0.820830
749.000000	0.822037
750.000000	0.820633
751.000000	0.823289
752.000000	0.826224
753.000000	0.814969
754.000000	0.804786
755.000000	0.816019
756.000000	0.814979
757.000000	0.814774
758.000000	0.815557
759.000000	0.823676
760.000000	0.823953
761.000000	0.820804
762.000000	0.835778
763.000000	0.842367
764.000000	0.842749
765.000000	0.853162
766.000000	0.852161
767.000000	0.839608
768.000000	0.835627
769.000000	0.847083
770.000000	0.848930
771.000000	0.853577
772.000000	0.860433
773.000000	0.853328
774.000000	0.858255
775.000000	0.850158
776.000000	0.841279
777.000000	0.825816
778.000000	0.808871
779.000000	0.795585
780.000000	0.780503
781.000000	0.774381
782.000000	0.767964
783.000000	0.756841
784.000000	0.737780
785.000000	0.735126
786.000000	0.744161
787.000000	0.740141
788.000000	0.714297
789.000000	0.708901
790.000000	0.687421
791.000000	0.700242
792.000000	0.680904
793.000000	0.664861
794.000000	0.646124
795.000000	0.641333
796.000000	0.626193
797.000000	0.600065
798.000000	0.595164
799.000000	0.616578
800.000000	0.577107
801.000000	0.565367
802.000000	0.567781
803.000000	0.545519
804.000000	0.527930
805.000000	0.516960
806.000000	0.495146
807.000000	0.488068
808.000000	0.495735
809.000000	0.501947
810.000000	0.495170
811.000000	0.463641
812.000000	0.418552
813.000000	0.452843
814.000000	0.456806
815.000000	0.411732
816.000000	0.414198
817.000000	0.411091
818.000000	0.381167
819.000000	0.375881
820.000000	0.397791
821.000000	0.364853
822.000000	0.359604
823.000000	0.378914
824.000000	0.352314
825.000000	0.321417
826.000000	0.351572
827.000000	0.358973
828.000000	0.359689
829.000000	0.385139
830.000000	0.351438
831.000000	0.295930
832.000000	0.330565
833.000000	0.311591
834.000000	0.331810
835.000000	0.345172
836.000000	0.284918
837.000000	0.301365
838.000000	0.308128
839.000000	0.287859
840.000000	0.300269
841.000000	0.297902
842.000000	0.293691
843.000000	0.283204
844.000000	0.344557
845.000000	0.255495
846.000000	0.290458
847.000000	0.250910
848.000000	0.276999
849.000000	0.306986
850.000000	0.247514
851.000000	0.255344
852.000000	0.257060
853.000000	0.163272
854.000000	0.267918
855.000000	0.203494
856.000000	0.293104
857.000000	0.341894
858.000000	0.247943
859.000000	0.340069
860.000000	0.353632
861.000000	0.362474
862.000000	0.354756
863.000000	0.374284
864.000000	0.378571
865.000000	0.391961
866.000000	0.392838
867.000000	0.410794
868.000000	0.412597
869.000000	0.426520
870.000000	0.424841
871.000000	0.446354
872.000000	0.455592
873.000000	0.464875
874.000000	0.483525
875.000000	0.480348
876.000000	0.494154
877.000000	0.499667
878.000000	0.515509
879.000000	0.531006
880.000000	0.537728
881.000000	0.552414
882.000000	0.578023
883.000000	0.580280
884.000000	0.565412
885.000000	0.586917
886.000000	0.607010
887.000000	0.594493
888.000000	0.616588
889.000000	0.629227
890.000000	0.651106
891.000000	0.650489
892.000000	0.648351
893.000000	0.668614
894.000000	0.672437
895.000000	0.684551
896.000000	0.683323
897.000000	0.696983
898.000000	0.723183
899.000000	0.733186
900.000000	0.746881
901.000000	0.770174
902.000000	0.754128
903.000000	0.744938
904.000000	0.775628
905.000000	0.786710
906.000000	0.810626
907.000000	0.807207
908.000000	0.812469
909.000000	0.829138
910.000000	0.852845
911.000000	0.855904
912.000000	0.873471
913.000000	0.871922
914.000000	0.880491
915.000000	0.884199
916.000000	0.896689
917.000000	0.911439
918.000000	0.922349
919.000000	0.924643
920.000000	0.937082
921.000000	0.959301
922.000000	0.969719
923.000000	0.977619
924.000000	0.968385
925.000000	0.987758
926.000000	1.000899
927.000000	0.999182
928.000000	1.018998
929.000000	1.011994
930.000000	1.029857
931.000000	1.055181
932.000000	1.052279
933.000000	1.061913
934.000000	1.084109
935.000000	1.099003
936.000000	1.097131
937.000000	1.130005
938.000000	1.138415
939.000000	1.143490
940.000000	1.150037
941.000000	1.141675
942.000000	1.151001
943.000000	1.153305
944.000000	1.152481
945.000000	1.179086
946.000000	1.195360
947.000000	1.198069
948.000000	1.214049
949.000000	1.236538
950.000000	1.208455
951.000000	1.222477
952.000000	1.247602
953.000000	1.241529
954.000000	1.248055
955.000000	1.277597
956.000000	1.296065
957.000000	1.297251
958.000000	1.298046
959.000000	1.299835
960.000000	1.300100
961.000000	1.307213
962.000000	1.325604
963.000000	1.337689
964.000000	1.352046
965.000000	1.350681
966.000000	1.354522
967.000000	1.376597
968.000000	1.395399
969.000000	1.384746
970.000000	1.402289
971.000000	1.405846
972.000000	1.400316
973.000000	1.417237
974.000000	1.421115
975.000000	1.430972
976.000000	1.441942
977.000000	1.439768
978.000000	1.447535
979.000000	1.456821
980.000000	1.459685
981.000000	1.454159
982.000000	1.458504
983.000000	1.467578
984.000000	1.490968
985.000000	1.497673
986.000000	1.509101
987.000000	1.512934
988.000000	1.512492
989.000000	1.523497
990.000000	1.534986
991.000000	1.537584
992.000000	1.541994
993.000000	1.540888
994.000000	1.549533
995.000000	1.566728
996.000000	1.575388
997.000000	1.582801
998.000000	1.595871
999.000000	1.615385
1000.000000	1.618957
1001.000000	1.608274
1002.000000	1.603588
1003.000000	1.617911
1004.000000	1.631502
1005.000000	1.641097
1006.000000	1.640696
1007.000000	1.633350
1008.000000	1.651641
1009.000000	1.669368
1010.000000	1.654124
1011.000000	1.648827
1012.000000	1.651125
1013.000000	1.660744
1014.000000	1.684764
1015.000000	1.684392
1016.000000	1.686831
1017.000000	1.689132
1018.000000	1.694905
1019.000000	1.712121
1020.000000	1.720072
1021.000000	1.719639
1022.000000	1.725216
1023.000000	1.738472
1024.000000	1.742536
1025.000000	1.745894
1026.000000	1.750548
1027.000000	1.765150
1028.000000	1.773042
1029.000000	1.771586
1030.000000	1.778773
1031.000000	1.784684
1032.000000	1.782315
1033.000000	1.791362
1034.000000	1.805031
1035.000000	1.811734
1036.000000	1.816106
1037.000000	1.833192
1038.000000	1.839049
1039.000000	1.837995
1040.000000	1.846273
1041.000000	1.863011
1042.000000	1.874315
1043.000000	1.871775
1044.000000	1.863704
1045.000000	1.872267
1046.000000	1.887052
1047.000000	1.882504
1048.000000	1.884895
1049.000000	1.889569
1050.000000	1.890916
1051.000000	1.898324
1052.000000	1.910383
1053.000000	1.926108
1054.000000	1.938731
1055.000000	1.938539
1056.000000	1.945980
1057.000000	1.957625
1058.000000	1.961793
1059.000000	1.975095
1060.000000	1.982608
1061.000000	1.979018
1062.000000	1.980874
1063.000000	1.978218
1064.000000	1.999264
1065.000000	2.016794
1066.000000	2.008700
1067.000000	2.009121
1068.000000	2.019643
1069.000000	2.029717
1070.000000	2.030821
1071.000000	2.033388
1072.000000	2.051041
1073.000000	2.057912
1074.000000	2.056589
1075.000000	2.072231
1076.000000	2.069983
1077.000000	2.065350
1078.000000	2.056927
1079.000000	2.053248
1080.000000	2.077649
1081.000000	2.103863
1082.000000	2.109796
1083.000000	2.113838
1084.000000	2.125429
1085.000000	2.118043
1086.000000	2.119365
1087.000000	2.111744
1088.000000	2.118176
1089.000000	2.131733
1090.000000	2.137698
1091.000000	2.147427
1092.000000	2.149429
1093.000000	2.149432
1094.000000	2.158937
1095.000000	2.148454
1096.000000	2.161175
1097.000000	2.173195
1098.000000	2.177176
1099.000000	2.177574
1100.000000	2.195933
1101.000000	2.189990
1102.000000	2.189380
1103.000000	2.202440
1104.000000	2.207387
1105.000000	2.212156
1106.000000	2.212657
1107.000000	2.206516
1108.000000	2.197426
1109.000000	2.216557
1110.000000	2.229869
1111.000000	2.235774
1112.000000	2.218517
1113.000000	2.214803
1114.000000	2.215877
1115.000000	2.223233
1116.000000	2.222693
1117.000000	2.228858
1118.000000	2.232307
1119.000000	2.225949
1120.000000	2.229749
1121.000000	2.230506
1122.000000	2.239308
1123.000000	2.233677
1124.000000	2.227840
1125.000000	2.230104
1126.000000	2.217180
1127.000000	2.234388
1128.000000	2.216513
1129.000000	2.232861
1130.000000	2.209715
1131.000000	2.189482
1132.000000	2.170009
1133.000000	2.166332
1134.000000	2.175875
1135.000000	2.161208
1136.000000	2.156144
1137.000000	2.141936
1138.000000	2.129146
1139.000000	2.105326
1140.000000	2.103298
1141.000000	2.097632
1142.000000	2.100247
1143.000000	2.095301
1144.000000	2.082295
1145.000000	2.076893
1146.000000	2.063388
1147.000000	2.066757
1148.000000	2.049499
1149.000000	2.053063
1150.000000	2.052287
1151.000000	2.036777
1152.000000	2.043270
1153.000000	2.032574
1154.000000	2.029804
1155.000000	2.019895
1156.000000	1.999394
1157.000000	1.993769
1158.000000	1.986187
1159.000000	1.963951
1160.000000	1.969631
1161.000000	1.931287
1162.000000	1.932970
1163.000000	1.919495
1164.000000	1.905457
1165.000000	1.879595
1166.000000	1.875907
1167.000000	1.859824
1168.000000	1.881796
1169.000000	1.859264
1170.000000	1.842046
1171.000000	1.831954
1172.000000	1.818811
1173.000000	1.834437
1174.000000	1.810736
1175.000000	1.801790
1176.000000	1.798847
1177.000000	1.793879
1178.000000	1.785582
1179.000000	1.776527
1180.000000	1.778365
1181.000000	1.764916
1182.000000	1.755006
1183.000000	1.748312
1184.000000	1.751460
1185.000000	1.742228
1186.000000	1.745934
1187.000000	1.739981
1188.000000	1.731941
1189.000000	1.735777
1190.000000	1.752411
1191.000000	1.761804
1192.000000	1.755499
1193.000000	1.754202
1194.000000	1.760337
1195.000000	1.757625
1196.000000	1.769043
1197.000000	1.782754
1198.000000	1.791101
1199.000000	1.802313
1200.000000	1.807880
1201.000000	1.803101
1202.000000	1.799116
1203.000000	1.814395
1204.000000	1.836536
1205.000000	1.840751
1206.000000	1.846579
1207.000000	1.854535
1208.000000	1.859526
1209.000000	1.863784
1210.000000	1.872136
1211.000000	1.870689
1212.000000	1.876395
1213.000000	1.883954
1214.000000	1.900314
1215.000000	1.919530
1216.000000	1.912755
1217.000000	1.907855
1218.000000	1.916291
1219.000000	1.937406
1220.000000	1.944993
1221.000000	1.954447
1222.000000	1.958309
1223.000000	1.964296
1224.000000	1.979306
1225.000000	1.983847
1226.000000	1.993892
1227.000000	1.990611
1228.000000	2.005526
1229.000000	2.029217
1230.000000	2.020167
1231.000000	2.015911
1232.000000	2.022977
1233.000000	2.029733
1234.000000	2.032632
1235.000000	2.043572
1236.000000	2.044891
1237.000000	2.044998
1238.000000	2.048365
1239.000000	2.051342
1240.000000	2.052236
1241.000000	2.054075
1242.000000	2.061940
1243.000000	2.077238
1244.000000	2.075770
1245.000000	2.080078
1246.000000	2.078975
1247.000000	2.093832
1248.000000	2.100109
1249.000000	2.100762
1250.000000	2.124552
1251.000000	2.141798
1252.000000	2.156929
1253.000000	2.151280
1254.000000	2.152965
1255.000000	2.168889
1256.000000	2.157731
1257.000000	2.163433
1258.000000	2.165901
1259.000000	2.159931
1260.000000	2.163386
1261.000000	2.145124
1262.000000	2.147084
1263.000000	2.149731
1264.000000	2.151898
1265.000000	2.157542
1266.000000	2.152924
1267.000000	2.149071
1268.000000	2.151480
1269.000000	2.151467
1270.000000	2.147059
1271.000000	2.145085
1272.000000	2.145332
1273.000000	2.147281
1274.000000	2.152378
1275.000000	2.161829
1276.000000	2.172806
1277.000000	2.156710
1278.000000	2.153704
1279.000000	2.169187
1280.000000	2.169490
1281.000000	2.171548
1282.000000	2.175400
1283.000000	2.167439
1284.000000	2.172740
1285.000000	2.182133
1286.000000	2.175411
1287.000000	2.172694
1288.000000	2.174535
1289.000000	2.179306
1290.000000	2.178761
1291.000000	2.184649
1292.000000	2.196510
1293.000000	2.201184
1294.000000	2.201238
1295.000000	2.199197
1296.000000	2.202307
1297.000000	2.204362
1298.000000	2.199740
1299.000000	2.202288
1300.000000	2.201571
1301.000000	2.199429
1302.000000	2.196322
1303.000000	2.185249
1304.000000	2.188783
1305.000000	2.198774
1306.000000	2.197009
1307.000000	2.195682
1308.000000	2.207478
1309.000000	2.210813
1310.000000	2.212151
1311.000000	2.202443
1312.000000	2.179426
1313.000000	2.170088
1314.000000	2.171929
1315.000000	2.175129
1316.000000	2.173018
1317.000000	2.174235
1318.000000	2.172176
1319.000000	2.175385
1320.000000	2.169992
1321.000000	2.155650
1322.000000	2.152552
1323.000000	2.155869
1324.000000	2.142129
1325.000000	2.129249
1326.000000	2.129502
1327.000000	2.121175
1328.000000	2.127763
1329.000000	2.118471
1330.000000	2.106595
1331.000000	2.102422
1332.000000	2.090061
1333.000000	2.088405
1334.000000	2.069550
1335.000000	2.068386
1336.000000	2.064275
1337.000000	2.047681
1338.000000	2.030791
1339.000000	2.020551
1340.000000	2.002569
1341.000000	1.999529
1342.000000	1.981233
1343.000000	1.963399
1344.000000	1.967426
1345.000000	1.962943
1346.000000	1.935580
1347.000000	1.920850
1348.000000	1.909323
1349.000000	1.879956
1350.000000	1.856697
1351.000000	1.850927
1352.000000	1.829887
1353.000000	1.819639
1354.000000	1.802357
1355.000000	1.806955
1356.000000	1.784178
1357.000000	1.760097
1358.000000	1.754351
1359.000000	1.748902
1360.000000	1.753016
1361.000000	1.779246
1362.000000	1.760278
1363.000000	1.723429
1364.000000	1.718038
1365.000000	1.708482
1366.000000	1.672822
1367.000000	1.677316
1368.000000	1.687748
1369.000000	1.646146
1370.000000	1.627188
1371.000000	1.622190
1372.000000	1.590847
1373.000000	1.564041
1374.000000	1.540786
1375.000000	1.512770
1376.000000	1.501610
1377.000000	1.456649
1378.000000	1.427030
1379.000000	1.399078
1380.000000	1.380578
1381.000000	1.381673
1382.000000	1.402268
1383.000000	1.385070
1384.000000	1.346683
1385.000000	1.335189
1386.000000	1.319134
1387.000000	1.315659
1388.000000	1.316056
1389.000000	1.292222
1390.000000	1.244652
1391.000000	1.252571
1392.000000	1.246870
1393.000000	1.229133
1394.000000	1.217095
1395.000000	1.247977
1396.000000	1.234650
1397.000000	1.177622
1398.000000	1.155438
1399.000000	1.154225
1400.000000	1.157457
1401.000000	1.157700
1402.000000	1.110554
1403.000000	1.094450
1404.000000	1.083775
1405.000000	1.070719
1406.000000	1.035394
1407.000000	1.000933
1408.000000	1.009762
1409.000000	0.993172
1410.000000	0.964412
1411.000000	0.950756
1412.000000	0.924655
1413.000000	0.901863
1414.000000	0.907838
1415.000000	0.883544
1416.000000	0.869363
1417.000000	0.860589
1418.000000	0.850768
1419.000000	0.853593
1420.000000	0.823313
1421.000000	0.813215
1422.000000	0.806925
1423.000000	0.808675
1424.000000	0.801933
1425.000000	0.780083
1426.000000	0.785622
1427.000000	0.772798
1428.000000	0.772137
1429.000000	0.764738
1430.000000	0.754974
1431.000000	0.747572
1432.000000	0.741435
1433.000000	0.747802
1434.000000	0.746565
1435.000000	0.757540
1436.000000	0.735059
1437.000000	0.739065
1438.000000	0.731517
1439.000000	0.741122
1440.000000	0.725267
1441.000000	0.737863
1442.000000	0.717567
1443.000000	0.717563
1444.000000	0.712295
1445.000000	0.715484
1446.000000	0.712909
1447.000000	0.696797
1448.000000	0.690804
1449.000000	0.680685
1450.000000	0.693501
1451.000000	0.699892
1452.000000	0.683315
1453.000000	0.683717
1454.000000	0.675519
1455.000000	0.680140
1456.000000	0.670663
1457.000000	0.669540
1458.000000	0.663799
1459.000000	0.669419
1460.000000	0.671378
1461.000000	0.656526
1462.000000	0.649397
1463.000000	0.653902
1464.000000	0.654057
1465.000000	0.642855
1466.000000	0.644371
1467.000000	0.647835
1468.000000	0.649114
1469.000000	0.633065
1470.000000	0.619276
1471.000000	0.624203
1472.000000	0.617153
1473.000000	0.616838
1474.000000	0.625617
1475.000000	0.622058
1476.000000	0.615778
1477.000000	0.633766
1478.000000	0.606327
1479.000000	0.593210
1480.000000	0.618576
1481.000000	0.623173
1482.000000	0.615430
1483.000000	0.622776
1484.000000	0.613179
1485.000000	0.609379
1486.000000	0.605941
1487.000000	0.601144
1488.000000	0.604531
1489.000000	0.597016
1490.000000	0.617411
1491.000000	0.616554
1492.000000	0.620777
1493.000000	0.609452
1494.000000	0.605154
1495.000000	0.616418
1496.000000	0.606928
1497.000000	0.609292
1498.000000	0.623845
1499.000000	0.613907
1500.000000	0.619961
1501.000000	0.610879
1502.000000	0.628165
1503.000000	0.618156
1504.000000	0.613722
1505.000000	0.616974
1506.000000	0.616136
1507.000000	0.628521
1508.000000	0.622601
1509.000000	0.632109
1510.000000	0.637564
1511.000000	0.640181
1512.000000	0.640863
1513.000000	0.635234
1514.000000	0.640892
1515.000000	0.635383
1516.000000	0.643984
1517.000000	0.651642
1518.000000	0.651759
1519.000000	0.649913
1520.000000	0.654127
1521.000000	0.662721
1522.000000	0.670785
1523.000000	0.663872
1524.000000	0.658734
1525.000000	0.658805
1526.000000	0.663507
1527.000000	0.669103
1528.000000	0.669401
1529.000000	0.678738
1530.000000	0.683320
1531.000000	0.691873
1532.000000	0.688882
1533.000000	0.692154
1534.000000	0.693155
1535.000000	0.691596
1536.000000	0.692450
1537.000000	0.693433
1538.000000	0.694069
1539.000000	0.694033
1540.000000	0.701261
1541.000000	0.699349
1542.000000	0.695887
1543.000000	0.702823
1544.000000	0.718665
1545.000000	0.720387
1546.000000	0.723888
1547.000000	0.725792
1548.000000	0.731761
1549.000000	0.739204
1550.000000	0.740368
1551.000000	0.742443
1552.000000	0.745438
1553.000000	0.751746
1554.000000	0.748865
1555.000000	0.746400
1556.000000	0.753174
1557.000000	0.758514
1558.000000	0.759251
1559.000000	0.760892
1560.000000	0.768139
1561.000000	0.773862
1562.000000	0.770075
1563.000000	0.762317
1564.000000	0.763309
1565.000000	0.772948
1566.000000	0.768856
1567.000000	0.760202
1568.000000	0.754890
1569.000000	0.763689
1570.000000	0.765717
1571.000000	0.753547
1572.000000	0.758052
1573.000000	0.762167
1574.000000	0.761102
1575.000000	0.761617
1576.000000	0.760357
1577.000000	0.768125
1578.000000	0.778624
1579.000000	0.775184
1580.000000	0.777145
1581.000000	0.788986
1582.000000	0.785656
1583.000000	0.779138
1584.000000	0.780475
1585.000000	0.785633
1586.000000	0.783027
1587.000000	0.789499
1588.000000	0.786718
1589.000000	0.786391
1590.000000	0.804730
1591.000000	0.806321
1592.000000	0.811547
1593.000000	0.817283
1594.000000	0.815603
1595.000000	0.816029
1596.000000	0.827433
1597.000000	0.832848
1598.000000	0.834351
1599.000000	0.830784
1600.000000	0.834826
1601.000000	0.835963
1602.000000	0.839562
1603.000000	0.846767
1604.000000	0.869581
1605.000000	0.875902
1606.000000	0.864025
1607.000000	0.866485
1608.000000	0.890416
1609.000000	0.877765
1610.000000	0.881368
1611.000000	0.888023
1612.000000	0.890393
1613.000000	0.894024
1614.000000	0.891427
1615.000000	0.896156
1616.000000	0.910049
1617.000000	0.916057
1618.000000	0.917404
1619.000000	0.913656
1620.000000	0.921594
1621.000000	0.911525
1622.000000	0.922198
1623.000000	0.931632
1624.000000	0.929384
1625.000000	0.918263
1626.000000	0.925364
1627.000000	0.931675
1628.000000	0.930257
1629.000000	0.932399
1630.000000	0.933930
1631.000000	0.943386
1632.000000	0.947474
1633.000000	0.955445
1634.000000	0.953599
1635.000000	0.955267
1636.000000	0.947621
1637.000000	0.960701
1638.000000	0.962874
1639.000000	0.963706
1640.000000	0.952424
1641.000000	0.955986
1642.000000	0.964042
1643.000000	0.949724
1644.000000	0.943722
1645.000000	0.960914
1646.000000	0.969790
1647.000000	0.970595
1648.000000	0.974271
1649.000000	0.959591
1650.000000	0.968319
1651.000000	0.957505
1652.000000	0.953734
1653.000000	0.955443
1654.000000	0.953509
1655.000000	0.958222
1656.000000	0.948353
1657.000000	0.940418
1658.000000	0.922895
1659.000000	0.923363
1660.000000	0.923107
1661.000000	0.908519
1662.000000	0.902151
1663.000000	0.899615
1664.000000	0.883084
1665.000000	0.859797
1666.000000	0.862670
1667.000000	0.852263
1668.000000	0.825656
1669.000000	0.834590
1670.000000	0.818791
1671.000000	0.814782
1672.000000	0.785073
1673.000000	0.774518
1674.000000	0.780135
1675.000000	0.767150
1676.000000	0.756376
1677.000000	0.735924
1678.000000	0.720671
1679.000000	0.727109
1680.000000	0.717360
1681.000000	0.690782
1682.000000	0.707917
1683.000000	0.688693
1684.000000	0.671480
1685.000000	0.683600
1686.000000	0.678715
1687.000000	0.642471
1688.000000	0.673986
1689.000000	0.682049
1690.000000	0.693518
1691.000000	0.684598
1692.000000	0.696061
1693.000000	0.711418
1694.000000	0.705683
1695.000000	0.710810
1696.000000	0.711044
1697.000000	0.704232
1698.000000	0.699428
1699.000000	0.707158
1700.000000	0.705640
1701.000000	0.724447
1702.000000	0.719674
1703.000000	0.718433
1704.000000	0.733462
1705.000000	0.721001
1706.000000	0.703113
1707.000000	0.723639
1708.000000	0.718119
1709.000000	0.720415
1710.000000	0.724847
1711.000000	0.701512
1712.000000	0.713520
1713.000000	0.706214
1714.000000	0.705759
1715.000000	0.686597
1716.000000	0.689460
1717.000000	0.674808
1718.000000	0.684984
1719.000000	0.675935
1720.000000	0.679828
1721.000000	0.647702
1722.000000	0.666665
1723.000000	0.669065
1724.000000	0.673583
1725.000000	0.684064
1726.000000	0.680884
1727.000000	0.675537
1728.000000	0.696392
1729.000000	0.690413
1730.000000	0.686396
1731.000000	0.695923
1732.000000	0.675849
1733.000000	0.691610
1734.000000	0.698246
1735.000000	0.700394
1736.000000	0.691779
1737.000000	0.690474
1738.000000	0.698703
1739.000000	0.688490
1740.000000	0.691471
1741.000000	0.687593
1742.000000	0.698231
1743.000000	0.715252
1744.000000	0.700098
1745.000000	0.707169
1746.000000	0.704416
1747.000000	0.708029
1748.000000	0.706787
1749.000000	0.713245
1750.000000	0.711666
1751.000000	0.706078
1752.000000	0.730103
1753.000000	0.730338
1754.000000	0.732596
1755.000000	0.728702
1756.000000	0.737707
1757.000000	0.734208
1758.000000	0.728567
1759.000000	0.718481
1760.000000	0.726796
1761.000000	0.735566
1762.000000	0.731375
1763.000000	0.728068
1764.000000	0.743084
1765.000000	0.749946
1766.000000	0.751375
1767.000000	0.741723
1768.000000	0.748043
1769.000000	0.751394
1770.000000	0.746660
1771.000000	0.753864
1772.000000	0.759875
1773.000000	0.751888
1774.000000	0.752603
1775.000000	0.742602
1776.000000	0.747665
1777.000000	0.759551
1778.000000	0.758953
1779.000000	0.756638
1780.000000	0.764171
1781.000000	0.759906
1782.000000	0.752193
1783.000000	0.767947
1784.000000	0.767563
1785.000000	0.771964
1786.000000	0.773859
1787.000000	0.773871
1788.000000	0.775434
1789.000000	0.763812
1790.000000	0.765628
1791.000000	0.765411
1792.000000	0.765093
1793.000000	0.763404
1794.000000	0.760306
1795.000000	0.763908
1796.000000	0.769963
1797.000000	0.775067
1798.000000	0.770346
1799.000000	0.767319
1800.000000	0.779820
1801.000000	0.782090
1802.000000	0.778301
1803.000000	0.784463
1804.000000	0.790882
1805.000000	0.790441
1806.000000	0.787428
1807.000000	0.779553
1808.000000	0.766319
1809.000000	0.764686
1810.000000	0.758423
1811.000000	0.780869
1812.000000	0.795294
1813.000000	0.780906
1814.000000	0.767050
1815.000000	0.759442
1816.000000	0.752891
1817.000000	0.756637
1818.000000	0.755076
1819.000000	0.763933
1820.000000	0.795973
1821.000000	0.801646
1822.000000	0.779508
1823.000000	0.748698
1824.000000	0.736126
1825.000000	0.754792
1826.000000	0.769571
1827.000000	0.776026
1828.000000	0.776540
1829.000000	0.774770
1830.000000	0.786891
1831.000000	0.779245
1832.000000	0.756506
1833.000000	0.751267
1834.000000	0.752089
1835.000000	0.774064
1836.000000	0.788959
1837.000000	0.779146
1838.000000	0.763523
1839.000000	0.772726
1840.000000	0.782196
1841.000000	0.792909
1842.000000	0.789891
1843.000000	0.759400
1844.000000	0.743549
1845.000000	0.750096
1846.000000	0.781014
1847.000000	0.820834
1848.000000	0.835865
1849.000000	0.804493
1850.000000	0.757543
1851.000000	0.745771
1852.000000	0.760698
1853.000000	0.776296
1854.000000	0.782490
1855.000000	0.786404
1856.000000	0.778125
1857.000000	0.756208
1858.000000	0.758450
1859.000000	0.778250
1860.000000	0.764080
1861.000000	0.766218
1862.000000	0.759918
1863.000000	0.738949
1864.000000	0.745039
1865.000000	0.745515
1866.000000	0.734873
1867.000000	0.724494
1868.000000	0.704050
1869.000000	0.691908
1870.000000	0.714919
1871.000000	0.706480
1872.000000	0.676659
1873.000000	0.672531
1874.000000	0.654637
1875.000000	0.646303
1876.000000	0.657016
1877.000000	0.642471
1878.000000	0.632859
1879.000000	0.609848
1880.000000	0.613036
1881.000000	0.610955
1882.000000	0.602437
1883.000000	0.602234
1884.000000	0.595963
1885.000000	0.579915
1886.000000	0.570346
1887.000000	0.553336
1888.000000	0.553710
1889.000000	0.556352
1890.000000	0.560646
1891.000000	0.557431
1892.000000	0.583402
1893.000000	0.575380
1894.000000	0.582114
1895.000000	0.595598
1896.000000	0.606029
1897.000000	0.612542
1898.000000	0.626871
1899.000000	0.653897
1900.000000	0.651624
1901.000000	0.662382
1902.000000	0.681000
1903.000000	0.698007
1904.000000	0.699165
1905.000000	0.721351
1906.000000	0.732372
1907.000000	0.738817
1908.000000	0.748938
1909.000000	0.751412
1910.000000	0.765421
1911.000000	0.767092
1912.000000	0.779531
1913.000000	0.794190
1914.000000	0.808595
1915.000000	0.806299
1916.000000	0.814412
1917.000000	0.825860
1918.000000	0.813449
1919.000000	0.830752
1920.000000	0.842208
1921.000000	0.835478
1922.000000	0.835261
1923.000000	0.849868
1924.000000	0.853113
1925.000000	0.860818
1926.000000	0.850715
1927.000000	0.866864
1928.000000	0.855938
1929.000000	0.872474
1930.000000	0.867613
1931.000000	0.868329
1932.000000	0.863624
1933.000000	0.874583
1934.000000	0.873600
1935.000000	0.876376
1936.000000	0.876330
1937.000000	0.875234
1938.000000	0.880889
1939.000000	0.876903
1940.000000	0.861591
1941.000000	0.876212
1942.000000	0.890882
1943.000000	0.871153
1944.000000	0.873545
1945.000000	0.866568
1946.000000	0.873072
1947.000000	0.863090
1948.000000	0.866636
1949.000000	0.880290
1950.000000	0.871564
1951.000000	0.866648
1952.000000	0.862569
1953.000000	0.867502
1954.000000	0.857148
1955.000000	0.848315
1956.000000	0.843525
1957.000000	0.839341
1958.000000	0.828693
1959.000000	0.845590
1960.000000	0.843575
1961.000000	0.842625
1962.000000	0.831702
1963.000000	0.826221
1964.000000	0.821268
1965.000000	0.824721
1966.000000	0.826164
1967.000000	0.825916
1968.000000	0.832029
1969.000000	0.823442
1970.000000	0.817730
1971.000000	0.824323
1972.000000	0.815058
1973.000000	0.813465
1974.000000	0.807433
1975.000000	0.803313
1976.000000	0.807029
1977.000000	0.803105
1978.000000	0.789176
1979.000000	0.798412
1980.000000	0.790269
1981.000000	0.780522
1982.000000	0.801576
1983.000000	0.793461
1984.000000	0.776323
1985.000000	0.774181
1986.000000	0.775133
1987.000000	0.774976
1988.000000	0.775133
1989.000000	0.769382
1990.000000	0.770246
1991.000000	0.760074
1992.000000	0.758959
1993.000000	0.763236
1994.000000	0.765512
1995.000000	0.760063
1996.000000	0.758300
1997.000000	0.729697
1998.000000	0.745407
1999.000000	0.756623
2000.000000	0.744246
2001.000000	0.754741
2002.000000	0.755281
2003.000000	0.750436
2004.000000	0.754228
2005.000000	0.741029
2006.000000	0.747974
2007.000000	0.759004
2008.000000	0.756447
2009.000000	0.732507
2010.000000	0.736924
2011.000000	0.736995
2012.000000	0.744906
2013.000000	0.753355
2014.000000	0.758555
2015.000000	0.743169
2016.000000	0.743475
2017.000000	0.751430
2018.000000	0.748193
2019.000000	0.746750
2020.000000	0.757159
2021.000000	0.750563
2022.000000	0.749072
2023.000000	0.751811
2024.000000	0.756867
2025.000000	0.744686
2026.000000	0.750716
2027.000000	0.756170
2028.000000	0.771400
2029.000000	0.776069
2030.000000	0.779877
2031.000000	0.768158
2032.000000	0.770445
2033.000000	0.789241
2034.000000	0.791404
2035.000000	0.797942
2036.000000	0.789568
2037.000000	0.784196
2038.000000	0.791212
2039.000000	0.812842
2040.000000	0.807043
2041.000000	0.814475
2042.000000	0.817021
2043.000000	0.829434
2044.000000	0.828818
2045.000000	0.830570
2046.000000	0.824324
2047.000000	0.832430
2048.000000	0.850165
2049.000000	0.850307
2050.000000	0.848652
2051.000000	0.845706
2052.000000	0.852029
2053.000000	0.860673
2054.000000	0.851984
2055.000000	0.841750
2056.000000	0.851628
2057.000000	0.855942
2058.000000	0.850054
2059.000000	0.851249
2060.000000	0.843533
2061.000000	0.848781
2062.000000	0.856984
2063.000000	0.858566
2064.000000	0.839093
2065.000000	0.816389
2066.000000	0.818210
2067.000000	0.817636
2068.000000	0.820063
2069.000000	0.818409
2070.000000	0.821495
2071.000000	0.816749
2072.000000	0.811278
2073.000000	0.802952
2074.000000	0.798702
2075.000000	0.787356
2076.000000	0.783371
2077.000000	0.789883
2078.000000	0.790457
2079.000000	0.778474
2080.000000	0.763675
2081.000000	0.771290
2082.000000	0.770773
2083.000000	0.768383
2084.000000	0.772784
2085.000000	0.764622
2086.000000	0.762804
2087.000000	0.767311
2088.000000	0.776435
2089.000000	0.776851
2090.000000	0.758909
2091.000000	0.753364
2092.000000	0.759790
2093.000000	0.767993
2094.000000	0.775070
2095.000000	0.769000
2096.000000	0.756084
2097.000000	0.758155
2098.000000	0.763066
2099.000000	0.765748
2100.000000	0.769569
2101.000000	0.766024
2102.000000	0.754453
2103.000000	0.755301
2104.000000	0.759913
2105.000000	0.754579
2106.000000	0.750166
2107.000000	0.749007
2108.000000	0.761167
2109.000000	0.755941
2110.000000	0.744718
2111.000000	0.750928
2112.000000	0.752290
2113.000000	0.753976
2114.000000	0.753208
2115.000000	0.764530
2116.000000	0.758364
2117.000000	0.753736
2118.000000	0.752185
2119.000000	0.760235
2120.000000	0.770722
2121.000000	0.756931
2122.000000	0.746192
2123.000000	0.748116
2124.000000	0.753459
2125.000000	0.750561
2126.000000	0.742160
2127.000000	0.747050
2128.000000	0.755372
2129.000000	0.757521
2130.000000	0.764315
2131.000000	0.751933
2132.000000	0.747567
2133.000000	0.749589
2134.000000	0.760968
2135.000000	0.771860
2136.000000	0.764741
2137.000000	0.761394
2138.000000	0.763264
2139.000000	0.763181
2140.000000	0.762998
2141.000000	0.776169
2142.000000	0.784965
2143.000000	0.789444
2144.000000	0.781988
2145.000000	0.795304
2146.000000	0.801344
2147.000000	0.792480
2148.000000	0.797776
2149.000000	0.778340
2150.000000	0.788860
2151.000000	0.787570
2152.000000	0.786508
2153.000000	0.793035
2154.000000	0.795904
2155.000000	0.800922
2156.000000	0.798980
2157.000000	0.804439
2158.000000	0.789270
2159.000000	0.789704
2160.000000	0.799417
2161.000000	0.802142
2162.000000	0.794568
2163.000000	0.800602
2164.000000	0.797930
2165.000000	0.801229
2166.000000	0.827701
2167.000000	0.814833
2168.000000	0.805956
2169.000000	0.802896
2170.000000	0.798168
2171.000000	0.800141
2172.000000	0.806742
2173.000000	0.812142
2174.000000	0.802721
2175.000000	0.795997
2176.000000	0.802745
2177.000000	0.801950
2178.000000	0.786864
2179.000000	0.784406
2180.000000	0.798567
2181.000000	0.782277
2182.000000	0.789854
2183.000000	0.784477
2184.000000	0.781113
2185.000000	0.767324
2186.000000	0.759307
2187.000000	0.754678
2188.000000	0.760369
2189.000000	0.745866
2190.000000	0.742761
2191.000000	0.721712
2192.000000	0.725897
2193.000000	0.723332
2194.000000	0.701191
2195.000000	0.695366
2196.000000	0.680750
2197.000000	0.670110
2198.000000	0.662088
2199.000000	0.661666
2200.000000	0.637679
2201.000000	0.637554
2202.000000	0.625446
2203.000000	0.599154
2204.000000	0.614150
2205.000000	0.591022
2206.000000	0.589276
2207.000000	0.582920
2208.000000	0.587696
2209.000000	0.578573
2210.000000	0.575466
2211.000000	0.568000
2212.000000	0.566349
2213.000000	0.571016
2214.000000	0.555446
2215.000000	0.567768
2216.000000	0.553922
2217.000000	0.568226
2218.000000	0.566027
2219.000000	0.577540
2220.000000	0.587817
2221.000000	0.584207
2222.000000	0.572990
2223.000000	0.580476
2224.000000	0.581689
2225.000000	0.600940
2226.000000	0.573053
2227.000000	0.582354
2228.000000	0.578111
2229.000000	0.570128
2230.000000	0.581410
2231.000000	0.600628
2232.000000	0.598702
2233.000000	0.591695
2234.000000	0.585045
2235.000000	0.586814
2236.000000	0.591343
2237.000000	0.576141
2238.000000	0.574005
2239.000000	0.587761
2240.000000	0.583038
2241.000000	0.582742
2242.000000	0.595840
2243.000000	0.609453
2244.000000	0.587737
2245.000000	0.597264
2246.000000	0.590543
2247.000000	0.612823
2248.000000	0.621136
2249.000000	0.603951
2250.000000	0.623515
2251.000000	0.628161
2252.000000	0.613511
2253.000000	0.605852
2254.000000	0.622240
2255.000000	0.628726
2256.000000	0.643051
2257.000000	0.650392
2258.000000	0.648012
2259.000000	0.639963
2260.000000	0.645004
2261.000000	0.650823
2262.000000	0.648590
2263.000000	0.641444
2264.000000	0.643990
2265.000000	0.654340
2266.000000	0.663049
2267.000000	0.651372
2268.000000	0.652368
2269.000000	0.648650
2270.000000	0.676704
2271.000000	0.662662
2272.000000	0.669700
2273.000000	0.674810
2274.000000	0.661088
2275.000000	0.665383
2276.000000	0.672069
2277.000000	0.676290
2278.000000	0.683606
2279.000000	0.673534
2280.000000	0.685535
2281.000000	0.687405
2282.000000	0.678401
2283.000000	0.681473
2284.000000	0.681648
2285.000000	0.683761
2286.000000	0.681629
2287.000000	0.681866
2288.000000	0.677033
2289.000000	0.674061
2290.000000	0.681638
2291.000000	0.681310
2292.000000	0.689045
2293.000000	0.697049
2294.000000	0.680110
2295.000000	0.681857
2296.000000	0.668244
2297.000000	0.680726
2298.000000	0.687686
2299.000000	0.693091
2300.000000	0.693701
2301.000000	0.681924
2302.000000	0.682179
2303.000000	0.689019
2304.000000	0.692219
2305.000000	0.686409
2306.000000	0.693950
2307.000000	0.679639
2308.000000	0.674561
2309.000000	0.684264
2310.000000	0.669101
2311.000000	0.664529
2312.000000	0.666467
2313.000000	0.684679
2314.000000	0.699100
2315.000000	0.682525
2316.000000	0.677891
2317.000000	0.693694
2318.000000	0.681886
2319.000000	0.678932
2320.000000	0.687477
2321.000000	0.682216
2322.000000	0.676844
2323.000000	0.679298
2324.000000	0.684920
2325.000000	0.693902
2326.000000	0.698355
2327.000000	0.671329
2328.000000	0.665223
2329.000000	0.676350
2330.000000	0.685769
2331.000000	0.684115
2332.000000	0.680767
2333.000000	0.671953
2334.000000	0.675467
2335.000000	0.684475
2336.000000	0.675913
2337.000000	0.669898
2338.000000	0.654664
2339.000000	0.645805
2340.000000	0.658600
2341.000000	0.662845
2342.000000	0.662530
2343.000000	0.667144
2344.000000	0.650556
2345.000000	0.638792
2346.000000	0.647492
2347.000000	0.656113
2348.000000	0.650120
2349.000000	0.650160
2350.000000	0.658027
2351.000000	0.663483
2352.000000	0.645534
2353.000000	0.641284
2354.000000	0.646389
2355.000000	0.644352
2356.000000	0.636815
2357.000000	0.623092
2358.000000	0.624521
2359.000000	0.636270
2360.000000	0.632201
2361.000000	0.629158
2362.000000	0.629691
2363.000000	0.625011
2364.000000	0.625179
2365.000000	0.617057
2366.000000	0.606013
2367.000000	0.601072
2368.000000	0.606298
2369.000000	0.616076
2370.000000	0.610276
2371.000000	0.601267
2372.000000	0.598459
2373.000000	0.600419
2374.000000	0.600588
2375.000000	0.596567
2376.000000	0.596523
2377.000000	0.595070
2378.000000	0.583879
2379.000000	0.583326
2380.000000	0.581962
2381.000000	0.582809
2382.000000	0.594969
2383.000000	0.588599
2384.000000	0.574955
2385.000000	0.569967
2386.000000	0.569366
2387.000000	0.576942
2388.000000	0.577778
2389.000000	0.570809
2390.000000	0.570334
2391.000000	0.563192
2392.000000	0.554265
2393.000000	0.546072
2394.000000	0.555462
2395.000000	0.559018
2396.000000	0.557628
2397.000000	0.545744
2398.000000	0.544648
2399.000000	0.558099
2400.000000	0.544240
2401.000000	0.542026
2402.000000	0.537706
2403.000000	0.534755
2404.000000	0.531193
2405.000000	0.535356
2406.000000	0.532362
2407.000000	0.518486
2408.000000	0.507132
2409.000000	0.502454
2410.000000	0.513662
2411.000000	0.512136
2412.000000	0.508789
2413.000000	0.504453
2414.000000	0.507153
2415.000000	0.514039
2416.000000	0.516223
2417.000000	0.514429
2418.000000	0.499119
2419.000000	0.489801
2420.000000	0.482040
2421.000000	0.490250
2422.000000	0.486391
2423.000000	0.486477
2424.000000	0.480392
2425.000000	0.477054
2426.000000	0.477564
2427.000000	0.490182
2428.000000	0.488525
2429.000000	0.479362
2430.000000	0.473855
2431.000000	0.489231
2432.000000	0.484283
2433.000000	0.494838
2434.000000	0.473718
2435.000000	0.476215
2436.000000	0.482406
2437.000000	0.490737
2438.000000	0.481743
2439.000000	0.466992
2440.000000	0.474480
2441.000000	0.492378
2442.000000	0.479048
2443.000000	0.477531
2444.000000	0.476879
2445.000000	0.472847
2446.000000	0.478134
2447.000000	0.484381
2448.000000	0.464414
2449.000000	0.468946
2450.000000	0.483805
2451.000000	0.480754
2452.000000	0.475729
2453.000000	0.496769
2454.000000	0.474959
2455.000000	0.454866
2456.000000	0.475756
2457.000000	0.473703
2458.000000	0.451957
2459.000000	0.472161
2460.000000	0.466589
2461.000000	0.466816
2462.000000	0.450136
2463.000000	0.449385
2464.000000	0.459095
2465.000000	0.480493
2466.000000	0.460251
2467.000000	0.460730
2468.000000	0.447093
2469.000000	0.469288
2470.000000	0.455809
2471.000000	0.471165
2472.000000	0.480347
2473.000000	0.454801
2474.000000	0.466096
2475.000000	0.455545
2476.000000	0.450386
2477.000000	0.492632
2478.000000	0.478716
2479.000000	0.481441
2480.000000	0.485234
2481.000000	0.480326
2482.000000	0.456136
2483.000000	0.454732
2484.000000	0.425476
2485.000000	0.400876
2486.000000	0.479196
2487.000000	0.406022
2488.000000	0.503355
2489.000000	0.518435
2490.000000	0.448896
2491.000000	0.452870
2492.000000	0.427632
2493.000000	0.474251
2494.000000	0.400214
2495.000000	0.451980
2496.000000	0.404427
2497.000000	0.506574
2498.000000	0.440827
2499.000000	0.446546
2500.000000	0.423733
