343ms
0ms
20X
4
Counts
6/17/2024 4:05:48 PM
10.00000000
0.00000000
Resolution=2&-1
Time1=343ms:Average1=10:Objective=20X:Aperture=4: (6/17/2024 4:05:48 PM)
350.16613620	350.60193709	351.03772818	351.47350942	351.90928082	352.34504234	352.78079397	353.21653569	353.65226748	354.08798932	354.52370120	354.95940309	355.39509497	355.83077683	356.26644864	356.70211039	357.13776206	357.57340363	358.00903508	358.44465639	358.88026755	359.31586852	359.75145930	360.18703986	360.62261019	361.05817026	361.49372007	361.92925958	362.36478878	362.80030765	363.23581617	363.67131432	364.10680209	364.54227945	364.97774638	365.41320287	365.84864890	366.28408445	366.71950949	367.15492401	367.59032800	368.02572142	368.46110427	368.89647652	369.33183815	369.76718915	370.20252950	370.63785917	371.07317815	371.50848642	371.94378395	372.37907074	372.81434676	373.24961199	373.68486642	374.12011002	374.55534277	374.99056467	375.42577567	375.86097578	376.29616497	376.73134321	377.16651050	377.60166680	378.03681211	378.47194641	378.90706966	379.34218187	379.77728300	380.21237303	380.64745196	381.08251975	381.51757640	381.95262187	382.38765616	382.82267924	383.25769109	383.69269170	384.12768105	384.56265911	384.99762586	385.43258130	385.86752540	386.30245813	386.73737949	387.17228945	387.60718799	388.04207509	388.47695074	388.91181492	389.34666760	389.78150877	390.21633841	390.65115650	391.08596302	391.52075795	391.95554127	392.39031297	392.82507302	393.25982140	393.69455810	394.12928310	394.56399638	394.99869791	395.43338769	395.86806568	396.30273188	396.73738625	397.17202880	397.60665948	398.04127829	398.47588521	398.91048022	399.34506329	399.77963441	400.21419356	400.64874072	401.08327588	401.51779900	401.95231008	402.38680910	402.82129603	403.25577086	403.69023356	404.12468412	404.55912252	404.99354874	405.42796276	405.86236457	406.29675414	406.73113145	407.16549648	407.59984922	408.03418965	408.46851774	408.90283349	409.33713686	409.77142784	410.20570642	410.63997256	411.07422626	411.50846749	411.94269624	412.37691248	412.81111621	413.24530738	413.67948600	414.11365204	414.54780547	414.98194629	415.41607447	415.85018999	416.28429284	416.71838299	417.15246043	417.58652514	418.02057709	418.45461627	418.88864266	419.32265625	419.75665700	420.19064491	420.62461995	421.05858210	421.49253135	421.92646768	422.36039106	422.79430148	423.22819892	423.66208336	424.09595478	424.52981316	424.96365849	425.39749074	425.83130989	426.26511593	426.69890883	427.13268858	427.56645516	428.00020855	428.43394873	428.86767568	429.30138939	429.73508982	430.16877697	430.60245081	431.03611133	431.46975851	431.90339232	432.33701276	432.77061979	433.20421340	433.63779357	434.07136029	434.50491352	434.93845327	435.37197949	435.80549219	436.23899132	436.67247689	437.10594887	437.53940723	437.97285197	438.40628306	438.83970048	439.27310421	439.70649424	440.13987054	440.57323310	441.00658189	441.43991690	441.87323811	442.30654551	442.73983906	443.17311875	443.60638457	444.03963649	444.47287449	444.90609856	445.33930868	445.77250482	446.20568697	446.63885511	447.07200922	447.50514928	447.93827527	448.37138718	448.80448497	449.23756865	449.67063818	450.10369354	450.53673472	450.96976170	451.40277446	451.83577298	452.26875725	452.70172723	453.13468291	453.56762428	454.00055132	454.43346400	454.86636230	455.29924622	455.73211572	456.16497079	456.59781142	457.03063757	457.46344923	457.89624639	458.32902903	458.76179711	459.19455064	459.62728958	460.06001392	460.49272363	460.92541871	461.35809913	461.79076486	462.22341591	462.65605223	463.08867382	463.52128065	463.95387271	464.38644998	464.81901243	465.25156005	465.68409283	466.11661073	466.54911374	466.98160185	467.41407503	467.84653327	468.27897654	468.71140483	469.14381811	469.57621637	470.00859960	470.44096776	470.87332084	471.30565882	471.73798169	472.17028942	472.60258200	473.03485940	473.46712160	473.89936860	474.33160036	474.76381687	475.19601811	475.62820407	476.06037471	476.49253003	476.92467000	477.35679461	477.78890383	478.22099765	478.65307605	479.08513900	479.51718650	479.94921851	480.38123503	480.81323602	481.24522149	481.67719139	482.10914572	482.54108446	482.97300758	483.40491507	483.83680691	484.26868308	484.70054356	485.13238833	485.56421738	485.99603067	486.42782820	486.85960995	487.29137589	487.72312601	488.15486029	488.58657870	489.01828124	489.44996788	489.88163860	490.31329338	490.74493220	491.17655505	491.60816190	492.03975274	492.47132755	492.90288631	493.33442899	493.76595559	494.19746607	494.62896043	495.06043864	495.49190069	495.92334655	496.35477620	496.78618963	497.21758682	497.64896774	498.08033239	498.51168074	498.94301276	499.37432845	499.80562778	500.23691074	500.66817730	501.09942745	501.53066116	501.96187842	502.39307921	502.82426351	503.25543130	503.68658256	504.11771727	504.54883542	504.97993698	505.41102193	505.84209026	506.27314195	506.70417698	507.13519532	507.56619696	507.99718189	508.42815007	508.85910150	509.29003615	509.72095401	510.15185505	510.58273926	511.01360661	511.44445709	511.87529069	512.30610737	512.73690712	513.16768992	513.59845576	514.02920461	514.45993645	514.89065127	515.32134905	515.75202976	516.18269339	516.61333992	517.04396933	517.47458160	517.90517671	518.33575465	518.76631539	519.19685891	519.62738520	520.05789424	520.48838600	520.91886048	521.34931764	521.77975747	522.21017995	522.64058507	523.07097279	523.50134312	523.93169601	524.36203147	524.79234945	525.22264996	525.65293297	526.08319845	526.51344640	526.94367678	527.37388959	527.80408480	528.23426240	528.66442236	529.09456467	529.52468930	529.95479624	530.38488547	530.81495697	531.24501072	531.67504671	532.10506490	532.53506529	532.96504785	533.39501257	533.82495942	534.25488839	534.68479946	535.11469261	535.54456782	535.97442507	536.40426434	536.83408561	537.26388887	537.69367409	538.12344125	538.55319035	538.98292135	539.41263423	539.84232899	540.27200560	540.70166404	541.13130429	541.56092633	541.99053015	542.42011572	542.84968303	543.27923205	543.70876277	544.13827517	544.56776923	544.99724493	545.42670225	545.85614117	546.28556168	546.71496375	547.14434736	547.57371250	548.00305915	548.43238728	548.86169688	549.29098794	549.72026042	550.14951431	550.57874960	551.00796626	551.43716427	551.86634362	552.29550429	552.72464625	553.15376949	553.58287399	554.01195973	554.44102669	554.87007485	555.29910419	555.72811470	556.15710635	556.58607912	557.01503300	557.44396797	557.87288401	558.30178110	558.73065921	559.15951834	559.58835846	560.01717955	560.44598160	560.87476458	561.30352847	561.73227326	562.16099893	562.58970546	563.01839282	563.44706101	563.87571000	564.30433977	564.73295030	565.16154157	565.59011358	566.01866628	566.44719967	566.87571373	567.30420844	567.73268378	568.16113973	568.58957627	569.01799338	569.44639105	569.87476924	570.30312796	570.73146717	571.15978685	571.58808700	572.01636758	572.44462858	572.87286998	573.30109177	573.72929391	574.15747640	574.58563922	575.01378234	575.44190574	575.87000941	576.29809333	576.72615748	577.15420184	577.58222639	578.01023111	578.43821598	578.86618099	579.29412611	579.72205133	580.14995662	580.57784197	581.00570736	581.43355276	581.86137817	582.28918356	582.71696890	583.14473420	583.57247941	584.00020453	584.42790954	584.85559441	585.28325913	585.71090368	586.13852803	586.56613218	586.99371610	587.42127977	587.84882317	588.27634629	588.70384910	589.13133159	589.55879373	589.98623551	590.41365691	590.84105791	591.26843849	591.69579863	592.12313831	592.55045752	592.97775623	593.40503442	593.83229208	594.25952919	594.68674573	595.11394167	595.54111700	595.96827171	596.39540576	596.82251915	597.24961185	597.67668385	598.10373512	598.53076564	598.95777541	599.38476439	599.81173257	600.23867993	600.66560645	601.09251211	601.51939690	601.94626078	602.37310376	602.79992580	603.22672688	603.65350699	604.08026611	604.50700422	604.93372130	605.36041733	605.78709229	606.21374616	606.64037893	607.06699057	607.49358107	607.92015040	608.34669856	608.77322551	609.19973124	609.62621572	610.05267896	610.47912091	610.90554156	611.33194090	611.75831891	612.18467556	612.61101083	613.03732472	613.46361719	613.88988823	614.31613782	614.74236595	615.16857258	615.59475771	616.02092131	616.44706337	616.87318386	617.29928278	617.72536008	618.15141577	618.57744982	619.00346220	619.42945291	619.85542192	620.28136922	620.70729478	621.13319858	621.55908061	621.98494085	622.41077927	622.83659587	623.26239061	623.68816348	624.11391447	624.53964355	624.96535070	625.39103591	625.81669915	626.24234041	626.66795966	627.09355689	627.51913209	627.94468522	628.37021627	628.79572523	629.22121207	629.64667677	630.07211931	630.49753969	630.92293786	631.34831383	631.77366756	632.19899905	632.62430826	633.04959519	633.47485980	633.90010209	634.32532203	634.75051961	635.17569481	635.60084760	636.02597797	636.45108589	636.87617136	637.30123435	637.72627483	638.15129281	638.57628824	639.00126112	639.42621142	639.85113913	640.27604422	640.70092669	641.12578650	641.55062364	641.97543809	642.40022983	642.82499885	643.24974512	643.67446862	644.09916934	644.52384726	644.94850235	645.37313460	645.79774399	646.22233050	646.64689411	647.07143480	647.49595255	647.92044735	648.34491917	648.76936800	649.19379381	649.61819659	650.04257632	650.46693298	650.89126655	651.31557701	651.73986434	652.16412852	652.58836954	653.01258737	653.43678200	653.86095340	654.28510156	654.70922646	655.13332808	655.55740640	655.98146140	656.40549307	656.82950137	657.25348630	657.67744784	658.10138596	658.52530064	658.94919188	659.37305964	659.79690391	660.22072468	660.64452191	661.06829560	661.49204572	661.91577225	662.33947518	662.76315449	663.18681015	663.61044215	664.03405047	664.45763509	664.88119598	665.30473314	665.72824655	666.15173617	666.57520200	666.99864402	667.42206220	667.84545653	668.26882699	668.69217355	669.11549621	669.53879494	669.96206971	670.38532052	670.80854735	671.23175017	671.65492896	672.07808371	672.50121440	672.92432101	673.34740351	673.77046190	674.19349615	674.61650623	675.03949215	675.46245386	675.88539136	676.30830463	676.73119364	677.15405838	677.57689882	677.99971496	678.42250677	678.84527423	679.26801732	679.69073602	680.11343032	680.53610019	680.95874562	681.38136658	681.80396307	682.22653505	682.64908251	683.07160543	683.49410379	683.91657758	684.33902677	684.76145134	685.18385128	685.60622656	686.02857717	686.45090309	686.87320430	687.29548077	687.71773250	688.13995946	688.56216163	688.98433899	689.40649153	689.82861923	690.25072206	690.67280001	691.09485305	691.51688118	691.93888436	692.36086259	692.78281583	693.20474408	693.62664732	694.04852552	694.47037866	694.89220673	695.31400971	695.73578757	696.15754031	696.57926789	697.00097031	697.42264753	697.84429955	698.26592635	698.68752790	699.10910418	699.53065518	699.95218088	700.37368126	700.79515630	701.21660597	701.63803027	702.05942917	702.48080265	702.90215070	703.32347329	703.74477041	704.16604204	704.58728815	705.00850873	705.42970376	705.85087322	706.27201710	706.69313536	707.11422800	707.53529499	707.95633632	708.37735196	708.79834190	709.21930612	709.64024460	710.06115731	710.48204425	710.90290539	711.32374071	711.74455020	712.16533383	712.58609158	713.00682344	713.42752939	713.84820941	714.26886347	714.68949157	715.11009368	715.53066977	715.95121984	716.37174387	716.79224183	717.21271370	717.63315947	718.05357912	718.47397263	718.89433997	719.31468114	719.73499610	720.15528485	720.57554736	720.99578362	721.41599360	721.83617729	722.25633466	722.67646570	723.09657039	723.51664871	723.93670063	724.35672615	724.77672524	725.19669789	725.61664407	726.03656376	726.45645695	726.87632362	727.29616374	727.71597730	728.13576429	728.55552467	728.97525843	729.39496556	729.81464603	730.23429983	730.65392692	731.07352731	731.49310096	731.91264786	732.33216799	732.75166133	733.17112786	733.59056756	734.00998042	734.42936640	734.84872550	735.26805770	735.68736298	736.10664131	736.52589267	736.94511706	737.36431445	737.78348482	738.20262815	738.62174442	739.04083362	739.45989572	739.87893071	740.29793856	740.71691926	741.13587279	741.55479913	741.97369826	742.39257016	742.81141481	743.23023219	743.64902229	744.06778508	744.48652055	744.90522868	745.32390944	745.74256282	746.16118880	746.57978736	746.99835849	747.41690215	747.83541834	748.25390703	748.67236821	749.09080185	749.50920794	749.92758646	750.34593739	750.76426070	751.18255639	751.60082443	752.01906480	752.43727748	752.85546246	753.27361971	753.69174922	754.10985097	754.52792493	754.94597109	755.36398944	755.78197994	756.19994258	756.61787735	757.03578422	757.45366318	757.87151420	758.28933727	758.70713236	759.12489946	759.54263856	759.96034962	760.37803263	760.79568758	761.21331443	761.63091318	762.04848381	762.46602629	762.88354061	763.30102674	763.71848468	764.13591439	764.55331586	764.97068908	765.38803401	765.80535065	766.22263898	766.63989896	767.05713060	767.47433386	767.89150873	768.30865518	768.72577321	769.14286278	769.55992389	769.97695651	770.39396062	770.81093621	771.22788325	771.64480173	772.06169163	772.47855292	772.89538559	773.31218962	773.72896499	774.14571169	774.56242968	774.97911896	775.39577950	775.81241129	776.22901431	776.64558853	777.06213394	777.47865052	777.89513825	778.31159710	778.72802708	779.14442814	779.56080028	779.97714347	780.39345769	780.80974294	781.22599918	781.64222640	782.05842457	782.47459369	782.89073373	783.30684467	783.72292649	784.13897918	784.55500271	784.97099707	785.38696224	785.80289819	786.21880491	786.63468238	787.05053057	787.46634949	787.88213909	788.29789936	788.71363029	789.12933186	789.54500404	789.96064681	790.37626017	790.79184408	791.20739853	791.62292351	792.03841898	792.45388494	792.86932136	793.28472822	793.70010551	794.11545321	794.53077129	794.94605974	795.36131853	795.77654766	796.19174710	796.60691683	797.02205683	797.43716709	797.85224758	798.26729829	798.68231919	799.09731027	799.51227150	799.92720288	800.34210438	800.75697597	801.17181765	801.58662939	802.00141118	802.41616299	802.83088480	803.24557660	803.66023837	804.07487008	804.48947173	804.90404329	805.31858473	805.73309605	806.14757722	806.56202823	806.97644905	807.39083966	807.80520005	808.21953020	808.63383009	809.04809970	809.46233901	809.87654799	810.29072665	810.70487494	811.11899286	811.53308038	811.94713749	812.36116416	812.77516039	813.18912614	813.60306140	814.01696615	814.43084037	814.84468405	815.25849716	815.67227968	816.08603160	816.49975289	816.91344354	817.32710353	817.74073284	818.15433144	818.56789933	818.98143648	819.39494287	819.80841849	820.22186330	820.63527731	821.04866048	821.46201280	821.87533424	822.28862480	822.70188444	823.11511316	823.52831093	823.94147773	824.35461354	824.76771835	825.18079213	825.59383487	826.00684655	826.41982715	826.83277664	827.24569502	827.65858225	828.07143833	828.48426323	828.89705694	829.30981943	829.72255068	830.13525068	830.54791941	830.96055685	831.37316298	831.78573777	832.19828122	832.61079330	833.02327400	833.43572328	833.84814115	834.26052757	834.67288252	835.08520599	835.49749796	835.90975842	836.32198733	836.73418468	837.14635046	837.55848463	837.97058720	838.38265813	838.79469740	839.20670500	839.61868091	840.03062511	840.44253757	840.85441829	841.26626724	841.67808440	842.08986976	842.50162329	842.91334498	843.32503480	843.73669274	844.14831877	844.55991289	844.97147506	845.38300528	845.79450352	846.20596976	846.61740399	847.02880618	847.44017631	847.85151437	848.26282034	848.67409420	849.08533592	849.49654550	849.90772291	850.31886813	850.72998114	851.14106193	851.55211047	851.96312674	852.37411074	852.78506243	853.19598180	853.60686882	854.01772349	854.42854578	854.83933568	855.25009315	855.66081819	856.07151078	856.48217089	856.89279850	857.30339361	857.71395618	858.12448620	858.53498366	858.94544852	859.35588078	859.76628041	860.17664740	860.58698172	860.99728335	861.40755229	861.81778850	862.22799197	862.63816268	863.04830061	863.45840574	863.86847805	864.27851753	864.68852415	865.09849790	865.50843876	865.91834670	866.32822171	866.73806377	867.14787286	867.55764895	867.96739205	868.37710211	868.78677913	869.19642308	869.60603395	870.01561171	870.42515635	870.83466785	871.24414619	871.65359135	872.06300331	872.47238206	872.88172756	873.29103981	873.70031878	874.10956446	874.51877683	874.92795586	875.33710155	875.74621386	876.15529278	876.56433830	876.97335038	877.38232902	877.79127419	878.20018588	878.60906407	879.01790873	879.42671984	879.83549740	880.24424138	880.65295176	881.06162852	881.47027164	881.87888110	882.28745689	882.69599898	883.10450736	883.51298201	883.92142291	884.32983003	884.73820337	885.14654289	885.55484859	885.96312043	886.37135842	886.77956251	887.18773271	887.59586898	888.00397130	888.41203966	888.82007405	889.22807443	889.63604079	890.04397312	890.45187139	890.85973558	891.26756568	891.67536166	892.08312351	892.49085121	892.89854473	893.30620407	893.71382919	894.12142009	894.52897673	894.93649911	895.34398721	895.75144100	896.15886046	896.56624558	896.97359634	897.38091272	897.78819470	898.19544225	898.60265537	899.00983403	899.41697822	899.82408791	900.23116308	900.63820372	901.04520981	901.45218132	901.85911824	902.26602056	902.67288824	903.07972127	903.48651964	903.89328332	904.30001230	904.70670655	905.11336605	905.51999079	905.92658076	906.33313592	906.73965626	907.14614176	907.55259240	907.95900816	908.36538903	908.77173498	909.17804600	909.58432207	909.99056316	910.39676926	910.80294035	911.20907641	911.61517742	912.02124336	912.42727422	912.83326996	913.23923059	913.64515607	914.05104638	914.45690152	914.86272145	915.26850616	915.67425563	916.07996984	916.48564877	916.89129241	917.29690073	917.70247372	918.10801135	918.51351361	918.91898047	919.32441193	919.72980795	920.13516853	920.54049363	920.94578325	921.35103736	921.75625595	922.16143899	922.56658647	922.97169836	923.37677465	923.78181532	924.18682035	924.59178972	924.99672341	925.40162141	925.80648369	926.21131023	926.61610102	927.02085603	927.42557525	927.83025866	928.23490624	928.63951796	929.04409382	929.44863379	929.85313785	930.25760599	930.66203818	931.06643441	931.47079465	931.87511889	932.27940711	932.68365929	933.08787540	933.49205544	933.89619938	934.30030721	934.70437889	935.10841442	935.51241378	935.91637694	936.32030390	936.72419462	937.12804908	937.53186728	937.93564919	938.33939480	938.74310407	939.14677700	939.55041357	939.95401375	940.35757752	940.76110488	941.16459579	941.56805025	941.97146822	942.37484969	942.77819465	943.18150307	943.58477494	943.98801022	944.39120892	944.79437100	945.19749645	945.60058525	946.00363738	946.40665282	946.80963155	947.21257356	947.61547881	948.01834730	948.42117901	948.82397391	949.22673199	949.62945323	950.03213761	950.43478511	950.83739570	951.23996938	951.64250613	952.04500591	952.44746872	952.84989454	953.25228334	953.65463511	954.05694983	954.45922747	954.86146803	955.26367148	955.66583780	956.06796697	956.47005898	956.87211380	957.27413142	957.67611181	958.07805496	958.47996085	958.88182946	959.28366077	959.68545476	960.08721142	960.48893071	960.89061263	961.29225716	961.69386427	962.09543395	962.49696617	962.89846092	963.29991819	963.70133794	964.10272017	964.50406485	964.90537196	965.30664148	965.70787340	966.10906770	966.51022435	966.91134334	967.31242465	967.71346826	968.11447415	968.51544230	968.91637270	969.31726532	969.71812014	970.11893715	970.51971632	970.92045764	971.32116109	971.72182665	972.12245430	972.52304402	972.92359579	973.32410959	973.72458541	974.12502322	974.52542301	974.92578475	975.32610843	975.72639403	976.12664153	976.52685091	976.92702215	977.32715523	977.72725014	978.12730685	978.52732534	978.92730560	979.32724760	979.72715134	980.12701678	980.52684391	980.92663271	981.32638316	981.72609525	982.12576895	982.52540424	982.92500111	983.32455953	983.72407949	984.12356097	984.52300394	984.92240840	985.32177431	985.72110167	986.12039045	986.51964064	986.91885220	987.31802514	987.71715942	988.11625502	988.51531193	988.91433014	989.31330961	989.71225033	990.11115229	990.51001546	990.90883982	991.30762535	991.70637204	992.10507987	992.50374881	992.90237886	993.30096998	993.69952216	994.09803538	994.49650962	994.89494487	995.29334110	995.69169830	996.09001644	996.48829550	996.88653548	997.28473634	997.68289807	998.08102066	998.47910407	998.87714829	999.27515331	999.67311910	1000.07104565	1000.46893293	1000.86678093	1001.26458963	1001.66235901	1002.06008904	1002.45777972	1002.85543101	1003.25304291	1003.65061539	1004.04814844	1004.44564203	1004.84309615	1005.24051077	1005.63788588	1006.03522146	1006.43251749	1006.82977395	1007.22699082	1007.62416809	1008.02130573	1008.41840372	1008.81546205	1009.21248069	1009.60945963	1010.00639885	1010.40329832	1010.80015804	1011.19697798	1011.59375812	1011.99049844	1012.38719893	1012.78385955	1013.18048031	1013.57706117	1013.97360212	1014.37010314	1014.76656420	1015.16298530	1015.55936641	1015.95570751	1016.35200858	1016.74826960	1017.14449056	1017.54067144	1017.93681221	1018.33291286	1018.72897337	1019.12499372	1019.52097388	1019.91691385	1020.31281360
1427.66000000	1425.22000000	1425.28000000	1424.18000000	1423.94000000	1437.42000000	1456.26000000	1454.78000000	1468.58000000	1462.90000000	1448.84000000	1427.06000000	1440.88000000	1420.34000000	1417.48000000	1424.58000000	1432.24000000	1422.80000000	1427.44000000	1436.56000000	1456.98000000	1474.40000000	1471.92000000	1470.56000000	1462.04000000	1443.86000000	1425.04000000	1428.38000000	1430.24000000	1439.04000000	1441.88000000	1444.08000000	1450.40000000	1471.40000000	1476.26000000	1460.14000000	1468.68000000	1469.00000000	1457.50000000	1447.36000000	1456.12000000	1466.78000000	1461.70000000	1457.90000000	1476.08000000	1462.32000000	1439.38000000	1452.44000000	1451.82000000	1440.88000000	1449.78000000	1463.94000000	1461.52000000	1455.02000000	1457.44000000	1463.94000000	1456.88000000	1440.66000000	1447.56000000	1451.86000000	1458.90000000	1468.88000000	1474.26000000	1470.96000000	1461.30000000	1451.76000000	1442.54000000	1448.28000000	1462.14000000	1459.18000000	1452.60000000	1460.66000000	1454.34000000	1438.54000000	1442.84000000	1444.38000000	1433.92000000	1445.82000000	1445.28000000	1456.12000000	1464.72000000	1469.54000000	1470.46000000	1479.76000000	1469.84000000	1463.56000000	1463.28000000	1469.60000000	1461.64000000	1459.24000000	1451.70000000	1449.22000000	1438.66000000	1443.98000000	1454.84000000	1472.52000000	1471.56000000	1462.08000000	1462.48000000	1449.54000000	1421.78000000	1433.50000000	1456.58000000	1452.48000000	1457.66000000	1472.04000000	1472.00000000	1459.58000000	1465.78000000	1452.36000000	1458.04000000	1438.78000000	1458.84000000	1463.46000000	1469.32000000	1471.46000000	1481.58000000	1464.07000000	1467.97000000	1472.15000000	1483.23000000	1483.21000000	1487.62000000	1486.58000000	1505.20000000	1513.27000000	1534.01000000	1552.03000000	1562.83000000	1590.87000000	1620.00000000	1651.14000000	1677.44000000	1730.84000000	1777.74000000	1840.72000000	1913.80000000	2009.80000000	2100.78000000	2186.00000000	2277.62000000	2383.78000000	2497.48000000	2618.60000000	2765.86000000	2917.36000000	3054.20000000	3196.30000000	3346.22000000	3485.32000000	3627.30000000	3784.72000000	3925.26000000	4080.72000000	4228.62000000	4370.56000000	4512.32000000	4656.76000000	4793.76000000	4941.36000000	5095.80000000	5223.80000000	5368.60000000	5499.82000000	5642.42000000	5755.22000000	5903.52000000	6027.76000000	6163.98000000	6277.38000000	6400.82000000	6511.52000000	6630.90000000	6726.24000000	6853.94000000	6959.10000000	7053.06000000	7154.84000000	7265.34000000	7333.82000000	7440.00000000	7545.94000000	7650.32000000	7757.90000000	7869.26000000	7972.50000000	8087.02000000	8177.22000000	8270.36000000	8373.82000000	8481.62000000	8577.96000000	8683.10000000	8772.62000000	8854.30000000	8934.24000000	9003.52000000	9069.46000000	9138.12000000	9204.28000000	9274.50000000	9384.82000000	9503.16000000	9610.54000000	9719.82000000	9833.84000000	9909.54000000	9987.94000000	10070.74000000	10148.72000000	10223.72000000	10301.12000000	10361.62000000	10404.32000000	10444.62000000	10504.28000000	10623.86000000	10752.48000000	10897.06000000	11040.20000000	11162.84000000	11233.64000000	11292.54000000	11359.72000000	11448.46000000	11554.64000000	11652.34000000	11771.64000000	11900.02000000	12023.86000000	12114.22000000	12222.76000000	12324.34000000	12418.54000000	12510.46000000	12610.20000000	12686.04000000	12752.40000000	12827.32000000	12897.60000000	12966.64000000	13063.48000000	13161.54000000	13249.48000000	13352.20000000	13449.74000000	13536.14000000	13639.80000000	13736.28000000	13844.36000000	13971.60000000	14098.90000000	14236.40000000	14367.56000000	14463.44000000	14554.78000000	14656.60000000	14737.82000000	14832.32000000	14939.80000000	15040.10000000	15112.12000000	15194.98000000	15277.52000000	15359.68000000	15418.64000000	15492.44000000	15547.08000000	15620.36000000	15681.18000000	15781.32000000	15880.58000000	16000.78000000	16121.24000000	16275.00000000	16413.34000000	16567.38000000	16730.32000000	16887.90000000	17022.70000000	17159.76000000	17286.38000000	17397.42000000	17488.80000000	17555.60000000	17615.62000000	17659.74000000	17697.20000000	17735.98000000	17805.40000000	17877.60000000	17951.00000000	18018.46000000	18108.78000000	18185.80000000	18251.78000000	18339.40000000	18447.18000000	18549.90000000	18643.64000000	18760.22000000	18879.84000000	19001.26000000	19121.88000000	19252.66000000	19405.68000000	19553.28000000	19717.12000000	19860.72000000	20019.40000000	20150.84000000	20264.56000000	20353.66000000	20420.56000000	20457.14000000	20484.32000000	20505.82000000	20524.86000000	20545.78000000	20592.40000000	20650.30000000	20735.92000000	20823.62000000	20946.94000000	21074.42000000	21208.22000000	21362.42000000	21513.48000000	21669.02000000	21823.20000000	21970.96000000	22094.66000000	22214.22000000	22345.44000000	22494.26000000	22618.00000000	22732.66000000	22836.18000000	22915.52000000	22975.18000000	23036.88000000	23103.38000000	23192.68000000	23287.86000000	23375.80000000	23484.96000000	23583.88000000	23699.58000000	23806.72000000	23902.34000000	24005.18000000	24106.38000000	24175.22000000	24270.30000000	24385.10000000	24479.50000000	24593.98000000	24726.74000000	24844.12000000	24986.58000000	25158.50000000	25319.56000000	25500.02000000	25690.88000000	25881.12000000	26035.86000000	26170.40000000	26262.66000000	26348.44000000	26403.58000000	26467.44000000	26506.36000000	26537.92000000	26539.86000000	26549.38000000	26542.80000000	26585.38000000	26638.58000000	26719.58000000	26770.74000000	26835.64000000	26911.22000000	26993.84000000	27080.14000000	27228.04000000	27362.60000000	27494.30000000	27640.44000000	27782.04000000	27887.54000000	28001.66000000	28095.40000000	28183.54000000	28276.72000000	28379.08000000	28502.60000000	28648.32000000	28798.44000000	28946.88000000	29083.84000000	29202.62000000	29291.78000000	29345.82000000	29398.24000000	29424.40000000	29411.14000000	29353.44000000	29308.10000000	29292.74000000	29315.92000000	29377.82000000	29498.12000000	29613.78000000	29700.85000000	29780.25000000	29877.75000000	29996.85000000	30140.41000000	30279.20000000	30399.78000000	30507.62000000	30610.72000000	30716.48000000	30826.10000000	30959.46000000	31119.88000000	31284.86000000	31423.04000000	31531.90000000	31611.44000000	31681.28000000	31712.00000000	31743.64000000	31793.14000000	31853.68000000	31879.04000000	31900.44000000	31909.28000000	31905.40000000	31880.75000000	31852.07500000	31824.15500000	31830.27500000	31850.65500000	31907.98500000	31975.38000000	32039.00000000	32083.20000000	32166.34000000	32235.60000000	32319.56000000	32437.92000000	32566.04000000	32661.98000000	32788.12000000	32914.40000000	33058.94000000	33212.08000000	33373.88000000	33515.24000000	33665.08000000	33785.00000000	33912.54000000	34035.94000000	34157.18000000	34230.08000000	34278.08000000	34317.20000000	34344.14000000	34356.84000000	34414.78000000	34486.18000000	34517.28000000	34549.42000000	34558.34000000	34546.68000000	34525.20000000	34509.12000000	34487.08000000	34487.68000000	34468.72000000	34442.70000000	34441.62000000	34445.34000000	34457.60000000	34473.82000000	34523.00000000	34577.86000000	34658.36000000	34773.26000000	34931.98000000	35089.06000000	35273.12000000	35444.98000000	35588.62000000	35698.82000000	35815.70000000	35901.12000000	35962.68000000	36019.98000000	36102.42000000	36156.92000000	36207.26000000	36238.60000000	36259.00000000	36263.24000000	36258.36000000	36264.14000000	36280.40000000	36286.26000000	36278.08000000	36295.30000000	36291.94000000	36278.90000000	36277.62000000	36279.88000000	36269.24000000	36249.88000000	36281.96000000	36278.82000000	36295.68000000	36292.74000000	36306.20000000	36283.68000000	36297.70000000	36275.72000000	36293.44000000	36314.06000000	36329.56000000	36336.24000000	36370.82000000	36390.00000000	36419.46000000	36483.32000000	36568.06000000	36656.82000000	36768.46000000	36884.18000000	36978.50000000	37060.78000000	37148.72000000	37229.68000000	37295.98000000	37353.52000000	37414.12000000	37457.08000000	37461.80000000	37432.52000000	37388.42000000	37347.40000000	37278.04000000	37214.56000000	37158.14000000	37111.12000000	37043.76000000	36993.00000000	36952.38000000	36917.74000000	36890.04000000	36841.42000000	36788.70000000	36730.66000000	36663.00000000	36597.62000000	36552.02000000	36505.90000000	36437.36000000	36404.46000000	36367.56000000	36355.32000000	36374.74000000	36413.46000000	36478.10000000	36544.82000000	36648.02000000	36756.94000000	36865.80000000	36965.02000000	37061.66000000	37080.62000000	37079.06000000	37099.78000000	37091.42000000	37112.68000000	37159.30000000	37228.22000000	37298.16000000	37360.06000000	37386.28000000	37393.20000000	37354.90000000	37302.32000000	37246.50000000	37196.32000000	37154.08000000	37135.94000000	37126.64000000	37107.54000000	37091.14000000	37087.12000000	37069.83000000	37036.23000000	37009.39000000	36964.41000000	36919.51000000	36857.94000000	36821.78000000	36779.20000000	36737.44000000	36688.36000000	36636.80000000	36543.92000000	36462.50000000	36411.84000000	36359.00000000	36316.82000000	36298.44000000	36284.28000000	36236.76000000	36186.90000000	36185.10000000	36168.84000000	36150.06000000	36176.12000000	36213.58000000	36239.56000000	36295.32000000	36353.46000000	36380.38000000	36381.62000000	36370.18000000	36334.50000000	36301.66000000	36274.78000000	36275.02000000	36261.58000000	36259.76000000	36255.40000000	36246.52000000	36212.00000000	36155.54000000	36071.46000000	35966.36000000	35895.74000000	35788.64000000	35713.96000000	35646.84000000	35586.22000000	35478.12000000	35412.18000000	35342.56000000	35295.42000000	35256.38000000	35228.90000000	35223.50000000	35197.32000000	35138.90000000	35082.44000000	35048.58000000	34990.32000000	34947.60000000	34959.82000000	34946.24000000	34939.68000000	34943.16000000	34960.76000000	34940.68000000	34939.36000000	34915.50000000	34899.52000000	34845.12000000	34776.80000000	34727.98000000	34652.84000000	34580.68000000	34534.24000000	34508.28000000	34488.24000000	34471.22000000	34440.88000000	34441.70000000	34464.26000000	34476.38000000	34507.40000000	34550.60000000	34555.52000000	34510.78000000	34461.16000000	34378.74000000	34286.04000000	34187.48000000	34086.30000000	33968.98000000	33861.96000000	33733.54000000	33608.32000000	33483.74000000	33378.38000000	33279.96000000	33179.14000000	33071.90000000	32971.14000000	32844.58000000	32707.40000000	32586.08000000	32439.78000000	32311.02000000	32176.82000000	32066.08000000	31972.64000000	31923.50000000	31849.62000000	31825.40000000	31794.16000000	31753.76000000	31734.46000000	31767.32000000	31785.64000000	31834.34000000	31899.36000000	31949.90000000	31966.58000000	31977.16000000	31955.30000000	31896.74000000	31825.14000000	31749.86000000	31659.70000000	31546.40000000	31425.18000000	31250.06000000	31086.22000000	30906.56000000	30743.34000000	30603.32000000	30501.84000000	30398.54000000	30303.24000000	30235.18000000	30136.42000000	30033.36000000	29958.32000000	29921.12000000	29881.64000000	29885.38000000	29935.84000000	29965.22000000	29988.74000000	29996.96000000	29980.26000000	29925.52000000	29813.58000000	29650.06000000	29465.22000000	29283.46000000	29120.12000000	29053.66000000	29025.16000000	28997.72000000	28953.12000000	28834.98000000	28673.44000000	28531.28000000	28470.32000000	28441.16000000	28448.62000000	28438.88000000	28400.54000000	28300.14000000	28180.38000000	28094.36000000	28014.62000000	27918.60000000	27847.22000000	27814.68000000	27782.50000000	27737.66000000	27718.08000000	27659.50000000	27573.30000000	27470.02000000	27369.08000000	27239.84000000	27150.32000000	27065.14000000	26985.08000000	26908.26000000	26864.34000000	26809.10000000	26759.70000000	26733.64000000	26727.30000000	26721.96000000	26700.32000000	26671.66000000	26616.82000000	26559.92000000	26467.56000000	26362.90000000	26237.80000000	26101.88000000	25946.60000000	25799.24000000	25689.42000000	25601.12000000	25537.52000000	25496.36000000	25489.00000000	25462.28000000	25431.76000000	25503.60000000	25443.44000000	25348.48000000	25199.02000000	25048.16000000	24760.16000000	24597.64000000	24454.22000000	24353.04000000	24247.04000000	24147.34000000	24047.64000000	23929.90000000	23798.50000000	23650.64000000	23520.94000000	23382.20000000	23260.66000000	23170.52000000	23118.32000000	23045.96000000	22967.76000000	22857.06000000	22733.52000000	22586.80000000	22433.40000000	22291.38000000	22170.42000000	22038.58000000	21910.98000000	21819.92000000	21711.64000000	21618.52000000	21548.26000000	21497.36000000	21455.20000000	21429.40000000	21405.04000000	21377.34000000	21337.24000000	21276.44000000	21216.60000000	21113.90000000	21008.88000000	20866.88000000	20749.66000000	20616.50000000	20490.88000000	20370.34000000	20303.74000000	20202.54000000	20134.56000000	20082.72000000	20031.56000000	19984.58000000	19910.90000000	19835.04000000	19749.72000000	19664.02000000	19554.74000000	19488.70000000	19396.06000000	19333.88000000	19263.50000000	19177.08000000	19109.82000000	19077.36000000	19029.46000000	19001.82000000	19023.26000000	19020.54000000	19000.64000000	18976.90000000	18948.48000000	18889.48000000	18844.84000000	18784.23000000	18722.59000000	18654.09000000	18598.91000000	18512.93000000	18428.78000000	18357.48000000	18280.34000000	18173.26000000	18070.28000000	17977.24000000	17865.66000000	17727.96000000	17621.40000000	17529.12000000	17449.26000000	17373.58000000	17338.22000000	17273.66000000	17210.64000000	17114.84000000	17029.64000000	16907.04000000	16793.84000000	16670.16000000	16580.50000000	16509.78000000	16463.42000000	16446.88000000	16408.22000000	16358.50000000	16287.86000000	16226.16000000	16145.62000000	16119.82000000	16074.18000000	16022.62000000	15954.50000000	15896.04000000	15804.56000000	15724.08000000	15681.78000000	15629.42000000	15567.94000000	15501.94000000	15447.78000000	15391.34000000	15359.70000000	15308.42000000	15266.38000000	15226.16000000	15164.56000000	15098.74000000	15030.84000000	14958.12000000	14870.58000000	14765.96000000	14644.90000000	14549.94000000	14467.50000000	14369.82000000	14296.06000000	14196.76000000	14088.60000000	13964.42000000	13839.02000000	13702.76000000	13607.02000000	13500.26000000	13394.66000000	13313.72000000	13233.82000000	13123.92000000	13050.56000000	12964.96000000	12895.54000000	12804.98000000	12742.30000000	12653.12000000	12599.14000000	12515.88000000	12436.78000000	12363.74000000	12288.72000000	12193.72000000	12114.80000000	12072.54000000	12017.74000000	11969.26000000	11928.60000000	11883.58000000	11831.34000000	11781.80000000	11731.92000000	11683.72000000	11612.34000000	11503.44000000	11373.36000000	11228.12000000	11084.54000000	10989.88000000	10948.68000000	10972.64000000	11010.56000000	11047.30000000	11058.38000000	11040.14000000	10964.34000000	10893.52000000	10817.64000000	10749.44000000	10721.66000000	10655.30000000	10572.08000000	10480.30000000	10387.18000000	10276.64000000	10218.14000000	10168.46000000	10135.84000000	10109.36000000	10054.50000000	10008.34000000	9934.62000000	9871.80000000	9790.40000000	9702.68000000	9596.38000000	9525.74000000	9439.12000000	9348.88000000	9284.76000000	9242.58000000	9182.78000000	9125.36000000	9080.14000000	9014.18000000	8930.38000000	8867.16000000	8817.14000000	8746.54000000	8680.32000000	8622.38000000	8548.72000000	8469.46000000	8410.66000000	8342.52000000	8276.50000000	8217.64000000	8152.88000000	8085.86000000	8044.36000000	8003.44000000	7958.80000000	7920.36000000	7892.10000000	7840.00000000	7788.66000000	7726.48000000	7659.78000000	7599.76000000	7560.42000000	7516.96000000	7482.90000000	7461.42000000	7421.06000000	7381.76000000	7345.86000000	7319.78000000	7287.00000000	7265.94000000	7237.10000000	7201.48000000	7175.72000000	7158.74000000	7136.52000000	7113.88000000	7119.22000000	7116.22000000	7107.04000000	7110.92000000	7118.86000000	7111.62000000	7107.72000000	7125.98000000	7113.06000000	7083.72000000	7067.46000000	7058.30000000	7009.66000000	7005.10000000	7015.34000000	7022.86000000	7011.76000000	7001.44000000	6972.70000000	6929.68000000	6880.48000000	6833.22000000	6800.58000000	6754.70000000	6732.02000000	6685.80000000	6654.90000000	6596.04000000	6578.24000000	6536.72000000	6507.38000000	6448.50000000	6424.24000000	6352.84000000	6317.14000000	6269.90000000	6246.06000000	6209.82000000	6233.86000000	6187.04000000	6168.62000000	6118.20000000	6061.54000000	5971.68000000	5925.34000000	5867.50000000	5821.80000000	5783.68000000	5732.60000000	5684.86000000	5643.14000000	5596.14000000	5570.22000000	5527.30000000	5482.06000000	5428.52000000	5403.08000000	5347.32000000	5298.82000000	5252.68000000	5210.60000000	5163.92000000	5127.46000000	5104.42000000	5091.46000000	5046.90000000	5006.90000000	4988.84000000	4957.38000000	4940.34000000	4925.60000000	4911.40000000	4867.38000000	4823.66000000	4760.38000000	4728.14000000	4690.68000000	4667.40000000	4662.28000000	4671.78000000	4660.28000000	4662.98000000	4668.02000000	4660.20000000	4635.04000000	4647.02000000	4643.68000000	4610.76000000	4609.54000000	4594.88000000	4564.44000000	4535.34000000	4535.18000000	4492.18000000	4475.04000000	4458.48000000	4438.54000000	4413.38000000	4397.60000000	4394.06000000	4381.96000000	4378.52000000	4363.16000000	4357.82000000	4319.02000000	4285.46000000	4259.20000000	4233.24000000	4208.54000000	4184.84000000	4163.18000000	4126.98000000	4125.14000000	4117.96000000	4109.86000000	4098.30000000	4093.94000000	4058.68000000	4013.38000000	3977.84000000	3961.32000000	3923.38000000	3894.62000000	3896.94000000	3886.16000000	3867.36000000	3845.14000000	3841.08000000	3797.04000000	3769.16000000	3729.20000000	3721.46000000	3670.04000000	3644.46000000	3632.58000000	3613.06000000	3583.92000000	3579.22000000	3560.12000000	3528.02000000	3512.26000000	3503.36000000	3471.74000000	3446.64000000	3434.58000000	3424.24000000	3391.32000000	3363.44000000	3346.34000000	3305.68000000	3263.52000000	3238.04000000	3246.70000000	3229.86000000	3230.94000000	3242.12000000	3232.12000000	3219.20000000	3213.94000000	3203.46000000	3180.62000000	3169.64000000	3140.40000000	3131.16000000	3105.68000000	3111.66000000	3090.88000000	3084.46000000	3078.50000000	3091.70000000	3068.74000000	3077.82000000	3077.68000000	3063.56000000	3048.46000000	3048.12000000	3043.18000000	3037.68000000	3038.58000000	3031.74000000	3021.96000000	3007.76000000	2995.42000000	2982.88000000	2986.12000000	2981.76000000	2973.84000000	2984.64000000	2989.28000000	2975.54000000	2954.82000000	2949.76000000	2934.86000000	2938.78000000	2941.16000000	2942.26000000	2948.68000000	2933.78000000	2926.98000000	2938.22000000	2937.58000000	2935.34000000	2927.96000000	2903.14000000	2887.10000000	2875.96000000	2864.74000000	2872.60000000	2868.50000000	2846.82000000	2849.52000000	2834.22000000	2801.24000000	2796.24000000	2792.76000000	2769.38000000	2766.90000000	2770.48000000	2754.02000000	2736.36000000	2727.98000000	2719.54000000	2704.22000000	2685.04000000	2665.28000000	2656.40000000	2631.40000000	2628.00000000	2624.38000000	2614.86000000	2594.92000000	2580.76000000	2540.92000000	2521.30000000	2509.92000000	2503.22000000	2481.50000000	2482.70000000	2473.08000000	2463.22000000	2440.98000000	2440.00000000	2413.48000000	2389.70000000	2369.78000000	2352.58000000	2324.62000000	2332.94000000	2345.00000000	2330.10000000	2312.34000000	2311.76000000	2303.60000000	2299.38000000	2293.54000000	2289.48000000	2280.28000000	2272.86000000	2250.38000000	2249.16000000	2245.70000000	2244.18000000	2234.28000000	2240.26000000	2233.98000000	2226.20000000	2224.30000000	2225.56000000	2201.66000000	2212.58000000	2207.70000000	2196.88000000	2185.08000000	2183.06000000	2170.00000000	2181.54000000	2175.44000000	2171.96000000	2156.22000000	2146.48000000	2156.46000000	2139.32000000	2132.26000000	2137.20000000	2123.30000000	2092.40000000	2109.26000000	2101.84000000	2094.10000000	2089.74000000	2092.88000000	2087.58000000	2089.44000000	2084.50000000	2074.26000000	2060.42000000	2035.24000000	2036.44000000	2029.92000000	2043.42000000	2058.76000000	2077.74000000	2065.08000000	2089.82000000	2091.70000000	2082.24000000	2068.40000000	2066.78000000	2048.66000000	2026.46000000	2018.60000000	2017.98000000	2025.70000000	2021.22000000	2023.86000000	2017.40000000	2026.02000000	2000.30000000	1977.48000000	1965.76000000	1961.56000000	1956.24000000	1962.72000000	1984.30000000	1989.20000000	1984.06000000	1975.96000000	1967.58000000	1947.16000000	1941.42000000	1937.56000000	1943.20000000	1938.26000000	1937.74000000	1932.56000000	1926.58000000	1883.78000000	1873.60000000	1859.78000000	1850.94000000	1837.26000000	1842.74000000	1836.94000000	1839.80000000	1828.92000000	1820.76000000	1831.32000000	1823.00000000	1817.92000000	1817.28000000	1813.56000000	1792.08000000	1806.50000000	1811.48000000	1799.84000000	1804.16000000	1814.10000000	1792.04000000	1779.78000000	1771.42000000	1767.34000000	1760.80000000	1762.58000000	1754.56000000	1768.84000000	1760.44000000	1758.68000000	1760.22000000	1751.58000000	1748.82000000	1743.14000000	1718.86000000	1721.26000000	1719.34000000	1701.56000000	1701.48000000	1706.42000000	1687.50000000	1698.82000000	1720.22000000	1716.52000000	1721.10000000	1732.70000000	1722.94000000	1688.94000000	1700.04000000	1694.30000000	1674.68000000	1665.86000000	1688.74000000	1689.04000000	1685.00000000	1686.08000000	1670.36000000	1648.28000000	1635.74000000	1632.40000000	1643.44000000	1649.46000000	1651.78000000	1634.94000000	1647.58000000	1635.76000000	1636.86000000	1647.06000000	1659.16000000	1652.16000000	1639.96000000	1648.36000000	1635.50000000	1633.62000000	1636.50000000	1637.82000000	1642.02000000	1636.56000000	1632.76000000	1625.30000000	1635.78000000	1634.78000000	1625.82000000	1627.98000000	1626.18000000	1626.16000000	1616.96000000	1642.42000000	1632.46000000	1628.64000000	1614.84000000	1610.50000000	1599.28000000	1599.16000000	1585.04000000	1607.18000000	1594.14000000	1585.08000000	1589.04000000	1586.94000000	1567.56000000	1573.42000000	1586.50000000	1585.74000000	1610.04000000	1608.16000000	1606.64000000	1581.76000000	1572.42000000	1551.52000000	1550.92000000	1546.00000000	1552.22000000	1542.52000000	1551.36000000	1549.02000000	1546.88000000	1539.38000000	1567.80000000	1561.82000000	1563.38000000	1562.20000000	1561.18000000	1543.02000000	1550.80000000	1543.96000000	1558.38000000	1568.00000000	1574.62000000	1572.46000000	1572.72000000	1550.58000000	1544.50000000	1548.96000000	1531.14000000	1538.82000000	1557.34000000	1556.40000000	1538.88000000	1547.14000000	1527.58000000	1517.48000000	1541.96000000	1552.24000000	1553.76000000	1565.38000000	1566.68000000	1536.90000000	1525.32000000	1523.58000000	1515.54000000	1512.06000000	1506.74000000	1520.56000000	1517.16000000	1535.50000000	1542.96000000	1554.46000000	1549.26000000	1548.24000000	1531.46000000	1522.86000000	1520.12000000	1521.46000000	1501.92000000	1509.24000000	1503.04000000	1509.24000000	1518.04000000	1522.78000000	1513.50000000	1517.04000000	1517.40000000	1479.36000000	1483.26000000	1488.10000000	1486.44000000	1497.30000000	1514.88000000	1522.80000000	1528.54000000	1530.40000000	1522.48000000	1512.98000000	1513.30000000	1504.04000000	1502.42000000	1503.72000000	1519.66000000	1511.34000000	1505.30000000	1507.36000000	1491.72000000	1489.36000000	1487.72000000	1493.55000000	1489.03333333
