Time1=100ms:Average1=5:Objective=10X:Aperture=1: (11/28/2018 9:49:41 AM)
11/28/2018 9:49:41 AM
Reflectance
10X
Ap#: 1
Avg1: 5.000000
Avg2: 0.000000
Int.Time1:100.000000
Int.Time2:0.000000
420.190645	6.384077
420.624620	6.315868
421.058582	6.240585
421.492531	6.172933
421.926468	6.111902
422.360391	6.057391
422.794301	6.020253
423.228199	5.979441
423.662083	5.945347
424.095955	5.930433
424.529813	5.896303
424.963658	5.869365
425.397491	5.850957
425.831310	5.825089
426.265116	5.804009
426.698909	5.787102
427.132689	5.769383
427.566455	5.746451
428.000209	5.732364
428.433949	5.722985
428.867676	5.717488
429.301389	5.712312
429.735090	5.711454
430.168777	5.701824
430.602451	5.693588
431.036111	5.690743
431.469759	5.690255
431.903392	5.683536
432.337013	5.672946
432.770620	5.660428
433.204213	5.657793
433.637794	5.658788
434.071360	5.647251
434.504914	5.644574
434.938453	5.647839
435.371979	5.645243
435.805492	5.645237
436.238991	5.645707
436.672477	5.647819
437.105949	5.649481
437.539407	5.641936
437.972852	5.642674
438.406283	5.643625
438.839700	5.636006
439.273104	5.634109
439.706494	5.632728
440.139871	5.634737
440.573233	5.637453
441.006582	5.641610
441.439917	5.644507
441.873238	5.645281
442.306546	5.648648
442.739839	5.646121
443.173119	5.646399
443.606385	5.644394
444.039636	5.651529
444.472874	5.655677
444.906099	5.660047
445.339309	5.668372
445.772505	5.674058
446.205687	5.678541
446.638855	5.687818
447.072009	5.693236
447.505149	5.704950
447.938275	5.715418
448.371387	5.726522
448.804485	5.737392
449.237569	5.743227
449.670638	5.747053
450.103694	5.755150
450.536735	5.756133
450.969762	5.761206
451.402774	5.766524
451.835773	5.773297
452.268757	5.779496
452.701727	5.786041
453.134683	5.794078
453.567624	5.797198
454.000551	5.802268
454.433464	5.804154
454.866362	5.810542
455.299246	5.819742
455.732116	5.821265
456.164971	5.825889
456.597811	5.829831
457.030638	5.833044
457.463449	5.833600
457.896246	5.832849
458.329029	5.837813
458.761797	5.838223
459.194551	5.841893
459.627290	5.844944
460.060014	5.842344
460.492724	5.844206
460.925419	5.846843
461.358099	5.852237
461.790765	5.856024
462.223416	5.861148
462.656052	5.869945
463.088674	5.875641
463.521281	5.880073
463.953873	5.889765
464.386450	5.899909
464.819012	5.908457
465.251560	5.913035
465.684093	5.922998
466.116611	5.931898
466.549114	5.941149
466.981602	5.951903
467.414075	5.962140
467.846533	5.969933
468.278977	5.976249
468.711405	5.984301
469.143818	5.996296
469.576216	6.003443
470.008600	6.008130
470.440968	6.017757
470.873321	6.023434
471.305659	6.033052
471.737982	6.038168
472.170289	6.047073
472.602582	6.052202
473.034859	6.060187
473.467122	6.067203
473.899369	6.073661
474.331600	6.076251
474.763817	6.076432
475.196018	6.078749
475.628204	6.082031
476.060375	6.082934
476.492530	6.083388
476.924670	6.084949
477.356795	6.084169
477.788904	6.083091
478.220998	6.080125
478.653076	6.077765
479.085139	6.080877
479.517186	6.079423
479.949219	6.081685
480.381235	6.082689
480.813236	6.084723
481.245221	6.093413
481.677191	6.101062
482.109146	6.109056
482.541084	6.116847
482.973008	6.131021
483.404915	6.149381
483.836807	6.168611
484.268683	6.192010
484.700544	6.214614
485.132388	6.240918
485.564217	6.263919
485.996031	6.293059
486.427828	6.325583
486.859610	6.362031
487.291376	6.404187
487.723126	6.444977
488.154860	6.494599
488.586579	6.544640
489.018281	6.592483
489.449968	6.645223
489.881639	6.701761
490.313293	6.760374
490.744932	6.819979
491.176555	6.882884
491.608162	6.946075
492.039753	7.013216
492.471328	7.074503
492.902886	7.138796
493.334429	7.198447
493.765956	7.260131
494.197466	7.319472
494.628960	7.376414
495.060439	7.433641
495.491901	7.490534
495.923347	7.548047
496.354776	7.606184
496.786190	7.666348
497.217587	7.728827
497.648968	7.794523
498.080332	7.863691
498.511681	7.933902
498.943013	8.012707
499.374328	8.091840
499.805628	8.169761
500.236911	8.250977
500.668177	8.331282
501.099427	8.417418
501.530661	8.493785
501.961878	8.571871
502.393079	8.652507
502.824264	8.726535
503.255431	8.799289
503.686583	8.868839
504.117717	8.937131
504.548835	9.001672
504.979937	9.069221
505.411022	9.135274
505.842090	9.202268
506.273142	9.270061
506.704177	9.342633
507.135195	9.412818
507.566197	9.485687
507.997182	9.562629
508.428150	9.637874
508.859102	9.715955
509.290036	9.793035
509.720954	9.869890
510.151855	9.944713
510.582739	10.018740
511.013607	10.092965
511.444457	10.160361
511.875291	10.228258
512.306107	10.295994
512.736907	10.364613
513.167690	10.432458
513.598456	10.498656
514.029205	10.564657
514.459936	10.634236
514.890651	10.708598
515.321349	10.782109
515.752030	10.861882
516.182693	10.951059
516.613340	11.044147
517.043969	11.142317
517.474582	11.246655
517.905177	11.356440
518.335755	11.470200
518.766315	11.588938
519.196859	11.713328
519.627385	11.839432
520.057894	11.966367
520.488386	12.099490
520.918860	12.229480
521.349318	12.360501
521.779757	12.496401
522.210180	12.626071
522.640585	12.759376
523.070973	12.892033
523.501343	13.022717
523.931696	13.150037
524.362031	13.274983
524.792349	13.405396
525.222650	13.533503
525.652933	13.659427
526.083198	13.783194
526.513446	13.912539
526.943677	14.040293
527.373890	14.170909
527.804085	14.303950
528.234262	14.439705
528.664422	14.582769
529.094565	14.732277
529.524689	14.885609
529.954796	15.050625
530.384885	15.223662
530.814957	15.406842
531.245011	15.600246
531.675047	15.810373
532.105065	16.032267
532.535065	16.266969
532.965048	16.521749
533.395013	16.797271
533.824959	17.089657
534.254888	17.409846
534.684799	17.765009
535.114693	18.134822
535.544568	18.523174
535.974425	18.926496
536.404264	19.352192
536.834086	19.793819
537.263889	20.255980
537.693674	20.732243
538.123441	21.221068
538.553190	21.724806
538.982921	22.235120
539.412634	22.754262
539.842329	23.281123
540.272006	23.814664
540.701664	24.346017
541.131304	24.875841
541.560926	25.416920
541.990530	25.946954
542.420116	26.468979
542.849683	26.980635
543.279232	27.485039
543.708763	27.973550
544.138275	28.449412
544.567769	28.910520
544.997245	29.354661
545.426702	29.783483
545.856141	30.197641
546.285562	30.600103
546.714964	30.982854
547.144347	31.356552
547.573713	31.708597
548.003059	32.037247
548.432387	32.354680
548.861697	32.662771
549.290988	32.966697
549.720260	33.254116
550.149514	33.547159
550.578750	33.826371
551.007966	34.099418
551.437164	34.364295
551.866344	34.630509
552.295504	34.895229
552.724646	35.163724
553.153769	35.426789
553.582874	35.699492
554.011960	35.977076
554.441027	36.256322
554.870075	36.524727
555.299104	36.800223
555.728115	37.081968
556.157106	37.374856
556.586079	37.652402
557.015033	37.941908
557.443968	38.233061
557.872884	38.524850
558.301781	38.809241
558.730659	39.100075
559.159518	39.388640
559.588358	39.673928
560.017180	39.957013
560.445982	40.237715
560.874765	40.523774
561.303528	40.808109
561.732273	41.089282
562.160999	41.368305
562.589705	41.639885
563.018393	41.909704
563.447061	42.169683
563.875710	42.418923
564.304340	42.669075
564.732950	42.913204
565.161542	43.155244
565.590114	43.395762
566.018666	43.624446
566.447200	43.846264
566.875714	44.060522
567.304208	44.268077
567.732684	44.468132
568.161140	44.665520
568.589576	44.849447
569.017993	45.021857
569.446391	45.183396
569.874769	45.344608
570.303128	45.486205
570.731467	45.621726
571.159787	45.756085
571.588087	45.882473
572.016368	45.998579
572.444629	46.104572
572.872870	46.212476
573.301092	46.314887
573.729294	46.409307
574.157476	46.494014
574.585639	46.577126
575.013782	46.658663
575.441906	46.735659
575.870009	46.814079
576.298093	46.883571
576.726157	46.953879
577.154202	47.025112
577.582226	47.091907
578.010231	47.163724
578.438216	47.225358
578.866181	47.290576
579.294126	47.363380
579.722051	47.436717
580.149957	47.516369
580.577842	47.594352
581.005707	47.679765
581.433553	47.756656
581.861378	47.851594
582.289184	47.948992
582.716969	48.041282
583.144734	48.140847
583.572479	48.250057
584.000205	48.353078
584.427910	48.463131
584.855594	48.570881
585.283259	48.676702
585.710904	48.783739
586.138528	48.886389
586.566132	48.984108
586.993716	49.081200
587.421280	49.173487
587.848823	49.263931
588.276346	49.347257
588.703849	49.421105
589.131332	49.487190
589.558794	49.549441
589.986236	49.591181
590.413657	49.628653
590.841058	49.650141
591.268438	49.651198
591.695799	49.641646
592.123138	49.618089
592.550458	49.580404
592.977756	49.529768
593.405034	49.455926
593.832292	49.371838
594.259529	49.269671
594.686746	49.163410
595.113942	49.040100
595.541117	48.904180
595.968272	48.766169
596.395406	48.618818
596.822519	48.459677
597.249612	48.299693
597.676684	48.123543
598.103735	47.948598
598.530766	47.767000
598.957775	47.590821
599.384764	47.404699
599.811733	47.222243
600.238680	47.037513
600.665606	46.853403
601.092512	46.663187
601.519397	46.469971
601.946261	46.289911
602.373104	46.108614
602.799926	45.930063
603.226727	45.752197
603.653507	45.577034
604.080266	45.409509
604.507004	45.246828
604.933721	45.092397
605.360417	44.942628
605.787092	44.791255
606.213746	44.643631
606.640379	44.506620
607.066991	44.375430
607.493581	44.251967
607.920150	44.134612
608.346699	44.017019
608.773226	43.908136
609.199731	43.797631
609.626216	43.689668
610.052679	43.584008
610.479121	43.482065
610.905542	43.379422
611.331941	43.280058
611.758319	43.189355
612.184676	43.090573
612.611011	42.991404
613.037325	42.890493
613.463617	42.793052
613.889888	42.690648
614.316138	42.584919
614.742366	42.480567
615.168573	42.372049
615.594758	42.263387
616.020921	42.158794
616.447063	42.059198
616.873184	41.956762
617.299283	41.852760
617.725360	41.743721
618.151416	41.638112
618.577450	41.528414
619.003462	41.416733
619.429453	41.307489
619.855422	41.194888
620.281369	41.079143
620.707295	40.962864
621.133199	40.836356
621.559081	40.711999
621.984941	40.576957
622.410779	40.442148
622.836596	40.292264
623.262391	40.138250
623.688163	39.970692
624.113914	39.795604
624.539644	39.606092
624.965351	39.403330
625.391036	39.188382
625.816699	38.964487
626.242340	38.724111
626.667960	38.466546
627.093557	38.194597
627.519132	37.904937
627.944685	37.602546
628.370216	37.285574
628.795725	36.953046
629.221212	36.596333
629.646677	36.229646
630.072119	35.843821
630.497540	35.446969
630.922938	35.044570
631.348314	34.624701
631.773668	34.195418
632.198999	33.766889
632.624308	33.334764
633.049595	32.902367
633.474860	32.474924
633.900102	32.047680
634.325322	31.632436
634.750520	31.221976
635.175695	30.817566
635.600848	30.420672
636.025978	30.035159
636.451086	29.659791
636.876171	29.297897
637.301234	28.948155
637.726275	28.608663
638.151293	28.281167
638.576288	27.965124
639.001261	27.660808
639.426211	27.369667
639.851139	27.093749
640.276044	26.834528
640.700927	26.592821
641.125787	26.370235
641.550624	26.159202
641.975438	25.963757
642.400230	25.789075
642.824999	25.631333
643.249745	25.492597
643.674469	25.365228
644.099169	25.253717
644.523847	25.155029
644.948502	25.068561
645.373135	24.990796
645.797744	24.917404
646.222330	24.851417
646.646894	24.787121
647.071435	24.725801
647.495953	24.664025
647.920447	24.600387
648.344919	24.535330
648.769368	24.468350
649.193794	24.399885
649.618197	24.322817
650.042576	24.244270
650.466933	24.159805
650.891267	24.069268
651.315577	23.974869
651.739864	23.877860
652.164129	23.778407
652.588370	23.671314
653.012587	23.558711
653.436782	23.441778
653.860953	23.324641
654.285102	23.201810
654.709226	23.079041
655.133328	22.956235
655.557406	22.834711
655.981461	22.710381
656.405493	22.590416
656.829501	22.476637
657.253486	22.368273
657.677448	22.265375
658.101386	22.177225
658.525301	22.094523
658.949192	22.028632
659.373060	21.974673
659.796904	21.934861
660.220725	21.910020
660.644522	21.904843
661.068296	21.913068
661.492046	21.939774
661.915772	21.985621
662.339475	22.046765
662.763154	22.124758
663.186810	22.214697
663.610442	22.321812
664.034050	22.447004
664.457635	22.589122
664.881196	22.745710
665.304733	22.915913
665.728247	23.105990
666.151736	23.309697
666.575202	23.528840
666.998644	23.758988
667.422062	24.002899
667.845457	24.257676
668.268827	24.525036
668.692174	24.801883
669.115496	25.088531
669.538795	25.383446
669.962070	25.686319
670.385321	25.995412
670.808547	26.309317
671.231750	26.618192
671.654929	26.929555
672.078084	27.235222
672.501214	27.534927
672.924321	27.830979
673.347404	28.117371
673.770462	28.384330
674.193496	28.647800
674.616506	28.897968
675.039492	29.123243
675.462454	29.336466
675.885391	29.534531
676.308305	29.721063
676.731194	29.888865
677.154058	30.039752
677.576899	30.167583
677.999715	30.278128
678.422507	30.369305
678.845274	30.439821
679.268017	30.491081
679.690736	30.525848
680.113430	30.544513
680.536100	30.542791
680.958746	30.526023
681.381367	30.490859
681.803963	30.437194
682.226535	30.372015
682.649083	30.292230
683.071605	30.201289
683.494104	30.099337
683.916578	29.989382
684.339027	29.871766
684.761451	29.746331
685.183851	29.615104
685.606227	29.482568
686.028577	29.346454
686.450903	29.211978
686.873204	29.079462
687.295481	28.940659
687.717733	28.805138
688.139959	28.677297
688.562162	28.550074
688.984339	28.426400
689.406492	28.305274
689.828619	28.190867
690.250722	28.079083
690.672800	27.976324
691.094853	27.880205
691.516881	27.789422
691.938884	27.706380
692.360863	27.627799
692.782816	27.557730
693.204744	27.495407
693.626647	27.441866
694.048526	27.395825
694.470379	27.360925
694.892207	27.336535
695.314010	27.317297
695.735788	27.307220
696.157540	27.303176
696.579268	27.306610
697.000970	27.316964
697.422648	27.333595
697.844300	27.358535
698.265926	27.394368
698.687528	27.431602
699.109104	27.475340
699.530655	27.520075
699.952181	27.573217
