Time1=100ms:Average1=5:Objective=10X:Aperture=1: (11/21/2018 10:19:35 AM)
11/21/2018 10:19:35 AM
Reflectance
10X
Ap#: 1
Avg1: 5.000000
Avg2: 0.000000
Int.Time1:100.000000
Int.Time2:0.000000
420.190645	15.092260
420.624620	15.029676
421.058582	14.974527
421.492531	14.921462
421.926468	14.851439
422.360391	14.799586
422.794301	14.745939
423.228199	14.710586
423.662083	14.681259
424.095955	14.643645
424.529813	14.625654
424.963658	14.590973
425.397491	14.567161
425.831310	14.548214
426.265116	14.519843
426.698909	14.495694
427.132689	14.477832
427.566455	14.447099
428.000209	14.433757
428.433949	14.408366
428.867676	14.387041
429.301389	14.361200
429.735090	14.330413
430.168777	14.285958
430.602451	14.254924
431.036111	14.204576
431.469759	14.166207
431.903392	14.119921
432.337013	14.079082
432.770620	14.010704
433.204213	13.968300
433.637794	13.928728
434.071360	13.890950
434.504914	13.853508
434.938453	13.814744
435.371979	13.778829
435.805492	13.731456
436.238991	13.681306
436.672477	13.630037
437.105949	13.578388
437.539407	13.533993
437.972852	13.470753
438.406283	13.415421
438.839700	13.340804
439.273104	13.277739
439.706494	13.212929
440.139871	13.139152
440.573233	13.055681
441.006582	12.982127
441.439917	12.900893
441.873238	12.817501
442.306546	12.732903
442.739839	12.648368
443.173119	12.562108
443.606385	12.476696
444.039636	12.395846
444.472874	12.321335
444.906099	12.243075
445.339309	12.165375
445.772505	12.094429
446.205687	12.027544
446.638855	11.956458
447.072009	11.880253
447.505149	11.807952
447.938275	11.731748
448.371387	11.657478
448.804485	11.586308
449.237569	11.522952
449.670638	11.459662
450.103694	11.387423
450.536735	11.315650
450.969762	11.254787
451.402774	11.192703
451.835773	11.127272
452.268757	11.072133
452.701727	11.016295
453.134683	10.968833
453.567624	10.935058
454.000551	10.901196
454.433464	10.873756
454.866362	10.843754
455.299246	10.828751
455.732116	10.805536
456.164971	10.786885
456.597811	10.778881
457.030638	10.776650
457.463449	10.767246
457.896246	10.758110
458.329029	10.751579
458.761797	10.752769
459.194551	10.749549
459.627290	10.745566
460.060014	10.741026
460.492724	10.748429
460.925419	10.749829
461.358099	10.755496
461.790765	10.762567
462.223416	10.766995
462.656052	10.776232
463.088674	10.790477
463.521281	10.813996
463.953873	10.839573
464.386450	10.851380
464.819012	10.871042
465.251560	10.898973
465.684093	10.925425
466.116611	10.953897
466.549114	10.979222
466.981602	11.002581
467.414075	11.027841
467.846533	11.051661
468.278977	11.075318
468.711405	11.092804
469.143818	11.116628
469.576216	11.140883
470.008600	11.156952
470.440968	11.172007
470.873321	11.187330
471.305659	11.202005
471.737982	11.216101
472.170289	11.221813
472.602582	11.224741
473.034859	11.232012
473.467122	11.243406
473.899369	11.243601
474.331600	11.248813
474.763817	11.251002
475.196018	11.251117
475.628204	11.258132
476.060375	11.262408
476.492530	11.262376
476.924670	11.262316
477.356795	11.254054
477.788904	11.253377
478.220998	11.247734
478.653076	11.240172
479.085139	11.227868
479.517186	11.217046
479.949219	11.198328
480.381235	11.178054
480.813236	11.157406
481.245221	11.134795
481.677191	11.107955
482.109146	11.082058
482.541084	11.050540
482.973008	11.013585
483.404915	10.973440
483.836807	10.927732
484.268683	10.880303
484.700544	10.835150
485.132388	10.783408
485.564217	10.735792
485.996031	10.689405
486.427828	10.645166
486.859610	10.597326
487.291376	10.553895
487.723126	10.508667
488.154860	10.464442
488.586579	10.425221
489.018281	10.382456
489.449968	10.342754
489.881639	10.308614
490.313293	10.271312
490.744932	10.237098
491.176555	10.204681
491.608162	10.173726
492.039753	10.145763
492.471328	10.120039
492.902886	10.092286
493.334429	10.071010
493.765956	10.048308
494.197466	10.030818
494.628960	10.013062
495.060439	10.002725
495.491901	9.993740
495.923347	9.990449
496.354776	9.985682
496.786190	9.991021
497.217587	10.002765
497.648968	10.019291
498.080332	10.038550
498.511681	10.061434
498.943013	10.091508
499.374328	10.122870
499.805628	10.156532
500.236911	10.196245
500.668177	10.240032
501.099427	10.293126
501.530661	10.351707
501.961878	10.411420
502.393079	10.479947
502.824264	10.551183
503.255431	10.624592
503.686583	10.703856
504.117717	10.791576
504.548835	10.877011
504.979937	10.970345
505.411022	11.065113
505.842090	11.163943
506.273142	11.264842
506.704177	11.374151
507.135195	11.487253
507.566197	11.607201
507.997182	11.728326
508.428150	11.853708
508.859102	11.986465
509.290036	12.122747
509.720954	12.272936
510.151855	12.419965
510.582739	12.568894
511.013607	12.726606
511.444457	12.888354
511.875291	13.052841
512.306107	13.221404
512.736907	13.397083
513.167690	13.578312
513.598456	13.768128
514.029205	13.963122
514.459936	14.163345
514.890651	14.371661
515.321349	14.588808
515.752030	14.812189
516.182693	15.040562
516.613340	15.275542
517.043969	15.516175
517.474582	15.756428
517.905177	16.004581
518.335755	16.250558
518.766315	16.504951
519.196859	16.751007
519.627385	16.999029
520.057894	17.245571
520.488386	17.490214
520.918860	17.733858
521.349318	17.984268
521.779757	18.239072
522.210180	18.497108
522.640585	18.754156
523.070973	19.012305
523.501343	19.274177
523.931696	19.537599
524.362031	19.803032
524.792349	20.073212
525.222650	20.353687
525.652933	20.627882
526.083198	20.907742
526.513446	21.188706
526.943677	21.462230
527.373890	21.740760
527.804085	22.022044
528.234262	22.306480
528.664422	22.587356
529.094565	22.871034
529.524689	23.155744
529.954796	23.440143
530.384885	23.719396
530.814957	24.010113
531.245011	24.300810
531.675047	24.589269
532.105065	24.875643
532.535065	25.169428
532.965048	25.466071
533.395013	25.758994
533.824959	26.054428
534.254888	26.345686
534.684799	26.646370
535.114693	26.943472
535.544568	27.237078
535.974425	27.527983
536.404264	27.814202
536.834086	28.095959
537.263889	28.379762
537.693674	28.654258
538.123441	28.920502
538.553190	29.181850
538.982921	29.439873
539.412634	29.695030
539.842329	29.949556
540.272006	30.204636
540.701664	30.450036
541.131304	30.685596
541.560926	30.913609
541.990530	31.137969
542.420116	31.363447
542.849683	31.584662
543.279232	31.803830
543.708763	32.017726
544.138275	32.221073
544.567769	32.425668
544.997245	32.631369
545.426702	32.835720
545.856141	33.044276
546.285562	33.251076
546.714964	33.457271
547.144347	33.660807
547.573713	33.875599
548.003059	34.077836
548.432387	34.283246
548.861697	34.485079
549.290988	34.693346
549.720260	34.902658
550.149514	35.113882
550.578750	35.312512
551.007966	35.512103
551.437164	35.711394
551.866344	35.902234
552.295504	36.091980
552.724646	36.279054
553.153769	36.461321
553.582874	36.637442
554.011960	36.815685
554.441027	36.987300
554.870075	37.152857
555.299104	37.314584
555.728115	37.457337
556.157106	37.594266
556.586079	37.719917
557.015033	37.850388
557.443968	37.973581
557.872884	38.087360
558.301781	38.196377
558.730659	38.304441
559.159518	38.404923
559.588358	38.506134
560.017180	38.609053
560.445982	38.710807
560.874765	38.806383
561.303528	38.913662
561.732273	39.010096
562.160999	39.112992
562.589705	39.210916
563.018393	39.305803
563.447061	39.407236
563.875710	39.511618
564.304340	39.615497
564.732950	39.714403
565.161542	39.820393
565.590114	39.924764
566.018666	40.027604
566.447200	40.135803
566.875714	40.242599
567.304208	40.342518
567.732684	40.452236
568.161140	40.556058
568.589576	40.657663
569.017993	40.763294
569.446391	40.857509
569.874769	40.955743
570.303128	41.046004
570.731467	41.130768
571.159787	41.210678
571.588087	41.284274
572.016368	41.353592
572.444629	41.419566
572.872870	41.477253
573.301092	41.524112
573.729294	41.568752
574.157476	41.608337
574.585639	41.634187
575.013782	41.662893
575.441906	41.682385
575.870009	41.702615
576.298093	41.719830
576.726157	41.730239
577.154202	41.744288
577.582226	41.758948
578.010231	41.778553
578.438216	41.794951
578.866181	41.817472
579.294126	41.843046
579.722051	41.869066
580.149957	41.900601
580.577842	41.930433
581.005707	41.964068
581.433553	42.000737
581.861378	42.048456
582.289184	42.091061
582.716969	42.140652
583.144734	42.193758
583.572479	42.249944
584.000205	42.303905
584.427910	42.358182
584.855594	42.410392
585.283259	42.459690
585.710904	42.516051
586.138528	42.559038
586.566132	42.609016
586.993716	42.651985
587.421280	42.687365
587.848823	42.723225
588.276346	42.752294
588.703849	42.776547
589.131332	42.796720
589.558794	42.811561
589.986236	42.810482
590.413657	42.805254
590.841058	42.793453
591.268438	42.774631
591.695799	42.747884
592.123138	42.715360
592.550458	42.678518
592.977756	42.631241
593.405034	42.577298
593.832292	42.524021
594.259529	42.462833
594.686746	42.404238
595.113942	42.337558
595.541117	42.276228
595.968272	42.210897
596.395406	42.148014
596.822519	42.087536
597.249612	42.034879
597.676684	41.988628
598.103735	41.946677
598.530766	41.913279
598.957775	41.873844
599.384764	41.850750
599.811733	41.823813
600.238680	41.804315
600.665606	41.795527
601.092512	41.789937
601.519397	41.791612
601.946261	41.796497
602.373104	41.800694
602.799926	41.812214
603.226727	41.823579
603.653507	41.832327
604.080266	41.841662
604.507004	41.847871
604.933721	41.853667
605.360417	41.863950
605.787092	41.859488
606.213746	41.854704
606.640379	41.849193
607.066991	41.837890
607.493581	41.820166
607.920150	41.798624
608.346699	41.766826
608.773226	41.732436
609.199731	41.696361
609.626216	41.645670
610.052679	41.588085
610.479121	41.517937
610.905542	41.437228
611.331941	41.347756
611.758319	41.249299
612.184676	41.138873
612.611011	41.022620
613.037325	40.910387
613.463617	40.786479
613.889888	40.653869
614.316138	40.518831
614.742366	40.370528
615.168573	40.220851
615.594758	40.070214
616.020921	39.911402
616.447063	39.762785
616.873184	39.614775
617.299283	39.463612
617.725360	39.323859
618.151416	39.183190
618.577450	39.042885
619.003462	38.908951
619.429453	38.772989
619.855422	38.640828
620.281369	38.512602
620.707295	38.393670
621.133199	38.272073
621.559081	38.159729
621.984941	38.046808
622.410779	37.934582
622.836596	37.822890
623.262391	37.712710
623.688163	37.606452
624.113914	37.503900
624.539644	37.400146
624.965351	37.290422
625.391036	37.185843
625.816699	37.080789
626.242340	36.963951
626.667960	36.843742
627.093557	36.725197
627.519132	36.597276
627.944685	36.468689
628.370216	36.330231
628.795725	36.184895
629.221212	36.033176
629.646677	35.870394
630.072119	35.697507
630.497540	35.521344
630.922938	35.326504
631.348314	35.133400
631.773668	34.925601
632.198999	34.711277
632.624308	34.497798
633.049595	34.274516
633.474860	34.044140
633.900102	33.804220
634.325322	33.566476
634.750520	33.323282
635.175695	33.078543
635.600848	32.831584
636.025978	32.583979
636.451086	32.329064
636.876171	32.074740
637.301234	31.815969
637.726275	31.553881
638.151293	31.291921
638.576288	31.027443
639.001261	30.758063
639.426211	30.482865
639.851139	30.208300
640.276044	29.921608
640.700927	29.634922
641.125787	29.343223
641.550624	29.046193
641.975438	28.748640
642.400230	28.446024
642.824999	28.141661
643.249745	27.833993
643.674469	27.523534
644.099169	27.212559
644.523847	26.896333
644.948502	26.582443
645.373135	26.264760
645.797744	25.947668
646.222330	25.631300
646.646894	25.318424
647.071435	25.001836
647.495953	24.682992
647.920447	24.359722
648.344919	24.035039
648.769368	23.713240
649.193794	23.387245
649.618197	23.063896
650.042576	22.735183
650.466933	22.405350
650.891267	22.079668
651.315577	21.753432
651.739864	21.428922
652.164129	21.104698
652.588370	20.776685
653.012587	20.454171
653.436782	20.133113
653.860953	19.808130
654.285102	19.488087
654.709226	19.172158
655.133328	18.856591
655.557406	18.542983
655.981461	18.235796
656.405493	17.934219
656.829501	17.635749
657.253486	17.349542
657.677448	17.071888
658.101386	16.806075
658.525301	16.554070
658.949192	16.310416
659.373060	16.079381
659.796904	15.865234
660.220725	15.668902
660.644522	15.488292
661.068296	15.325098
661.492046	15.179222
661.915772	15.046030
662.339475	14.933543
662.763154	14.835276
663.186810	14.753595
663.610442	14.687873
664.034050	14.635243
664.457635	14.599798
664.881196	14.575198
665.304733	14.564432
665.728247	14.573079
666.151736	14.590195
666.575202	14.624159
666.998644	14.670266
667.422062	14.731014
667.845457	14.804516
668.268827	14.895031
668.692174	14.999780
669.115496	15.119805
669.538795	15.255270
669.962070	15.410453
670.385321	15.577473
670.808547	15.761797
671.231750	15.955878
671.654929	16.162300
672.078084	16.385430
672.501214	16.623866
672.924321	16.869383
673.347404	17.124828
673.770462	17.385881
674.193496	17.655825
674.616506	17.932434
675.039492	18.213419
675.462454	18.500784
675.885391	18.791805
676.308305	19.087024
676.731194	19.386732
677.154058	19.688462
677.576899	19.990872
677.999715	20.298200
678.422507	20.606242
678.845274	20.913565
679.268017	21.225419
679.690736	21.533125
680.113430	21.847819
680.536100	22.157549
680.958746	22.471596
681.381367	22.783339
681.803963	23.098553
682.226535	23.412467
682.649083	23.727892
683.071605	24.046355
683.494104	24.369000
683.916578	24.690929
684.339027	25.013388
684.761451	25.338061
685.183851	25.662693
685.606227	25.985814
686.028577	26.312253
686.450903	26.644097
686.873204	26.979891
687.295481	27.320291
687.717733	27.655781
688.139959	27.994308
688.562162	28.328368
688.984339	28.660869
689.406492	28.995053
689.828619	29.321528
690.250722	29.646927
690.672800	29.966129
691.094853	30.279393
691.516881	30.591456
691.938884	30.897672
692.360863	31.196047
692.782816	31.492868
693.204744	31.778265
693.626647	32.063041
694.048526	32.333249
694.470379	32.601479
694.892207	32.857536
695.314010	33.109239
695.735788	33.355805
696.157540	33.591081
696.579268	33.818568
697.000970	34.038969
697.422648	34.251964
697.844300	34.453073
698.265926	34.650758
698.687528	34.843887
699.109104	35.032152
699.530655	35.204694
699.952181	35.371632
