Time1=100ms:Average1=5:Objective=10X:Aperture=1: (11/21/2018 2:36:04 PM)
11/21/2018 2:36:04 PM
Reflectance
10X
Ap#: 1
Avg1: 5.000000
Avg2: 0.000000
Int.Time1:100.000000
Int.Time2:0.000000
420.190645	13.679779
420.624620	13.702420
421.058582	13.726513
421.492531	13.745160
421.926468	13.770539
422.360391	13.799305
422.794301	13.830949
423.228199	13.872287
423.662083	13.934593
424.095955	13.988901
424.529813	14.035698
424.963658	14.087886
425.397491	14.135251
425.831310	14.179038
426.265116	14.218749
426.698909	14.260707
427.132689	14.305022
427.566455	14.340599
428.000209	14.397204
428.433949	14.444215
428.867676	14.493002
429.301389	14.536536
429.735090	14.577216
430.168777	14.609108
430.602451	14.648105
431.036111	14.681637
431.469759	14.713367
431.903392	14.758917
432.337013	14.792573
432.770620	14.816526
433.204213	14.842988
433.637794	14.881140
434.071360	14.895241
434.504914	14.922840
434.938453	14.949911
435.371979	14.978062
435.805492	15.004971
436.238991	15.030351
436.672477	15.045993
437.105949	15.058094
437.539407	15.060140
437.972852	15.062249
438.406283	15.069077
438.839700	15.065440
439.273104	15.065342
439.706494	15.059770
440.139871	15.054480
440.573233	15.050083
441.006582	15.046202
441.439917	15.022798
441.873238	15.002530
442.306546	14.980829
442.739839	14.956848
443.173119	14.927795
443.606385	14.903989
444.039636	14.873483
444.472874	14.847439
444.906099	14.810547
445.339309	14.773307
445.772505	14.737950
446.205687	14.712740
446.638855	14.667581
447.072009	14.622922
447.505149	14.585103
447.938275	14.532422
448.371387	14.482560
448.804485	14.421891
449.237569	14.363909
449.670638	14.302832
450.103694	14.239707
450.536735	14.171733
450.969762	14.105041
451.402774	14.032775
451.835773	13.948298
452.268757	13.878827
452.701727	13.803956
453.134683	13.732701
453.567624	13.659891
454.000551	13.584888
454.433464	13.503021
454.866362	13.425650
455.299246	13.345537
455.732116	13.266481
456.164971	13.182464
456.597811	13.103270
457.030638	13.015987
457.463449	12.937519
457.896246	12.847394
458.329029	12.762015
458.761797	12.677088
459.194551	12.591044
459.627290	12.500460
460.060014	12.421318
460.492724	12.338732
460.925419	12.255930
461.358099	12.185619
461.790765	12.106290
462.223416	12.024737
462.656052	11.942431
463.088674	11.857499
463.521281	11.776394
463.953873	11.705422
464.386450	11.625019
464.819012	11.552581
465.251560	11.483655
465.684093	11.418990
466.116611	11.358054
466.549114	11.304521
466.981602	11.253493
467.414075	11.194365
467.846533	11.145632
468.278977	11.093557
468.711405	11.051132
469.143818	11.007785
469.576216	10.970832
470.008600	10.935175
470.440968	10.897676
470.873321	10.860691
471.305659	10.828545
471.737982	10.803983
472.170289	10.781098
472.602582	10.755689
473.034859	10.737471
473.467122	10.723724
473.899369	10.716519
474.331600	10.714143
474.763817	10.709725
475.196018	10.714686
475.628204	10.731122
476.060375	10.749003
476.492530	10.771135
476.924670	10.797376
477.356795	10.822899
477.788904	10.861281
478.220998	10.900673
478.653076	10.947977
479.085139	10.992785
479.517186	11.042774
479.949219	11.092637
480.381235	11.149413
480.813236	11.213780
481.245221	11.281075
481.677191	11.350248
482.109146	11.417299
482.541084	11.490983
482.973008	11.563632
483.404915	11.638134
483.836807	11.721007
484.268683	11.807823
484.700544	11.896563
485.132388	11.987172
485.564217	12.086698
485.996031	12.191678
486.427828	12.296563
486.859610	12.399435
487.291376	12.502724
487.723126	12.610417
488.154860	12.713345
488.586579	12.818584
489.018281	12.921675
489.449968	13.028750
489.881639	13.138669
490.313293	13.250398
490.744932	13.365880
491.176555	13.485025
491.608162	13.612499
492.039753	13.744549
492.471328	13.873590
492.902886	14.008035
493.334429	14.142557
493.765956	14.278635
494.197466	14.414891
494.628960	14.546739
495.060439	14.685986
495.491901	14.825480
495.923347	14.963314
496.354776	15.107489
496.786190	15.258473
497.217587	15.412461
497.648968	15.571631
498.080332	15.742394
498.511681	15.911248
498.943013	16.088702
499.374328	16.271688
499.805628	16.458174
500.236911	16.649468
500.668177	16.842297
501.099427	17.037590
501.530661	17.240812
501.961878	17.446747
502.393079	17.656361
502.824264	17.871549
503.255431	18.095080
503.686583	18.312751
504.117717	18.540318
504.548835	18.770775
504.979937	18.992828
505.411022	19.215983
505.842090	19.448628
506.273142	19.684320
506.704177	19.923353
507.135195	20.167511
507.566197	20.419630
507.997182	20.678334
508.428150	20.943696
508.859102	21.220037
509.290036	21.505668
509.720954	21.793994
510.151855	22.091253
510.582739	22.389098
511.013607	22.694121
511.444457	22.993784
511.875291	23.303347
512.306107	23.609648
512.736907	23.919584
513.167690	24.235046
513.598456	24.558853
514.029205	24.888641
514.459936	25.224179
514.890651	25.567097
515.321349	25.915451
515.752030	26.275606
516.182693	26.634204
516.613340	26.990065
517.043969	27.365091
517.474582	27.736548
517.905177	28.108053
518.335755	28.486081
518.766315	28.857541
519.196859	29.229385
519.627385	29.590262
520.057894	29.944494
520.488386	30.292084
520.918860	30.631323
521.349318	30.980081
521.779757	31.318603
522.210180	31.649955
522.640585	31.982904
523.070973	32.310255
523.501343	32.628909
523.931696	32.953031
524.362031	33.267829
524.792349	33.587789
525.222650	33.904543
525.652933	34.220318
526.083198	34.533267
526.513446	34.841406
526.943677	35.138380
527.373890	35.428295
527.804085	35.723656
528.234262	35.999141
528.664422	36.268776
529.094565	36.526398
529.524689	36.785794
529.954796	37.043711
530.384885	37.286681
530.814957	37.525976
531.245011	37.760188
531.675047	37.994247
532.105065	38.234132
532.535065	38.471362
532.965048	38.709997
533.395013	38.956286
533.824959	39.194413
534.254888	39.432506
534.684799	39.667779
535.114693	39.904661
535.544568	40.141656
535.974425	40.368308
536.404264	40.589378
536.834086	40.802641
537.263889	41.003798
537.693674	41.201008
538.123441	41.392229
538.553190	41.573377
538.982921	41.748331
539.412634	41.912165
539.842329	42.070955
540.272006	42.229336
540.701664	42.387258
541.131304	42.525795
541.560926	42.670794
541.990530	42.815031
542.420116	42.957394
542.849683	43.081773
543.279232	43.198683
543.708763	43.314791
544.138275	43.420752
544.567769	43.524860
544.997245	43.611265
545.426702	43.692321
545.856141	43.758100
546.285562	43.822465
546.714964	43.877049
547.144347	43.935596
547.573713	43.990821
548.003059	44.047463
548.432387	44.099742
548.861697	44.151746
549.290988	44.200448
549.720260	44.257318
550.149514	44.312754
550.578750	44.365954
551.007966	44.420499
551.437164	44.474049
551.866344	44.532876
552.295504	44.587992
552.724646	44.641117
553.153769	44.694791
553.582874	44.745340
554.011960	44.787802
554.441027	44.829723
554.870075	44.869646
555.299104	44.901893
555.728115	44.926866
556.157106	44.961965
556.586079	44.985676
557.015033	44.996652
557.443968	45.012452
557.872884	45.021433
558.301781	45.040817
558.730659	45.041165
559.159518	45.056001
559.588358	45.072937
560.017180	45.077773
560.445982	45.076838
560.874765	45.077685
561.303528	45.072627
561.732273	45.066140
562.160999	45.059074
562.589705	45.049217
563.018393	45.035384
563.447061	45.016654
563.875710	45.000869
564.304340	44.981339
564.732950	44.953169
565.161542	44.922390
565.590114	44.895537
566.018666	44.866970
566.447200	44.834809
566.875714	44.804562
567.304208	44.774344
567.732684	44.739266
568.161140	44.707659
568.589576	44.670923
569.017993	44.631950
569.446391	44.585619
569.874769	44.544876
570.303128	44.505298
570.731467	44.457587
571.159787	44.400164
571.588087	44.334652
572.016368	44.280433
572.444629	44.208809
572.872870	44.124797
573.301092	44.046107
573.729294	43.962949
574.157476	43.870973
574.585639	43.770801
575.013782	43.667757
575.441906	43.559261
575.870009	43.450258
576.298093	43.340508
576.726157	43.227413
577.154202	43.109498
577.582226	42.992962
578.010231	42.882934
578.438216	42.769425
578.866181	42.652219
579.294126	42.533862
579.722051	42.418283
580.149957	42.300121
580.577842	42.184668
581.005707	42.064661
581.433553	41.945634
581.861378	41.823836
582.289184	41.706985
582.716969	41.586295
583.144734	41.461394
583.572479	41.345774
584.000205	41.224405
584.427910	41.111493
584.855594	41.000764
585.283259	40.879424
585.710904	40.765876
586.138528	40.655194
586.566132	40.538732
586.993716	40.425032
587.421280	40.308672
587.848823	40.197021
588.276346	40.078303
588.703849	39.954791
589.131332	39.820295
589.558794	39.680419
589.986236	39.534163
590.413657	39.387520
590.841058	39.227538
591.268438	39.057467
591.695799	38.879577
592.123138	38.700209
592.550458	38.517617
592.977756	38.325180
593.405034	38.131147
593.832292	37.925092
594.259529	37.724672
594.686746	37.512744
595.113942	37.303088
595.541117	37.085019
595.968272	36.870802
596.395406	36.653882
596.822519	36.432173
597.249612	36.210577
597.676684	35.983690
598.103735	35.754861
598.530766	35.530605
598.957775	35.300727
599.384764	35.069760
599.811733	34.843131
600.238680	34.608859
600.665606	34.376064
601.092512	34.136637
601.519397	33.902722
601.946261	33.667705
602.373104	33.434441
602.799926	33.204870
603.226727	32.975387
603.653507	32.741814
604.080266	32.511333
604.507004	32.289058
604.933721	32.068769
605.360417	31.848341
605.787092	31.626624
606.213746	31.413939
606.640379	31.197420
607.066991	30.988073
607.493581	30.778903
607.920150	30.577235
608.346699	30.378548
608.773226	30.184086
609.199731	29.985105
609.626216	29.792421
610.052679	29.594242
610.479121	29.399213
610.905542	29.205066
611.331941	29.009888
611.758319	28.813299
612.184676	28.619906
612.611011	28.426026
613.037325	28.227862
613.463617	28.033228
613.889888	27.833831
614.316138	27.640476
614.742366	27.443153
615.168573	27.246274
615.594758	27.048208
616.020921	26.852176
616.447063	26.657009
616.873184	26.467643
617.299283	26.282404
617.725360	26.094154
618.151416	25.912522
618.577450	25.728212
619.003462	25.555029
619.429453	25.381718
619.855422	25.215936
620.281369	25.057646
620.707295	24.901935
621.133199	24.750417
621.559081	24.601960
621.984941	24.459872
622.410779	24.326111
622.836596	24.195452
623.262391	24.071606
623.688163	23.951886
624.113914	23.841157
624.539644	23.733727
624.965351	23.632432
625.391036	23.533611
625.816699	23.439864
626.242340	23.350258
626.667960	23.264295
627.093557	23.186144
627.519132	23.108010
627.944685	23.034373
628.370216	22.966022
628.795725	22.908534
629.221212	22.846163
629.646677	22.794066
630.072119	22.746543
630.497540	22.700574
630.922938	22.661285
631.348314	22.622806
631.773668	22.592422
632.198999	22.567152
632.624308	22.542926
633.049595	22.522688
633.474860	22.503928
633.900102	22.489743
634.325322	22.480209
634.750520	22.472250
635.175695	22.470098
635.600848	22.472119
636.025978	22.477397
636.451086	22.492403
636.876171	22.510013
637.301234	22.530414
637.726275	22.556301
638.151293	22.590905
638.576288	22.630153
639.001261	22.675531
639.426211	22.727561
639.851139	22.788749
640.276044	22.856778
640.700927	22.930918
641.125787	23.012931
641.550624	23.100887
641.975438	23.197625
642.400230	23.302632
642.824999	23.412969
643.249745	23.525224
643.674469	23.646560
644.099169	23.770409
644.523847	23.905102
644.948502	24.040378
645.373135	24.176129
645.797744	24.317962
646.222330	24.465757
646.646894	24.616596
647.071435	24.769814
647.495953	24.924730
647.920447	25.084234
648.344919	25.241854
648.769368	25.394907
649.193794	25.552808
649.618197	25.701320
650.042576	25.852656
650.466933	26.001757
650.891267	26.150213
651.315577	26.290354
651.739864	26.428230
652.164129	26.559732
652.588370	26.682415
653.012587	26.799663
653.436782	26.911178
653.860953	27.016071
654.285102	27.114432
654.709226	27.207395
655.133328	27.288039
655.557406	27.364700
655.981461	27.434355
656.405493	27.499987
656.829501	27.555557
657.253486	27.610797
657.677448	27.650956
658.101386	27.693248
658.525301	27.729706
658.949192	27.759352
659.373060	27.781935
659.796904	27.799900
660.220725	27.812056
660.644522	27.816347
661.068296	27.820671
661.492046	27.819208
661.915772	27.822174
662.339475	27.816135
662.763154	27.811098
663.186810	27.804093
663.610442	27.791127
664.034050	27.779210
664.457635	27.764715
664.881196	27.751104
665.304733	27.739265
665.728247	27.729662
666.151736	27.722085
666.575202	27.713400
666.998644	27.709838
667.422062	27.709300
667.845457	27.709838
668.268827	27.713555
668.692174	27.719800
669.115496	27.729401
669.538795	27.740307
669.962070	27.758810
670.385321	27.775672
670.808547	27.798439
671.231750	27.818706
671.654929	27.839581
672.078084	27.869084
672.501214	27.893610
672.924321	27.925839
673.347404	27.962456
673.770462	28.001039
674.193496	28.037976
674.616506	28.080676
675.039492	28.124126
675.462454	28.174067
675.885391	28.227481
676.308305	28.283410
676.731194	28.348420
677.154058	28.412777
677.576899	28.486959
677.999715	28.563397
678.422507	28.640588
678.845274	28.726531
679.268017	28.815098
679.690736	28.910538
680.113430	29.005487
680.536100	29.104237
680.958746	29.209351
681.381367	29.318884
681.803963	29.429478
682.226535	29.542345
682.649083	29.658067
683.071605	29.776640
683.494104	29.897044
683.916578	30.021267
684.339027	30.149303
684.761451	30.280774
685.183851	30.409288
685.606227	30.549700
686.028577	30.685283
686.450903	30.824618
686.873204	30.968204
687.295481	31.113277
687.717733	31.256977
688.139959	31.401874
688.562162	31.548936
688.984339	31.699119
689.406492	31.849574
689.828619	31.994251
690.250722	32.140823
690.672800	32.281276
691.094853	32.422100
691.516881	32.564642
691.938884	32.703416
692.360863	32.834758
692.782816	32.962837
693.204744	33.086808
693.626647	33.205085
694.048526	33.322793
694.470379	33.434245
694.892207	33.541751
695.314010	33.643989
695.735788	33.747058
696.157540	33.843031
696.579268	33.939504
697.000970	34.033143
697.422648	34.127227
697.844300	34.215856
698.265926	34.304818
698.687528	34.390528
699.109104	34.474486
699.530655	34.557461
699.952181	34.643421
