160ms
0ms
20X
2
Counts
6/19/2024 2:26:31 PM
10.00000000
0.00000000
Resolution=2&-1
Time1=160ms:Average1=10:Objective=20X:Aperture=2: (6/19/2024 2:26:31 PM)
350.16613620	350.60193709	351.03772818	351.47350942	351.90928082	352.34504234	352.78079397	353.21653569	353.65226748	354.08798932	354.52370120	354.95940309	355.39509497	355.83077683	356.26644864	356.70211039	357.13776206	357.57340363	358.00903508	358.44465639	358.88026755	359.31586852	359.75145930	360.18703986	360.62261019	361.05817026	361.49372007	361.92925958	362.36478878	362.80030765	363.23581617	363.67131432	364.10680209	364.54227945	364.97774638	365.41320287	365.84864890	366.28408445	366.71950949	367.15492401	367.59032800	368.02572142	368.46110427	368.89647652	369.33183815	369.76718915	370.20252950	370.63785917	371.07317815	371.50848642	371.94378395	372.37907074	372.81434676	373.24961199	373.68486642	374.12011002	374.55534277	374.99056467	375.42577567	375.86097578	376.29616497	376.73134321	377.16651050	377.60166680	378.03681211	378.47194641	378.90706966	379.34218187	379.77728300	380.21237303	380.64745196	381.08251975	381.51757640	381.95262187	382.38765616	382.82267924	383.25769109	383.69269170	384.12768105	384.56265911	384.99762586	385.43258130	385.86752540	386.30245813	386.73737949	387.17228945	387.60718799	388.04207509	388.47695074	388.91181492	389.34666760	389.78150877	390.21633841	390.65115650	391.08596302	391.52075795	391.95554127	392.39031297	392.82507302	393.25982140	393.69455810	394.12928310	394.56399638	394.99869791	395.43338769	395.86806568	396.30273188	396.73738625	397.17202880	397.60665948	398.04127829	398.47588521	398.91048022	399.34506329	399.77963441	400.21419356	400.64874072	401.08327588	401.51779900	401.95231008	402.38680910	402.82129603	403.25577086	403.69023356	404.12468412	404.55912252	404.99354874	405.42796276	405.86236457	406.29675414	406.73113145	407.16549648	407.59984922	408.03418965	408.46851774	408.90283349	409.33713686	409.77142784	410.20570642	410.63997256	411.07422626	411.50846749	411.94269624	412.37691248	412.81111621	413.24530738	413.67948600	414.11365204	414.54780547	414.98194629	415.41607447	415.85018999	416.28429284	416.71838299	417.15246043	417.58652514	418.02057709	418.45461627	418.88864266	419.32265625	419.75665700	420.19064491	420.62461995	421.05858210	421.49253135	421.92646768	422.36039106	422.79430148	423.22819892	423.66208336	424.09595478	424.52981316	424.96365849	425.39749074	425.83130989	426.26511593	426.69890883	427.13268858	427.56645516	428.00020855	428.43394873	428.86767568	429.30138939	429.73508982	430.16877697	430.60245081	431.03611133	431.46975851	431.90339232	432.33701276	432.77061979	433.20421340	433.63779357	434.07136029	434.50491352	434.93845327	435.37197949	435.80549219	436.23899132	436.67247689	437.10594887	437.53940723	437.97285197	438.40628306	438.83970048	439.27310421	439.70649424	440.13987054	440.57323310	441.00658189	441.43991690	441.87323811	442.30654551	442.73983906	443.17311875	443.60638457	444.03963649	444.47287449	444.90609856	445.33930868	445.77250482	446.20568697	446.63885511	447.07200922	447.50514928	447.93827527	448.37138718	448.80448497	449.23756865	449.67063818	450.10369354	450.53673472	450.96976170	451.40277446	451.83577298	452.26875725	452.70172723	453.13468291	453.56762428	454.00055132	454.43346400	454.86636230	455.29924622	455.73211572	456.16497079	456.59781142	457.03063757	457.46344923	457.89624639	458.32902903	458.76179711	459.19455064	459.62728958	460.06001392	460.49272363	460.92541871	461.35809913	461.79076486	462.22341591	462.65605223	463.08867382	463.52128065	463.95387271	464.38644998	464.81901243	465.25156005	465.68409283	466.11661073	466.54911374	466.98160185	467.41407503	467.84653327	468.27897654	468.71140483	469.14381811	469.57621637	470.00859960	470.44096776	470.87332084	471.30565882	471.73798169	472.17028942	472.60258200	473.03485940	473.46712160	473.89936860	474.33160036	474.76381687	475.19601811	475.62820407	476.06037471	476.49253003	476.92467000	477.35679461	477.78890383	478.22099765	478.65307605	479.08513900	479.51718650	479.94921851	480.38123503	480.81323602	481.24522149	481.67719139	482.10914572	482.54108446	482.97300758	483.40491507	483.83680691	484.26868308	484.70054356	485.13238833	485.56421738	485.99603067	486.42782820	486.85960995	487.29137589	487.72312601	488.15486029	488.58657870	489.01828124	489.44996788	489.88163860	490.31329338	490.74493220	491.17655505	491.60816190	492.03975274	492.47132755	492.90288631	493.33442899	493.76595559	494.19746607	494.62896043	495.06043864	495.49190069	495.92334655	496.35477620	496.78618963	497.21758682	497.64896774	498.08033239	498.51168074	498.94301276	499.37432845	499.80562778	500.23691074	500.66817730	501.09942745	501.53066116	501.96187842	502.39307921	502.82426351	503.25543130	503.68658256	504.11771727	504.54883542	504.97993698	505.41102193	505.84209026	506.27314195	506.70417698	507.13519532	507.56619696	507.99718189	508.42815007	508.85910150	509.29003615	509.72095401	510.15185505	510.58273926	511.01360661	511.44445709	511.87529069	512.30610737	512.73690712	513.16768992	513.59845576	514.02920461	514.45993645	514.89065127	515.32134905	515.75202976	516.18269339	516.61333992	517.04396933	517.47458160	517.90517671	518.33575465	518.76631539	519.19685891	519.62738520	520.05789424	520.48838600	520.91886048	521.34931764	521.77975747	522.21017995	522.64058507	523.07097279	523.50134312	523.93169601	524.36203147	524.79234945	525.22264996	525.65293297	526.08319845	526.51344640	526.94367678	527.37388959	527.80408480	528.23426240	528.66442236	529.09456467	529.52468930	529.95479624	530.38488547	530.81495697	531.24501072	531.67504671	532.10506490	532.53506529	532.96504785	533.39501257	533.82495942	534.25488839	534.68479946	535.11469261	535.54456782	535.97442507	536.40426434	536.83408561	537.26388887	537.69367409	538.12344125	538.55319035	538.98292135	539.41263423	539.84232899	540.27200560	540.70166404	541.13130429	541.56092633	541.99053015	542.42011572	542.84968303	543.27923205	543.70876277	544.13827517	544.56776923	544.99724493	545.42670225	545.85614117	546.28556168	546.71496375	547.14434736	547.57371250	548.00305915	548.43238728	548.86169688	549.29098794	549.72026042	550.14951431	550.57874960	551.00796626	551.43716427	551.86634362	552.29550429	552.72464625	553.15376949	553.58287399	554.01195973	554.44102669	554.87007485	555.29910419	555.72811470	556.15710635	556.58607912	557.01503300	557.44396797	557.87288401	558.30178110	558.73065921	559.15951834	559.58835846	560.01717955	560.44598160	560.87476458	561.30352847	561.73227326	562.16099893	562.58970546	563.01839282	563.44706101	563.87571000	564.30433977	564.73295030	565.16154157	565.59011358	566.01866628	566.44719967	566.87571373	567.30420844	567.73268378	568.16113973	568.58957627	569.01799338	569.44639105	569.87476924	570.30312796	570.73146717	571.15978685	571.58808700	572.01636758	572.44462858	572.87286998	573.30109177	573.72929391	574.15747640	574.58563922	575.01378234	575.44190574	575.87000941	576.29809333	576.72615748	577.15420184	577.58222639	578.01023111	578.43821598	578.86618099	579.29412611	579.72205133	580.14995662	580.57784197	581.00570736	581.43355276	581.86137817	582.28918356	582.71696890	583.14473420	583.57247941	584.00020453	584.42790954	584.85559441	585.28325913	585.71090368	586.13852803	586.56613218	586.99371610	587.42127977	587.84882317	588.27634629	588.70384910	589.13133159	589.55879373	589.98623551	590.41365691	590.84105791	591.26843849	591.69579863	592.12313831	592.55045752	592.97775623	593.40503442	593.83229208	594.25952919	594.68674573	595.11394167	595.54111700	595.96827171	596.39540576	596.82251915	597.24961185	597.67668385	598.10373512	598.53076564	598.95777541	599.38476439	599.81173257	600.23867993	600.66560645	601.09251211	601.51939690	601.94626078	602.37310376	602.79992580	603.22672688	603.65350699	604.08026611	604.50700422	604.93372130	605.36041733	605.78709229	606.21374616	606.64037893	607.06699057	607.49358107	607.92015040	608.34669856	608.77322551	609.19973124	609.62621572	610.05267896	610.47912091	610.90554156	611.33194090	611.75831891	612.18467556	612.61101083	613.03732472	613.46361719	613.88988823	614.31613782	614.74236595	615.16857258	615.59475771	616.02092131	616.44706337	616.87318386	617.29928278	617.72536008	618.15141577	618.57744982	619.00346220	619.42945291	619.85542192	620.28136922	620.70729478	621.13319858	621.55908061	621.98494085	622.41077927	622.83659587	623.26239061	623.68816348	624.11391447	624.53964355	624.96535070	625.39103591	625.81669915	626.24234041	626.66795966	627.09355689	627.51913209	627.94468522	628.37021627	628.79572523	629.22121207	629.64667677	630.07211931	630.49753969	630.92293786	631.34831383	631.77366756	632.19899905	632.62430826	633.04959519	633.47485980	633.90010209	634.32532203	634.75051961	635.17569481	635.60084760	636.02597797	636.45108589	636.87617136	637.30123435	637.72627483	638.15129281	638.57628824	639.00126112	639.42621142	639.85113913	640.27604422	640.70092669	641.12578650	641.55062364	641.97543809	642.40022983	642.82499885	643.24974512	643.67446862	644.09916934	644.52384726	644.94850235	645.37313460	645.79774399	646.22233050	646.64689411	647.07143480	647.49595255	647.92044735	648.34491917	648.76936800	649.19379381	649.61819659	650.04257632	650.46693298	650.89126655	651.31557701	651.73986434	652.16412852	652.58836954	653.01258737	653.43678200	653.86095340	654.28510156	654.70922646	655.13332808	655.55740640	655.98146140	656.40549307	656.82950137	657.25348630	657.67744784	658.10138596	658.52530064	658.94919188	659.37305964	659.79690391	660.22072468	660.64452191	661.06829560	661.49204572	661.91577225	662.33947518	662.76315449	663.18681015	663.61044215	664.03405047	664.45763509	664.88119598	665.30473314	665.72824655	666.15173617	666.57520200	666.99864402	667.42206220	667.84545653	668.26882699	668.69217355	669.11549621	669.53879494	669.96206971	670.38532052	670.80854735	671.23175017	671.65492896	672.07808371	672.50121440	672.92432101	673.34740351	673.77046190	674.19349615	674.61650623	675.03949215	675.46245386	675.88539136	676.30830463	676.73119364	677.15405838	677.57689882	677.99971496	678.42250677	678.84527423	679.26801732	679.69073602	680.11343032	680.53610019	680.95874562	681.38136658	681.80396307	682.22653505	682.64908251	683.07160543	683.49410379	683.91657758	684.33902677	684.76145134	685.18385128	685.60622656	686.02857717	686.45090309	686.87320430	687.29548077	687.71773250	688.13995946	688.56216163	688.98433899	689.40649153	689.82861923	690.25072206	690.67280001	691.09485305	691.51688118	691.93888436	692.36086259	692.78281583	693.20474408	693.62664732	694.04852552	694.47037866	694.89220673	695.31400971	695.73578757	696.15754031	696.57926789	697.00097031	697.42264753	697.84429955	698.26592635	698.68752790	699.10910418	699.53065518	699.95218088	700.37368126	700.79515630	701.21660597	701.63803027	702.05942917	702.48080265	702.90215070	703.32347329	703.74477041	704.16604204	704.58728815	705.00850873	705.42970376	705.85087322	706.27201710	706.69313536	707.11422800	707.53529499	707.95633632	708.37735196	708.79834190	709.21930612	709.64024460	710.06115731	710.48204425	710.90290539	711.32374071	711.74455020	712.16533383	712.58609158	713.00682344	713.42752939	713.84820941	714.26886347	714.68949157	715.11009368	715.53066977	715.95121984	716.37174387	716.79224183	717.21271370	717.63315947	718.05357912	718.47397263	718.89433997	719.31468114	719.73499610	720.15528485	720.57554736	720.99578362	721.41599360	721.83617729	722.25633466	722.67646570	723.09657039	723.51664871	723.93670063	724.35672615	724.77672524	725.19669789	725.61664407	726.03656376	726.45645695	726.87632362	727.29616374	727.71597730	728.13576429	728.55552467	728.97525843	729.39496556	729.81464603	730.23429983	730.65392692	731.07352731	731.49310096	731.91264786	732.33216799	732.75166133	733.17112786	733.59056756	734.00998042	734.42936640	734.84872550	735.26805770	735.68736298	736.10664131	736.52589267	736.94511706	737.36431445	737.78348482	738.20262815	738.62174442	739.04083362	739.45989572	739.87893071	740.29793856	740.71691926	741.13587279	741.55479913	741.97369826	742.39257016	742.81141481	743.23023219	743.64902229	744.06778508	744.48652055	744.90522868	745.32390944	745.74256282	746.16118880	746.57978736	746.99835849	747.41690215	747.83541834	748.25390703	748.67236821	749.09080185	749.50920794	749.92758646	750.34593739	750.76426070	751.18255639	751.60082443	752.01906480	752.43727748	752.85546246	753.27361971	753.69174922	754.10985097	754.52792493	754.94597109	755.36398944	755.78197994	756.19994258	756.61787735	757.03578422	757.45366318	757.87151420	758.28933727	758.70713236	759.12489946	759.54263856	759.96034962	760.37803263	760.79568758	761.21331443	761.63091318	762.04848381	762.46602629	762.88354061	763.30102674	763.71848468	764.13591439	764.55331586	764.97068908	765.38803401	765.80535065	766.22263898	766.63989896	767.05713060	767.47433386	767.89150873	768.30865518	768.72577321	769.14286278	769.55992389	769.97695651	770.39396062	770.81093621	771.22788325	771.64480173	772.06169163	772.47855292	772.89538559	773.31218962	773.72896499	774.14571169	774.56242968	774.97911896	775.39577950	775.81241129	776.22901431	776.64558853	777.06213394	777.47865052	777.89513825	778.31159710	778.72802708	779.14442814	779.56080028	779.97714347	780.39345769	780.80974294	781.22599918	781.64222640	782.05842457	782.47459369	782.89073373	783.30684467	783.72292649	784.13897918	784.55500271	784.97099707	785.38696224	785.80289819	786.21880491	786.63468238	787.05053057	787.46634949	787.88213909	788.29789936	788.71363029	789.12933186	789.54500404	789.96064681	790.37626017	790.79184408	791.20739853	791.62292351	792.03841898	792.45388494	792.86932136	793.28472822	793.70010551	794.11545321	794.53077129	794.94605974	795.36131853	795.77654766	796.19174710	796.60691683	797.02205683	797.43716709	797.85224758	798.26729829	798.68231919	799.09731027	799.51227150	799.92720288	800.34210438	800.75697597	801.17181765	801.58662939	802.00141118	802.41616299	802.83088480	803.24557660	803.66023837	804.07487008	804.48947173	804.90404329	805.31858473	805.73309605	806.14757722	806.56202823	806.97644905	807.39083966	807.80520005	808.21953020	808.63383009	809.04809970	809.46233901	809.87654799	810.29072665	810.70487494	811.11899286	811.53308038	811.94713749	812.36116416	812.77516039	813.18912614	813.60306140	814.01696615	814.43084037	814.84468405	815.25849716	815.67227968	816.08603160	816.49975289	816.91344354	817.32710353	817.74073284	818.15433144	818.56789933	818.98143648	819.39494287	819.80841849	820.22186330	820.63527731	821.04866048	821.46201280	821.87533424	822.28862480	822.70188444	823.11511316	823.52831093	823.94147773	824.35461354	824.76771835	825.18079213	825.59383487	826.00684655	826.41982715	826.83277664	827.24569502	827.65858225	828.07143833	828.48426323	828.89705694	829.30981943	829.72255068	830.13525068	830.54791941	830.96055685	831.37316298	831.78573777	832.19828122	832.61079330	833.02327400	833.43572328	833.84814115	834.26052757	834.67288252	835.08520599	835.49749796	835.90975842	836.32198733	836.73418468	837.14635046	837.55848463	837.97058720	838.38265813	838.79469740	839.20670500	839.61868091	840.03062511	840.44253757	840.85441829	841.26626724	841.67808440	842.08986976	842.50162329	842.91334498	843.32503480	843.73669274	844.14831877	844.55991289	844.97147506	845.38300528	845.79450352	846.20596976	846.61740399	847.02880618	847.44017631	847.85151437	848.26282034	848.67409420	849.08533592	849.49654550	849.90772291	850.31886813	850.72998114	851.14106193	851.55211047	851.96312674	852.37411074	852.78506243	853.19598180	853.60686882	854.01772349	854.42854578	854.83933568	855.25009315	855.66081819	856.07151078	856.48217089	856.89279850	857.30339361	857.71395618	858.12448620	858.53498366	858.94544852	859.35588078	859.76628041	860.17664740	860.58698172	860.99728335	861.40755229	861.81778850	862.22799197	862.63816268	863.04830061	863.45840574	863.86847805	864.27851753	864.68852415	865.09849790	865.50843876	865.91834670	866.32822171	866.73806377	867.14787286	867.55764895	867.96739205	868.37710211	868.78677913	869.19642308	869.60603395	870.01561171	870.42515635	870.83466785	871.24414619	871.65359135	872.06300331	872.47238206	872.88172756	873.29103981	873.70031878	874.10956446	874.51877683	874.92795586	875.33710155	875.74621386	876.15529278	876.56433830	876.97335038	877.38232902	877.79127419	878.20018588	878.60906407	879.01790873	879.42671984	879.83549740	880.24424138	880.65295176	881.06162852	881.47027164	881.87888110	882.28745689	882.69599898	883.10450736	883.51298201	883.92142291	884.32983003	884.73820337	885.14654289	885.55484859	885.96312043	886.37135842	886.77956251	887.18773271	887.59586898	888.00397130	888.41203966	888.82007405	889.22807443	889.63604079	890.04397312	890.45187139	890.85973558	891.26756568	891.67536166	892.08312351	892.49085121	892.89854473	893.30620407	893.71382919	894.12142009	894.52897673	894.93649911	895.34398721	895.75144100	896.15886046	896.56624558	896.97359634	897.38091272	897.78819470	898.19544225	898.60265537	899.00983403	899.41697822	899.82408791	900.23116308	900.63820372	901.04520981	901.45218132	901.85911824	902.26602056	902.67288824	903.07972127	903.48651964	903.89328332	904.30001230	904.70670655	905.11336605	905.51999079	905.92658076	906.33313592	906.73965626	907.14614176	907.55259240	907.95900816	908.36538903	908.77173498	909.17804600	909.58432207	909.99056316	910.39676926	910.80294035	911.20907641	911.61517742	912.02124336	912.42727422	912.83326996	913.23923059	913.64515607	914.05104638	914.45690152	914.86272145	915.26850616	915.67425563	916.07996984	916.48564877	916.89129241	917.29690073	917.70247372	918.10801135	918.51351361	918.91898047	919.32441193	919.72980795	920.13516853	920.54049363	920.94578325	921.35103736	921.75625595	922.16143899	922.56658647	922.97169836	923.37677465	923.78181532	924.18682035	924.59178972	924.99672341	925.40162141	925.80648369	926.21131023	926.61610102	927.02085603	927.42557525	927.83025866	928.23490624	928.63951796	929.04409382	929.44863379	929.85313785	930.25760599	930.66203818	931.06643441	931.47079465	931.87511889	932.27940711	932.68365929	933.08787540	933.49205544	933.89619938	934.30030721	934.70437889	935.10841442	935.51241378	935.91637694	936.32030390	936.72419462	937.12804908	937.53186728	937.93564919	938.33939480	938.74310407	939.14677700	939.55041357	939.95401375	940.35757752	940.76110488	941.16459579	941.56805025	941.97146822	942.37484969	942.77819465	943.18150307	943.58477494	943.98801022	944.39120892	944.79437100	945.19749645	945.60058525	946.00363738	946.40665282	946.80963155	947.21257356	947.61547881	948.01834730	948.42117901	948.82397391	949.22673199	949.62945323	950.03213761	950.43478511	950.83739570	951.23996938	951.64250613	952.04500591	952.44746872	952.84989454	953.25228334	953.65463511	954.05694983	954.45922747	954.86146803	955.26367148	955.66583780	956.06796697	956.47005898	956.87211380	957.27413142	957.67611181	958.07805496	958.47996085	958.88182946	959.28366077	959.68545476	960.08721142	960.48893071	960.89061263	961.29225716	961.69386427	962.09543395	962.49696617	962.89846092	963.29991819	963.70133794	964.10272017	964.50406485	964.90537196	965.30664148	965.70787340	966.10906770	966.51022435	966.91134334	967.31242465	967.71346826	968.11447415	968.51544230	968.91637270	969.31726532	969.71812014	970.11893715	970.51971632	970.92045764	971.32116109	971.72182665	972.12245430	972.52304402	972.92359579	973.32410959	973.72458541	974.12502322	974.52542301	974.92578475	975.32610843	975.72639403	976.12664153	976.52685091	976.92702215	977.32715523	977.72725014	978.12730685	978.52732534	978.92730560	979.32724760	979.72715134	980.12701678	980.52684391	980.92663271	981.32638316	981.72609525	982.12576895	982.52540424	982.92500111	983.32455953	983.72407949	984.12356097	984.52300394	984.92240840	985.32177431	985.72110167	986.12039045	986.51964064	986.91885220	987.31802514	987.71715942	988.11625502	988.51531193	988.91433014	989.31330961	989.71225033	990.11115229	990.51001546	990.90883982	991.30762535	991.70637204	992.10507987	992.50374881	992.90237886	993.30096998	993.69952216	994.09803538	994.49650962	994.89494487	995.29334110	995.69169830	996.09001644	996.48829550	996.88653548	997.28473634	997.68289807	998.08102066	998.47910407	998.87714829	999.27515331	999.67311910	1000.07104565	1000.46893293	1000.86678093	1001.26458963	1001.66235901	1002.06008904	1002.45777972	1002.85543101	1003.25304291	1003.65061539	1004.04814844	1004.44564203	1004.84309615	1005.24051077	1005.63788588	1006.03522146	1006.43251749	1006.82977395	1007.22699082	1007.62416809	1008.02130573	1008.41840372	1008.81546205	1009.21248069	1009.60945963	1010.00639885	1010.40329832	1010.80015804	1011.19697798	1011.59375812	1011.99049844	1012.38719893	1012.78385955	1013.18048031	1013.57706117	1013.97360212	1014.37010314	1014.76656420	1015.16298530	1015.55936641	1015.95570751	1016.35200858	1016.74826960	1017.14449056	1017.54067144	1017.93681221	1018.33291286	1018.72897337	1019.12499372	1019.52097388	1019.91691385	1020.31281360
1065.64000000	1066.00000000	1066.06000000	1065.12000000	1065.10000000	1068.72000000	1074.48000000	1073.96000000	1081.02000000	1078.52000000	1074.32000000	1068.52000000	1074.16000000	1066.72000000	1065.38000000	1067.60000000	1069.46000000	1065.00000000	1065.80000000	1069.22000000	1075.92000000	1082.10000000	1080.98000000	1082.04000000	1080.10000000	1074.04000000	1067.46000000	1069.84000000	1070.94000000	1073.28000000	1073.90000000	1072.28000000	1073.98000000	1079.28000000	1080.34000000	1075.00000000	1078.96000000	1079.40000000	1076.24000000	1072.88000000	1077.08000000	1081.08000000	1077.82000000	1075.46000000	1081.90000000	1077.02000000	1067.44000000	1073.14000000	1073.44000000	1070.24000000	1072.92000000	1079.30000000	1078.64000000	1076.48000000	1076.90000000	1078.80000000	1077.54000000	1073.50000000	1075.68000000	1077.44000000	1080.00000000	1081.18000000	1082.54000000	1081.66000000	1079.40000000	1076.72000000	1075.58000000	1076.38000000	1080.40000000	1078.20000000	1074.42000000	1076.08000000	1074.96000000	1070.66000000	1071.82000000	1074.08000000	1070.90000000	1074.90000000	1074.10000000	1078.94000000	1080.40000000	1082.42000000	1083.40000000	1086.82000000	1082.82000000	1082.18000000	1082.34000000	1083.96000000	1081.88000000	1080.48000000	1077.28000000	1076.50000000	1072.76000000	1075.16000000	1079.58000000	1086.74000000	1085.86000000	1081.54000000	1080.98000000	1077.40000000	1067.00000000	1071.22000000	1079.34000000	1079.22000000	1079.62000000	1083.32000000	1084.00000000	1080.26000000	1081.54000000	1078.10000000	1081.86000000	1074.26000000	1082.50000000	1086.00000000	1089.18000000	1090.14000000	1094.18000000	1087.92000000	1088.72000000	1090.56000000	1095.12000000	1096.76000000	1100.12000000	1101.78000000	1109.82000000	1115.74000000	1125.96000000	1136.54000000	1145.86000000	1163.24000000	1183.12000000	1206.04000000	1228.02000000	1263.12000000	1296.74000000	1338.56000000	1386.06000000	1444.96000000	1505.46000000	1566.62000000	1633.12000000	1705.06000000	1785.32000000	1866.22000000	1959.50000000	2055.52000000	2148.08000000	2241.02000000	2339.52000000	2437.86000000	2532.14000000	2634.10000000	2729.48000000	2827.98000000	2923.92000000	3019.48000000	3115.64000000	3211.66000000	3306.02000000	3399.62000000	3501.72000000	3592.28000000	3687.84000000	3776.30000000	3872.50000000	3950.64000000	4043.42000000	4131.92000000	4221.66000000	4297.58000000	4384.76000000	4462.54000000	4538.94000000	4614.26000000	4699.22000000	4775.30000000	4853.12000000	4936.12000000	5014.56000000	5079.86000000	5159.00000000	5235.50000000	5306.58000000	5383.36000000	5465.66000000	5533.90000000	5615.14000000	5687.96000000	5764.10000000	5836.90000000	5915.70000000	5989.12000000	6066.34000000	6137.34000000	6210.12000000	6279.88000000	6337.56000000	6399.10000000	6457.90000000	6518.28000000	6585.50000000	6665.96000000	6756.46000000	6839.92000000	6919.58000000	7003.86000000	7081.24000000	7147.70000000	7219.24000000	7291.38000000	7366.78000000	7428.50000000	7478.70000000	7510.38000000	7540.46000000	7585.82000000	7671.40000000	7771.64000000	7892.78000000	8008.10000000	8102.20000000	8168.76000000	8232.02000000	8296.72000000	8379.84000000	8475.08000000	8570.96000000	8668.76000000	8774.30000000	8875.94000000	8961.74000000	9045.12000000	9125.02000000	9212.24000000	9293.50000000	9376.78000000	9452.64000000	9532.76000000	9603.46000000	9675.26000000	9735.86000000	9822.18000000	9895.86000000	9976.04000000	10065.90000000	10159.84000000	10243.96000000	10334.22000000	10415.36000000	10496.14000000	10591.26000000	10684.58000000	10788.20000000	10892.72000000	10993.38000000	11097.48000000	11202.62000000	11306.36000000	11418.88000000	11523.68000000	11615.14000000	11697.76000000	11786.98000000	11855.98000000	11931.44000000	11997.32000000	12068.02000000	12127.52000000	12206.58000000	12280.46000000	12379.52000000	12486.50000000	12594.80000000	12709.66000000	12844.12000000	12956.88000000	13084.34000000	13221.22000000	13354.78000000	13477.70000000	13604.06000000	13706.42000000	13804.40000000	13892.50000000	13958.08000000	14040.68000000	14121.52000000	14196.20000000	14268.30000000	14357.64000000	14425.00000000	14502.82000000	14580.64000000	14664.98000000	14757.92000000	14853.22000000	14937.18000000	15036.56000000	15140.86000000	15238.52000000	15345.78000000	15463.34000000	15576.00000000	15699.92000000	15830.26000000	15976.82000000	16132.56000000	16297.14000000	16443.78000000	16584.80000000	16712.22000000	16821.06000000	16910.46000000	16992.96000000	17065.54000000	17125.60000000	17182.60000000	17249.34000000	17309.66000000	17377.66000000	17452.90000000	17538.86000000	17627.58000000	17734.22000000	17856.84000000	17978.60000000	18108.32000000	18239.52000000	18379.78000000	18523.64000000	18671.22000000	18815.40000000	18938.98000000	19061.58000000	19182.26000000	19301.56000000	19410.08000000	19532.64000000	19661.20000000	19771.36000000	19879.80000000	19994.92000000	20125.96000000	20236.60000000	20344.14000000	20450.24000000	20553.34000000	20645.34000000	20742.08000000	20841.42000000	20942.42000000	21044.72000000	21144.44000000	21255.42000000	21371.74000000	21504.72000000	21650.16000000	21819.82000000	21992.80000000	22177.26000000	22357.32000000	22544.80000000	22715.40000000	22863.44000000	23012.78000000	23146.62000000	23249.28000000	23333.02000000	23432.38000000	23527.56000000	23618.06000000	23697.62000000	23769.36000000	23817.38000000	23855.20000000	23891.52000000	23952.48000000	24034.72000000	24141.66000000	24244.60000000	24361.00000000	24483.08000000	24606.42000000	24726.28000000	24872.86000000	25023.84000000	25172.14000000	25322.58000000	25474.82000000	25601.42000000	25728.54000000	25854.68000000	25972.26000000	26081.62000000	26203.00000000	26333.24000000	26458.96000000	26600.66000000	26753.68000000	26910.12000000	27045.04000000	27180.62000000	27308.20000000	27420.16000000	27516.96000000	27563.78000000	27563.14000000	27541.46000000	27542.30000000	27556.12000000	27630.74000000	27763.48000000	27893.52000000	28009.29000000	28120.63000000	28228.83000000	28336.79000000	28466.35000000	28606.96000000	28753.68000000	28919.48000000	29103.56000000	29301.94000000	29492.86000000	29679.48000000	29853.28000000	29996.94000000	30126.68000000	30229.12000000	30326.94000000	30416.44000000	30497.08000000	30563.50000000	30641.82000000	30709.98000000	30756.46000000	30792.58000000	30819.38000000	30855.22000000	30896.34000000	30948.54000000	31010.26000000	31106.48000000	31194.76000000	31295.28000000	31388.80000000	31505.96000000	31610.24000000	31738.24000000	31851.04000000	31989.42000000	32117.58000000	32250.40000000	32369.24000000	32497.36000000	32638.36000000	32796.96000000	32957.50000000	33133.46000000	33327.58000000	33523.34000000	33706.14000000	33880.84000000	34060.06000000	34207.70000000	34320.70000000	34445.62000000	34559.78000000	34640.22000000	34718.70000000	34803.26000000	34852.44000000	34913.30000000	34969.46000000	35019.76000000	35054.42000000	35080.24000000	35074.08000000	35063.48000000	35058.28000000	35053.94000000	35057.50000000	35082.96000000	35122.54000000	35190.62000000	35264.44000000	35370.27000000	35495.89000000	35638.53000000	35781.07000000	35951.59000000	36120.06000000	36276.52000000	36438.88000000	36602.02000000	36762.62000000	36914.68000000	37064.72000000	37199.06000000	37316.28000000	37419.96000000	37523.66000000	37624.14000000	37707.80000000	37770.10000000	37840.12000000	37876.92000000	37907.04000000	37937.98000000	37958.40000000	37952.68000000	37973.46000000	37993.76000000	38013.20000000	38067.96000000	38143.26000000	38211.98000000	38282.44000000	38346.72000000	38405.02000000	38458.34000000	38505.32000000	38552.88000000	38596.16000000	38623.06000000	38644.32000000	38681.06000000	38723.66000000	38788.42000000	38855.62000000	38936.34000000	38999.04000000	39087.92000000	39169.94000000	39269.22000000	39368.24000000	39494.70000000	39595.86000000	39715.32000000	39842.10000000	39951.98000000	40076.76000000	40200.44000000	40301.70000000	40391.78000000	40479.34000000	40517.04000000	40534.32000000	40556.52000000	40577.52000000	40581.22000000	40594.90000000	40603.04000000	40570.86000000	40510.20000000	40474.66000000	40421.42000000	40365.54000000	40348.78000000	40318.06000000	40273.08000000	40250.74000000	40233.90000000	40198.70000000	40204.42000000	40230.04000000	40242.20000000	40257.80000000	40311.70000000	40378.64000000	40440.58000000	40534.42000000	40651.22000000	40762.50000000	40871.58000000	41004.58000000	41122.26000000	41251.72000000	41374.34000000	41481.04000000	41579.94000000	41686.98000000	41766.38000000	41850.84000000	41938.48000000	41996.92000000	42050.48000000	42102.68000000	42137.98000000	42163.52000000	42191.62000000	42200.32000000	42197.86000000	42184.98000000	42182.88000000	42204.40000000	42242.46000000	42276.72000000	42318.32000000	42335.62000000	42329.66000000	42310.90000000	42280.96000000	42234.08000000	42196.00000000	42155.42000000	42107.84000000	42086.38000000	42094.86000000	42113.32000000	42115.86000000	42123.70000000	42131.76000000	42131.26000000	42109.64000000	42099.96000000	42075.10000000	42045.50000000	41993.38000000	41969.70000000	41970.06000000	42007.34000000	42028.88000000	42101.34000000	42153.84000000	42194.34000000	42235.06000000	42302.40000000	42320.34000000	42334.48000000	42340.96000000	42344.40000000	42326.92000000	42335.54000000	42363.30000000	42396.66000000	42422.54000000	42457.14000000	42477.10000000	42480.34000000	42473.46000000	42447.92000000	42416.12000000	42384.92000000	42334.36000000	42277.72000000	42213.74000000	42149.40000000	42084.92000000	42035.28000000	42002.40000000	41976.00000000	41963.66000000	41960.52000000	41963.70000000	41940.62000000	41918.72000000	41884.80000000	41848.44000000	41807.72000000	41789.96000000	41789.08000000	41789.10000000	41787.44000000	41798.94000000	41809.02000000	41816.00000000	41805.58000000	41804.64000000	41767.48000000	41723.06000000	41665.94000000	41632.28000000	41594.74000000	41598.92000000	41623.62000000	41665.72000000	41715.00000000	41763.84000000	41808.12000000	41835.78000000	41869.36000000	41880.70000000	41875.40000000	41854.26000000	41844.74000000	41801.14000000	41748.02000000	41695.46000000	41655.52000000	41606.42000000	41558.08000000	41516.26000000	41482.90000000	41424.86000000	41346.14000000	41279.74000000	41209.52000000	41120.46000000	41028.96000000	40940.12000000	40829.14000000	40718.60000000	40586.60000000	40449.04000000	40309.34000000	40189.62000000	40066.90000000	39975.82000000	39919.14000000	39873.40000000	39823.48000000	39814.20000000	39793.68000000	39774.94000000	39769.92000000	39759.68000000	39739.12000000	39743.56000000	39741.58000000	39748.40000000	39759.02000000	39756.52000000	39738.54000000	39722.36000000	39702.50000000	39684.58000000	39657.94000000	39600.94000000	39517.20000000	39376.80000000	39216.76000000	39043.44000000	38884.94000000	38728.48000000	38593.42000000	38473.32000000	38370.82000000	38267.34000000	38185.58000000	38127.80000000	38094.30000000	38083.14000000	38112.64000000	38166.40000000	38231.36000000	38311.50000000	38389.60000000	38443.94000000	38460.76000000	38434.92000000	38352.20000000	38229.90000000	38076.86000000	37919.92000000	37785.58000000	37694.06000000	37650.98000000	37580.40000000	37467.78000000	37250.72000000	37007.74000000	36785.34000000	36687.20000000	36675.18000000	36743.70000000	36810.94000000	36820.90000000	36757.44000000	36630.60000000	36528.80000000	36435.72000000	36341.30000000	36252.60000000	36198.64000000	36143.22000000	36080.90000000	36031.88000000	35962.74000000	35901.22000000	35829.78000000	35749.88000000	35655.02000000	35584.14000000	35488.96000000	35419.18000000	35367.38000000	35320.54000000	35276.06000000	35237.14000000	35179.54000000	35131.08000000	35086.72000000	35029.48000000	34979.34000000	34930.22000000	34859.72000000	34786.52000000	34708.98000000	34628.50000000	34543.68000000	34439.42000000	34336.60000000	34232.02000000	34119.90000000	34005.72000000	33895.82000000	33796.22000000	33681.70000000	33547.38000000	33447.74000000	33321.76000000	33179.74000000	33048.26000000	32930.62000000	32767.08000000	32632.24000000	32489.70000000	32334.50000000	32172.00000000	31992.36000000	31830.72000000	31661.66000000	31510.74000000	31350.24000000	31224.48000000	31081.02000000	30961.20000000	30835.94000000	30730.22000000	30619.96000000	30507.64000000	30386.22000000	30264.84000000	30150.10000000	30026.24000000	29928.32000000	29815.82000000	29718.52000000	29606.62000000	29502.96000000	29389.54000000	29303.24000000	29203.32000000	29123.38000000	29045.76000000	28975.40000000	28911.72000000	28854.94000000	28799.46000000	28740.90000000	28675.88000000	28575.40000000	28471.76000000	28338.64000000	28206.76000000	28068.40000000	27936.54000000	27822.08000000	27733.62000000	27625.56000000	27530.22000000	27448.56000000	27353.76000000	27257.12000000	27164.32000000	27066.10000000	26966.94000000	26881.88000000	26812.18000000	26758.14000000	26733.46000000	26714.00000000	26685.82000000	26626.78000000	26588.42000000	26523.82000000	26444.56000000	26363.72000000	26331.14000000	26269.62000000	26223.60000000	26188.84000000	26156.12000000	26082.20000000	26027.64000000	25935.61000000	25824.67000000	25717.77000000	25605.13000000	25484.99000000	25372.84000000	25266.34000000	25136.92000000	25021.66000000	24891.86000000	24772.46000000	24669.38000000	24580.72000000	24480.84000000	24389.08000000	24284.78000000	24161.26000000	24042.02000000	23921.72000000	23807.52000000	23696.28000000	23598.06000000	23481.26000000	23348.08000000	23210.58000000	23098.16000000	22995.88000000	22919.04000000	22871.96000000	22804.80000000	22719.10000000	22634.82000000	22555.18000000	22494.20000000	22473.38000000	22449.20000000	22411.64000000	22357.94000000	22287.44000000	22204.90000000	22128.02000000	22051.94000000	21964.66000000	21890.18000000	21792.68000000	21701.94000000	21623.50000000	21551.86000000	21453.86000000	21384.70000000	21297.06000000	21210.78000000	21114.38000000	21019.30000000	20902.62000000	20793.66000000	20676.20000000	20561.78000000	20451.42000000	20349.82000000	20239.08000000	20121.64000000	20001.86000000	19866.40000000	19728.10000000	19588.08000000	19439.04000000	19292.62000000	19152.74000000	18998.34000000	18853.20000000	18715.18000000	18577.56000000	18452.22000000	18342.22000000	18220.66000000	18096.50000000	17966.64000000	17839.06000000	17709.76000000	17587.24000000	17464.74000000	17361.46000000	17256.84000000	17147.30000000	17047.50000000	16965.92000000	16867.12000000	16774.06000000	16679.76000000	16581.20000000	16475.20000000	16379.56000000	16279.44000000	16200.60000000	16105.46000000	15989.52000000	15823.50000000	15628.00000000	15423.98000000	15280.74000000	15205.20000000	15221.28000000	15271.96000000	15319.66000000	15325.46000000	15274.62000000	15189.56000000	15094.64000000	15017.18000000	14940.44000000	14892.36000000	14821.32000000	14748.30000000	14650.64000000	14565.90000000	14468.56000000	14394.90000000	14322.56000000	14268.28000000	14208.72000000	14129.22000000	14055.58000000	13978.94000000	13883.06000000	13785.18000000	13673.60000000	13539.10000000	13412.58000000	13303.68000000	13202.52000000	13134.06000000	13091.14000000	13030.24000000	12948.08000000	12835.56000000	12718.80000000	12567.78000000	12429.66000000	12315.72000000	12204.44000000	12087.76000000	11988.12000000	11896.22000000	11794.28000000	11709.68000000	11618.82000000	11530.06000000	11436.38000000	11359.36000000	11272.88000000	11204.96000000	11140.50000000	11082.16000000	11002.40000000	10940.74000000	10866.02000000	10795.50000000	10729.36000000	10668.08000000	10607.46000000	10552.58000000	10499.72000000	10439.66000000	10399.44000000	10361.84000000	10334.02000000	10309.14000000	10291.68000000	10269.74000000	10246.68000000	10218.88000000	10190.90000000	10163.16000000	10134.00000000	10101.96000000	10075.46000000	10049.90000000	10027.54000000	10003.64000000	9979.66000000	9963.64000000	9939.02000000	9912.42000000	9900.68000000	9882.04000000	9852.52000000	9832.34000000	9807.86000000	9765.12000000	9737.08000000	9711.58000000	9683.30000000	9660.20000000	9642.06000000	9612.64000000	9573.34000000	9541.74000000	9509.54000000	9472.08000000	9439.76000000	9413.40000000	9373.60000000	9328.82000000	9275.12000000	9228.06000000	9170.66000000	9115.86000000	9049.18000000	8996.60000000	8929.76000000	8876.26000000	8819.56000000	8768.00000000	8705.82000000	8665.24000000	8590.30000000	8527.62000000	8460.40000000	8394.38000000	8304.36000000	8239.78000000	8160.12000000	8082.20000000	8006.86000000	7929.60000000	7848.86000000	7775.84000000	7701.14000000	7638.18000000	7571.24000000	7504.44000000	7435.82000000	7377.46000000	7308.66000000	7237.64000000	7167.64000000	7100.50000000	7029.02000000	6957.68000000	6908.48000000	6869.02000000	6821.80000000	6781.50000000	6747.58000000	6702.46000000	6660.94000000	6622.36000000	6586.74000000	6545.94000000	6502.88000000	6461.74000000	6428.32000000	6392.68000000	6360.60000000	6340.10000000	6316.48000000	6285.92000000	6265.38000000	6245.84000000	6219.00000000	6197.90000000	6187.66000000	6173.36000000	6148.92000000	6136.20000000	6114.00000000	6083.44000000	6051.16000000	6029.28000000	5994.14000000	5963.60000000	5946.94000000	5927.34000000	5902.90000000	5885.02000000	5870.50000000	5846.20000000	5819.78000000	5793.28000000	5770.94000000	5743.20000000	5713.14000000	5686.44000000	5655.50000000	5624.68000000	5587.08000000	5552.44000000	5516.26000000	5493.32000000	5464.30000000	5436.76000000	5403.48000000	5374.84000000	5336.96000000	5295.74000000	5254.86000000	5225.00000000	5186.36000000	5147.66000000	5117.66000000	5084.30000000	5045.10000000	5004.98000000	4964.82000000	4919.46000000	4876.68000000	4830.60000000	4790.92000000	4749.00000000	4704.40000000	4665.38000000	4627.24000000	4585.02000000	4544.96000000	4501.12000000	4453.42000000	4408.78000000	4371.60000000	4326.68000000	4287.12000000	4256.32000000	4229.88000000	4193.48000000	4159.86000000	4130.08000000	4094.86000000	4058.56000000	4033.30000000	4020.68000000	4005.98000000	3993.06000000	3984.42000000	3965.26000000	3949.96000000	3934.88000000	3920.32000000	3897.86000000	3884.84000000	3860.96000000	3847.08000000	3825.66000000	3814.98000000	3793.00000000	3781.28000000	3768.38000000	3759.36000000	3745.98000000	3743.76000000	3736.26000000	3721.78000000	3717.18000000	3711.96000000	3703.64000000	3698.32000000	3692.32000000	3682.32000000	3673.42000000	3664.64000000	3654.48000000	3646.78000000	3644.22000000	3638.46000000	3628.88000000	3625.98000000	3622.70000000	3610.68000000	3596.84000000	3591.86000000	3580.30000000	3570.80000000	3564.56000000	3558.24000000	3552.02000000	3539.44000000	3532.84000000	3530.88000000	3523.62000000	3514.74000000	3505.86000000	3493.24000000	3473.36000000	3455.72000000	3438.44000000	3429.78000000	3411.22000000	3395.54000000	3387.24000000	3370.48000000	3345.72000000	3333.04000000	3318.94000000	3295.92000000	3279.04000000	3263.42000000	3237.68000000	3213.46000000	3191.32000000	3171.60000000	3148.12000000	3124.64000000	3097.44000000	3074.92000000	3044.34000000	3021.80000000	2998.32000000	2976.62000000	2951.82000000	2927.20000000	2895.56000000	2872.74000000	2847.80000000	2827.72000000	2803.06000000	2786.96000000	2765.72000000	2745.70000000	2721.92000000	2709.48000000	2680.70000000	2654.54000000	2631.60000000	2608.90000000	2580.06000000	2568.52000000	2558.62000000	2537.90000000	2513.96000000	2500.68000000	2484.52000000	2469.36000000	2458.82000000	2445.58000000	2431.56000000	2416.92000000	2398.74000000	2386.22000000	2377.20000000	2365.82000000	2353.38000000	2347.08000000	2337.62000000	2324.34000000	2315.38000000	2309.84000000	2294.76000000	2287.74000000	2281.56000000	2273.68000000	2263.26000000	2257.50000000	2247.74000000	2247.04000000	2237.24000000	2231.80000000	2223.08000000	2217.92000000	2215.88000000	2207.28000000	2201.14000000	2193.84000000	2183.72000000	2168.74000000	2170.82000000	2160.04000000	2156.80000000	2148.14000000	2142.54000000	2131.78000000	2127.06000000	2117.08000000	2111.00000000	2101.88000000	2087.20000000	2083.04000000	2073.66000000	2071.20000000	2073.88000000	2077.18000000	2069.18000000	2075.16000000	2072.02000000	2061.62000000	2052.82000000	2044.98000000	2032.58000000	2018.40000000	2010.10000000	2002.00000000	2000.22000000	1992.92000000	1987.84000000	1979.28000000	1974.14000000	1956.00000000	1942.90000000	1930.76000000	1919.20000000	1911.64000000	1907.58000000	1903.54000000	1897.54000000	1888.80000000	1876.52000000	1867.20000000	1852.58000000	1842.02000000	1831.98000000	1825.32000000	1813.64000000	1805.76000000	1795.82000000	1785.60000000	1764.22000000	1753.14000000	1741.68000000	1731.66000000	1720.58000000	1715.54000000	1706.10000000	1698.16000000	1686.58000000	1677.52000000	1672.56000000	1661.64000000	1651.48000000	1642.20000000	1633.10000000	1622.32000000	1620.44000000	1618.06000000	1609.98000000	1604.26000000	1599.78000000	1584.28000000	1573.16000000	1563.04000000	1557.12000000	1549.08000000	1548.20000000	1541.52000000	1542.96000000	1534.40000000	1528.36000000	1522.50000000	1512.94000000	1505.46000000	1498.52000000	1485.08000000	1480.92000000	1475.48000000	1465.66000000	1462.14000000	1457.00000000	1444.82000000	1444.06000000	1444.96000000	1437.34000000	1435.92000000	1436.38000000	1428.52000000	1414.82000000	1416.08000000	1411.06000000	1399.94000000	1393.34000000	1396.28000000	1392.74000000	1387.94000000	1386.50000000	1377.48000000	1366.70000000	1358.64000000	1353.76000000	1354.04000000	1353.68000000	1351.34000000	1344.22000000	1347.62000000	1340.86000000	1338.30000000	1340.58000000	1340.12000000	1332.34000000	1326.12000000	1325.92000000	1317.72000000	1313.30000000	1313.74000000	1308.14000000	1306.52000000	1302.14000000	1297.92000000	1289.54000000	1292.26000000	1290.08000000	1284.20000000	1283.08000000	1282.94000000	1280.70000000	1273.08000000	1281.18000000	1274.80000000	1269.84000000	1262.96000000	1259.06000000	1249.32000000	1246.98000000	1239.08000000	1242.80000000	1237.76000000	1233.66000000	1232.44000000	1228.04000000	1219.84000000	1218.98000000	1220.42000000	1218.96000000	1224.98000000	1220.02000000	1217.12000000	1204.80000000	1197.88000000	1189.20000000	1188.10000000	1183.42000000	1184.18000000	1178.96000000	1178.98000000	1173.44000000	1169.52000000	1165.78000000	1172.18000000	1168.12000000	1168.02000000	1166.46000000	1162.06000000	1153.40000000	1152.86000000	1147.70000000	1149.40000000	1150.00000000	1149.12000000	1146.30000000	1146.22000000	1135.58000000	1132.16000000	1132.04000000	1124.26000000	1123.44000000	1129.12000000	1126.42000000	1119.92000000	1121.04000000	1112.84000000	1107.96000000	1114.58000000	1115.36000000	1114.20000000	1115.80000000	1115.02000000	1105.58000000	1100.78000000	1099.84000000	1096.52000000	1094.02000000	1089.02000000	1092.82000000	1089.36000000	1094.84000000	1095.46000000	1098.36000000	1095.88000000	1094.12000000	1087.14000000	1083.54000000	1080.98000000	1080.12000000	1073.22000000	1074.12000000	1072.20000000	1073.66000000	1076.82000000	1077.60000000	1073.80000000	1073.42000000	1074.08000000	1059.14000000	1058.30000000	1058.36000000	1057.78000000	1059.16000000	1064.70000000	1068.56000000	1071.62000000	1069.94000000	1068.02000000	1063.38000000	1063.30000000	1058.40000000	1058.74000000	1058.36000000	1064.06000000	1061.74000000	1060.16000000	1060.34000000	1053.98000000	1052.16000000	1051.08000000	1052.50000000	1050.33333333
