Time1=100ms:Average1=5:Objective=10X:Aperture=1: (11/21/2018 11:29:54 AM)
11/21/2018 11:29:54 AM
Reflectance
10X
Ap#: 1
Avg1: 5.000000
Avg2: 0.000000
Int.Time1:100.000000

420.190645	9.348175
420.624620	9.321825
421.058582	9.286130
421.492531	9.254443
421.926468	9.233448
422.360391	9.245573
422.794301	9.236091
423.228199	9.250936
423.662083	9.271363
424.095955	9.292598
424.529813	9.299260
424.963658	9.323609
425.397491	9.332052
425.831310	9.359815
426.265116	9.387915
426.698909	9.409389
427.132689	9.425993
427.566455	9.462769
428.000209	9.489639
428.433949	9.533249
428.867676	9.570871
429.301389	9.596351
429.735090	9.632099
430.168777	9.663511
430.602451	9.692857
431.036111	9.718406
431.469759	9.752529
431.903392	9.775482
432.337013	9.797393
432.770620	9.822599
433.204213	9.839318
433.637794	9.859114
434.071360	9.882450
434.504914	9.910413
434.938453	9.941937
435.371979	9.970655
435.805492	9.989375
436.238991	10.010047
436.672477	10.036557
437.105949	10.062476
437.539407	10.072674
437.972852	10.088504
438.406283	10.100289
438.839700	10.119019
439.273104	10.125184
439.706494	10.125212
440.139871	10.129201
440.573233	10.141756
441.006582	10.143558
441.439917	10.139394
441.873238	10.132833
442.306546	10.128512
442.739839	10.119433
443.173119	10.103913
443.606385	10.092479
444.039636	10.082079
444.472874	10.075848
444.906099	10.064332
445.339309	10.057060
445.772505	10.044246
446.205687	10.029760
446.638855	10.025245
447.072009	10.010090
447.505149	9.990811
447.938275	9.976829
448.371387	9.953819
448.804485	9.927497
449.237569	9.902605
449.670638	9.871083
450.103694	9.835958
450.536735	9.796263
450.969762	9.758055
451.402774	9.719387
451.835773	9.683044
452.268757	9.642509
452.701727	9.601095
453.134683	9.560738
453.567624	9.516304
454.000551	9.475218
454.433464	9.438172
454.866362	9.396655
455.299246	9.358258
455.732116	9.312884
456.164971	9.265014
456.597811	9.218465
457.030638	9.168338
457.463449	9.118711
457.896246	9.070338
458.329029	9.013793
458.761797	8.959289
459.194551	8.906756
459.627290	8.859731
460.060014	8.804194
460.492724	8.756406
460.925419	8.706773
461.358099	8.658541
461.790765	8.608180
462.223416	8.559645
462.656052	8.504713
463.088674	8.458998
463.521281	8.409652
463.953873	8.362943
464.386450	8.319259
464.819012	8.283219
465.251560	8.241267
465.684093	8.202373
466.116611	8.168059
466.549114	8.141597
466.981602	8.116482
467.414075	8.084377
467.846533	8.051368
468.278977	8.032800
468.711405	8.004101
469.143818	7.985471
469.576216	7.975926
470.008600	7.966565
470.440968	7.957857
470.873321	7.953880
471.305659	7.947991
471.737982	7.953837
472.170289	7.958149
472.602582	7.968577
473.034859	7.976091
473.467122	7.993482
473.899369	8.007529
474.331600	8.025747
474.763817	8.048197
475.196018	8.071222
475.628204	8.102560
476.060375	8.137064
476.492530	8.171400
476.924670	8.206568
477.356795	8.250262
477.788904	8.294453
478.220998	8.337726
478.653076	8.382629
479.085139	8.427324
479.517186	8.476123
479.949219	8.516185
480.381235	8.561640
480.813236	8.607124
481.245221	8.653457
481.677191	8.697355
482.109146	8.740845
482.541084	8.777331
482.973008	8.816814
483.404915	8.850048
483.836807	8.884633
484.268683	8.914824
484.700544	8.941241
485.132388	8.969997
485.564217	8.996867
485.996031	9.020694
486.427828	9.043680
486.859610	9.059121
487.291376	9.072225
487.723126	9.088853
488.154860	9.097189
488.586579	9.108954
489.018281	9.111000
489.449968	9.114686
489.881639	9.117249
490.313293	9.116953
490.744932	9.111318
491.176555	9.101814
491.608162	9.088041
492.039753	9.067805
492.471328	9.047046
492.902886	9.015770
493.334429	8.984271
493.765956	8.943473
494.197466	8.901926
494.628960	8.855912
495.060439	8.805491
495.491901	8.749435
495.923347	8.694760
496.354776	8.628007
496.786190	8.566748
497.217587	8.495312
497.648968	8.424549
498.080332	8.349546
498.511681	8.268301
498.943013	8.181509
499.374328	8.093853
499.805628	8.003147
500.236911	7.913110
500.668177	7.819073
501.099427	7.724656
501.530661	7.634458
501.961878	7.540395
502.393079	7.453042
502.824264	7.369421
503.255431	7.290251
503.686583	7.217959
504.117717	7.155432
504.548835	7.103098
504.979937	7.059125
505.411022	7.025856
505.842090	7.000154
506.273142	6.989146
506.704177	6.989170
507.135195	7.003607
507.566197	7.033850
507.997182	7.080781
508.428150	7.145304
508.859102	7.234417
509.290036	7.342978
509.720954	7.477393
510.151855	7.628513
510.582739	7.813042
511.013607	8.012334
511.444457	8.240552
511.875291	8.486422
512.306107	8.763807
512.736907	9.059628
513.167690	9.381460
513.598456	9.723086
514.029205	10.099191
514.459936	10.498128
514.890651	10.924212
515.321349	11.381220
515.752030	11.864617
516.182693	12.374424
516.613340	12.911842
517.043969	13.473284
517.474582	14.051797
517.905177	14.643974
518.335755	15.255273
518.766315	15.882617
519.196859	16.518810
519.627385	17.162011
520.057894	17.808509
520.488386	18.458415
520.918860	19.118074
521.349318	19.787602
521.779757	20.466025
522.210180	21.147411
522.640585	21.825939
523.070973	22.507087
523.501343	23.190867
523.931696	23.868497
524.362031	24.548466
524.792349	25.225467
525.222650	25.903472
525.652933	26.562542
526.083198	27.215227
526.513446	27.850820
526.943677	28.481684
527.373890	29.100434
527.804085	29.709561
528.234262	30.301102
528.664422	30.887403
529.094565	31.462313
529.524689	32.018044
529.954796	32.558404
530.384885	33.086288
530.814957	33.596115
531.245011	34.102436
531.675047	34.596386
532.105065	35.074551
532.535065	35.550669
532.965048	36.012612
533.395013	36.457131
533.824959	36.894246
534.254888	37.317322
534.684799	37.734912
535.114693	38.142848
535.544568	38.537312
535.974425	38.931650
536.404264	39.301321
536.834086	39.661873
537.263889	40.012515
537.693674	40.353453
538.123441	40.680004
538.553190	40.989670
538.982921	41.299303
539.412634	41.598886
539.842329	41.902410
540.272006	42.184264
540.701664	42.452170
541.131304	42.719373
541.560926	42.975334
541.990530	43.220869
542.420116	43.457271
542.849683	43.688310
543.279232	43.918353
543.708763	44.131016
544.138275	44.343680
544.567769	44.536586
544.997245	44.726385
545.426702	44.912876
545.856141	45.088508
546.285562	45.265651
546.714964	45.439666
547.144347	45.608901
547.573713	45.775232
548.003059	45.928410
548.432387	46.080013
548.861697	46.234531
549.290988	46.384650
549.720260	46.541854
550.149514	46.692937
550.578750	46.838232
551.007966	46.973709
551.437164	47.116783
551.866344	47.255480
552.295504	47.380810
552.724646	47.516133
553.153769	47.639476
553.582874	47.774050
554.011960	47.901191
554.441027	48.022346
554.870075	48.139441
555.299104	48.246634
555.728115	48.341044
556.157106	48.441631
556.586079	48.527245
557.015033	48.606028
557.443968	48.678916
557.872884	48.755667
558.301781	48.819451
558.730659	48.887529
559.159518	48.942098
559.588358	49.002918
560.017180	49.054660
560.445982	49.101016
560.874765	49.145978
561.303528	49.193528
561.732273	49.248064
562.160999	49.289949
562.589705	49.331878
563.018393	49.376123
563.447061	49.423196
563.875710	49.471024
564.304340	49.526166
564.732950	49.572530
565.161542	49.629186
565.590114	49.687558
566.018666	49.744875
566.447200	49.805317
566.875714	49.861002
567.304208	49.922677
567.732684	49.984783
568.161140	50.046594
568.589576	50.118919
569.017993	50.192742
569.446391	50.260870
569.874769	50.334972
570.303128	50.411458
570.731467	50.484134
571.159787	50.553572
571.588087	50.620520
572.016368	50.681957
572.444629	50.745432
572.872870	50.796735
573.301092	50.846809
573.729294	50.891881
574.157476	50.935138
574.585639	50.971725
575.013782	50.998433
575.441906	51.028095
575.870009	51.047276
576.298093	51.055810
576.726157	51.067287
577.154202	51.075595
577.582226	51.084762
578.010231	51.082984
578.438216	51.077957
578.866181	51.065489
579.294126	51.057499
579.722051	51.048056
580.149957	51.039608
580.577842	51.027918
581.005707	51.016447
581.433553	51.014696
581.861378	51.006891
582.289184	51.004510
582.716969	50.998537
583.144734	50.986215
583.572479	50.983740
584.000205	50.983451
584.427910	50.979730
584.855594	50.976306
585.283259	50.966807
585.710904	50.969691
586.138528	50.961345
586.566132	50.959108
586.993716	50.954301
587.421280	50.949161
587.848823	50.945294
588.276346	50.938570
588.703849	50.921859
589.131332	50.908633
589.558794	50.898168
589.986236	50.865653
590.413657	50.842720
590.841058	50.802885
591.268438	50.766625
591.695799	50.722141
592.123138	50.675722
592.550458	50.618569
592.977756	50.561151
593.405034	50.504006
593.832292	50.440308
594.259529	50.369260
594.686746	50.290867
595.113942	50.207522
595.541117	50.121882
595.968272	50.035915
596.395406	49.948799
596.822519	49.857147
597.249612	49.763927
597.676684	49.671511
598.103735	49.576364
598.530766	49.489058
598.957775	49.391416
599.384764	49.296603
599.811733	49.198570
600.238680	49.104315
600.665606	49.003022
601.092512	48.904888
601.519397	48.803186
601.946261	48.708297
602.373104	48.609454
602.799926	48.503345
603.226727	48.407629
603.653507	48.297574
604.080266	48.191803
604.507004	48.083187
604.933721	47.964400
605.360417	47.849887
605.787092	47.728409
606.213746	47.594966
606.640379	47.452305
607.066991	47.305039
607.493581	47.145689
607.920150	46.979162
608.346699	46.809402
608.773226	46.624727
609.199731	46.430241
609.626216	46.228911
610.052679	46.012856
610.479121	45.781491
610.905542	45.536703
611.331941	45.285680
611.758319	45.008163
612.184676	44.724498
612.611011	44.426006
613.037325	44.106860
613.463617	43.769408
613.889888	43.421057
614.316138	43.051076
614.742366	42.662869
615.168573	42.255331
615.594758	41.825473
616.020921	41.383465
616.447063	40.923871
616.873184	40.446520
617.299283	39.952975
617.725360	39.450310
618.151416	38.940621
618.577450	38.410932
619.003462	37.867543
619.429453	37.320433
619.855422	36.760795
620.281369	36.196499
620.707295	35.625720
621.133199	35.044614
621.559081	34.450983
621.984941	33.854717
622.410779	33.251450
622.836596	32.637316
623.262391	32.020288
623.688163	31.400795
624.113914	30.778206
624.539644	30.147073
624.965351	29.513869
625.391036	28.869480
625.816699	28.224889
626.242340	27.580361
626.667960	26.929740
627.093557	26.276033
627.519132	25.629317
627.944685	24.982132
628.370216	24.344109
628.795725	23.717184
629.221212	23.095072
629.646677	22.486854
630.072119	21.895193
630.497540	21.322697
630.922938	20.770342
631.348314	20.242946
631.773668	19.741226
632.198999	19.267217
632.624308	18.823115
633.049595	18.411716
633.474860	18.029860
633.900102	17.681756
634.325322	17.368120
634.750520	17.090864
635.175695	16.846339
635.600848	16.635143
636.025978	16.460205
636.451086	16.318162
636.876171	16.207461
637.301234	16.125770
637.726275	16.082152
638.151293	16.069844
638.576288	16.090065
639.001261	16.144117
639.426211	16.230868
639.851139	16.346971
640.276044	16.493279
640.700927	16.669810
641.125787	16.879057
641.550624	17.122207
641.975438	17.390654
642.400230	17.692744
642.824999	18.015798
643.249745	18.367628
643.674469	18.744124
644.099169	19.138238
644.523847	19.551284
644.948502	19.981924
645.373135	20.428475
645.797744	20.887731
646.222330	21.356487
646.646894	21.837389
647.071435	22.328129
647.495953	22.823613
647.920447	23.317519
648.344919	23.813048
648.769368	24.310348
649.193794	24.806663
649.618197	25.298863
650.042576	25.788836
650.466933	26.283738
650.891267	26.767482
651.315577	27.248243
651.739864	27.723573
652.164129	28.184621
652.588370	28.641514
653.012587	29.095655
653.436782	29.542723
653.860953	29.979022
654.285102	30.408171
654.709226	30.818888
655.133328	31.228513
655.557406	31.618684
655.981461	32.002149
656.405493	32.373210
656.829501	32.728844
657.253486	33.072039
657.677448	33.399305
658.101386	33.711674
658.525301	34.006390
658.949192	34.288524
659.373060	34.554381
659.796904	34.805938
660.220725	35.041087
660.644522	35.256956
661.068296	35.468619
661.492046	35.672464
661.915772	35.864689
662.339475	36.042920
662.763154	36.216391
663.186810	36.377943
663.610442	36.525876
664.034050	36.666457
664.457635	36.799179
664.881196	36.923824
665.304733	37.043707
665.728247	37.154170
666.151736	37.256898
666.575202	37.350755
666.998644	37.441215
667.422062	37.528932
667.845457	37.606835
668.268827	37.670128
668.692174	37.733756
669.115496	37.790839
669.538795	37.837543
669.962070	37.874545
670.385321	37.906125
670.808547	37.931562
671.231750	37.956912
671.654929	37.979111
672.078084	37.991552
672.501214	38.000719
672.924321	37.996715
673.347404	37.991461
673.770462	37.983887
674.193496	37.964537
674.616506	37.935021
675.039492	37.897122
675.462454	37.851933
675.885391	37.799530
676.308305	37.738644
676.731194	37.671303
677.154058	37.595134
677.576899	37.510613
677.999715	37.425725
678.422507	37.337385
678.845274	37.240941
679.268017	37.141609
679.690736	37.047806
680.113430	36.943040
680.536100	36.840765
680.958746	36.738973
681.381367	36.639747
681.803963	36.538498
682.226535	36.443311
682.649083	36.355216
683.071605	36.270534
683.494104	36.187739
683.916578	36.106117
684.339027	36.024755
684.761451	35.945254
685.183851	35.867223
685.606227	35.795862
686.028577	35.729434
686.450903	35.665338
686.873204	35.605511
687.295481	35.555576
687.717733	35.507139
688.139959	35.462906
688.562162	35.422965
688.984339	35.387144
689.406492	35.361306
689.828619	35.342452
690.250722	35.332293
690.672800	35.334200
691.094853	35.340098
691.516881	35.348937
691.938884	35.366778
692.360863	35.392659
692.782816	35.421767
693.204744	35.459319
693.626647	35.496487
694.048526	35.540371
694.470379	35.592168
694.892207	35.645326
695.314010	35.702607
695.735788	35.761992
696.157540	35.824142
696.579268	35.893930
697.000970	35.968451
697.422648	36.045579
697.844300	36.124732
698.265926	36.209807
698.687528	36.292581
699.109104	36.381770
699.530655	36.469176
699.952181	36.561044
